Data from Al_FLMS009871__1223__16-44-32-175.txt Node

Date: Fri Mar 08 16:44:32 CST 2024
User: pe5414po
Spectrometer: FLMS00987
Trigger mode: 0
Integration Time (sec): 1.000000E-1
Scans to average: 1
Electric dark correction enabled: true
Nonlinearity correction enabled: false
Boxcar width: 0
XAxis mode: Wavelengths
Number of Pixels in Spectrum: 2048
>>>>>Begin Spectral Data<<<<<
188.938	-67
189.409	-67
189.879	-67
190.349	-97.42
190.819	-95.08
191.29	-111.47
191.76	-62.32
192.23	-92.74
192.7	-99.77
193.17	-41.25
193.64	-41.25
194.109	-29.55
194.579	19.6
195.049	-24.87
195.519	26.62
195.988	21.94
196.458	43.01
196.927	103.86
197.397	40.67
197.866	169.4
198.336	78.12
198.805	96.84
199.274	183.44
199.744	256
200.213	174.08
200.682	171.74
201.151	209.19
201.62	232.59
202.089	213.87
202.558	270.04
203.027	237.27
203.495	223.23
203.964	305.15
204.433	277.06
204.902	295.79
205.37	316.85
205.839	300.47
206.307	265.36
206.776	223.23
207.244	354.3
207.712	281.74
208.181	277.06
208.649	274.72
209.117	319.19
209.585	267.7
210.053	328.55
210.521	298.13
210.989	270.04
211.457	234.93
211.925	237.27
212.393	305.15
212.861	295.79
213.328	305.15
213.796	272.38
214.264	377.7
214.731	288.76
215.199	265.36
215.666	246.63
216.133	286.42
216.601	232.59
217.068	188.12
217.535	260.68
218.003	199.82
218.47	312.17
218.937	220.89
219.404	328.55
219.871	244.29
220.338	246.63
220.805	270.04
221.271	274.72
221.738	206.84
222.205	305.15
222.671	237.27
223.138	192.8
223.605	288.76
224.071	248.97
224.538	260.68
225.004	246.63
225.47	321.53
225.937	253.66
226.403	321.53
226.869	267.7
227.335	246.63
227.801	199.82
228.267	295.79
228.733	265.36
229.199	256
229.665	321.53
230.131	237.27
230.597	241.95
231.062	298.13
231.528	321.53
231.994	265.36
232.459	293.44
232.925	272.38
233.39	248.97
233.856	218.55
234.321	251.32
234.786	302.81
235.252	286.42
235.717	260.68
236.182	270.04
236.647	347.28
237.112	241.95
237.577	256
238.042	291.1
238.507	263.02
238.972	319.19
239.436	281.74
239.901	298.13
240.366	244.29
240.83	267.7
241.295	286.42
241.76	253.66
242.224	314.51
242.688	230.25
243.153	284.08
243.617	260.68
244.081	253.66
244.545	251.32
245.01	307.49
245.474	298.13
245.938	309.83
246.402	239.61
246.866	239.61
247.33	347.28
247.793	286.42
248.257	253.66
248.721	307.49
249.185	312.17
249.648	291.1
250.112	251.32
250.575	272.38
251.039	277.06
251.502	302.81
251.965	281.74
252.429	309.83
252.892	253.66
253.355	237.27
253.818	302.81
254.281	220.89
254.744	323.87
255.207	225.57
255.67	279.4
256.133	326.21
256.596	274.72
257.059	265.36
257.522	356.64
257.984	206.84
258.447	305.15
258.909	298.13
259.372	298.13
259.834	281.74
260.297	291.1
260.759	274.72
261.221	286.42
261.684	286.42
262.146	272.38
262.608	239.61
263.07	349.62
263.532	302.81
263.994	312.17
264.456	351.96
264.918	241.95
265.38	293.44
265.842	274.72
266.303	227.91
266.765	312.17
267.227	286.42
267.688	288.76
268.15	265.36
268.611	298.13
269.072	279.4
269.534	288.76
269.995	314.51
270.456	316.85
270.918	277.06
271.379	295.79
271.84	351.96
272.301	302.81
272.762	263.02
273.223	279.4
273.684	274.72
274.144	307.49
274.605	279.4
275.066	305.15
275.527	328.55
275.987	298.13
276.448	351.96
276.908	300.47
277.369	251.32
277.829	323.87
278.289	291.1
278.75	293.44
279.21	272.38
279.67	342.6
280.13	330.89
280.59	337.91
281.05	218.55
281.51	281.74
281.97	237.27
282.43	326.21
282.89	323.87
283.35	227.91
283.809	328.55
284.269	316.85
284.729	263.02
285.188	335.57
285.648	241.95
286.107	309.83
286.567	272.38
287.026	309.83
287.485	263.02
287.944	347.28
288.404	319.19
288.863	277.06
289.322	277.06
289.781	174.08
290.24	263.02
290.699	263.02
291.158	241.95
291.616	340.26
292.075	340.26
292.534	305.15
292.992	295.79
293.451	197.48
293.91	288.76
294.368	302.81
294.827	312.17
295.285	279.4
295.743	300.47
296.202	347.28
296.66	298.13
297.118	316.85
297.576	337.91
298.034	281.74
298.492	319.19
298.95	277.06
299.408	305.15
299.866	314.51
300.324	286.42
300.781	323.87
301.239	284.08
301.697	284.08
302.154	312.17
302.612	321.53
303.069	298.13
303.527	246.63
303.984	246.63
304.441	298.13
304.899	302.81
305.356	309.83
305.813	293.44
306.27	227.91
306.727	272.38
307.184	316.85
307.641	356.64
308.098	335.57
308.555	298.13
309.012	333.23
309.468	239.61
309.925	258.34
310.382	281.74
310.838	300.47
311.295	307.49
311.751	307.49
312.208	270.04
312.664	300.47
313.12	333.23
313.577	234.93
314.033	281.74
314.489	337.91
314.945	337.91
315.401	284.08
315.857	258.34
316.313	347.28
316.769	281.74
317.225	239.61
317.681	358.98
318.136	288.76
318.592	309.83
319.048	333.23
319.503	302.81
319.959	330.89
320.414	286.42
320.869	277.06
321.325	293.44
321.78	307.49
322.235	344.94
322.691	344.94
323.146	284.08
323.601	382.39
324.056	300.47
324.511	277.06
324.966	347.28
325.421	340.26
325.875	305.15
326.33	300.47
326.785	321.53
327.24	300.47
327.694	209.19
328.149	270.04
328.603	295.79
329.058	270.04
329.512	295.79
329.966	274.72
330.421	328.55
330.875	251.32
331.329	272.38
331.783	330.89
332.237	321.53
332.691	333.23
333.145	342.6
333.599	319.19
334.053	335.57
334.507	316.85
334.96	298.13
335.414	312.17
335.868	291.1
336.321	300.47
336.775	263.02
337.228	361.32
337.682	293.44
338.135	342.6
338.588	258.34
339.042	305.15
339.495	312.17
339.948	373.02
340.401	298.13
340.854	349.62
341.307	256
341.76	330.89
342.213	305.15
342.666	286.42
343.119	298.13
343.571	321.53
344.024	274.72
344.477	302.81
344.929	298.13
345.382	314.51
345.834	288.76
346.287	298.13
346.739	218.55
347.191	248.97
347.644	358.98
348.096	305.15
348.548	309.83
349	307.49
349.452	288.76
349.904	312.17
350.356	321.53
350.808	356.64
351.26	267.7
351.711	286.42
352.163	270.04
352.615	344.94
353.066	267.7
353.518	335.57
353.969	316.85
354.421	314.51
354.872	333.23
355.324	326.21
355.775	323.87
356.226	347.28
356.677	279.4
357.128	293.44
357.579	305.15
358.03	344.94
358.481	314.51
358.932	370.68
359.383	293.44
359.834	293.44
360.285	323.87
360.735	279.4
361.186	251.32
361.637	363.66
362.087	316.85
362.538	284.08
362.988	234.93
363.438	356.64
363.889	337.91
364.339	403.45
364.789	265.36
365.239	263.02
365.689	291.1
366.139	258.34
366.589	253.66
367.039	270.04
367.489	323.87
367.939	309.83
368.389	298.13
368.839	291.1
369.288	248.97
369.738	288.76
370.187	309.83
370.637	314.51
371.086	314.51
371.536	312.17
371.985	291.1
372.434	323.87
372.884	288.76
373.333	326.21
373.782	293.44
374.231	281.74
374.68	265.36
375.129	337.91
375.578	281.74
376.027	307.49
376.475	291.1
376.924	344.94
377.373	384.73
377.822	375.36
378.27	253.66
378.719	314.51
379.167	277.06
379.616	309.83
380.064	328.55
380.512	356.64
380.961	358.98
381.409	302.81
381.857	305.15
382.305	347.28
382.753	305.15
383.201	241.95
383.649	344.94
384.097	335.57
384.545	305.15
384.992	349.62
385.44	319.19
385.888	333.23
386.335	337.91
386.783	279.4
387.231	326.21
387.678	309.83
388.125	298.13
388.573	323.87
389.02	286.42
389.467	319.19
389.914	305.15
390.362	314.51
390.809	265.36
391.256	302.81
391.703	333.23
392.15	377.7
392.596	344.94
393.043	330.89
393.49	298.13
393.937	293.44
394.383	330.89
394.83	361.32
395.276	279.4
395.723	375.36
396.169	349.62
396.616	326.21
397.062	321.53
397.508	309.83
397.954	272.38
398.401	302.81
398.847	286.42
399.293	307.49
399.739	366
400.185	366
400.631	330.89
401.076	307.49
401.522	319.19
401.968	337.91
402.414	267.7
402.859	326.21
403.305	286.42
403.75	314.51
404.196	309.83
404.641	330.89
405.086	314.51
405.532	312.17
405.977	298.13
406.422	384.73
406.867	312.17
407.312	284.08
407.757	307.49
408.202	309.83
408.647	323.87
409.092	363.66
409.537	274.72
409.982	342.6
410.426	305.15
410.871	251.32
411.316	309.83
411.76	256
412.205	302.81
412.649	251.32
413.093	314.51
413.538	291.1
413.982	326.21
414.426	326.21
414.87	272.38
415.314	358.98
415.758	389.41
416.202	295.79
416.646	319.19
417.09	258.34
417.534	288.76
417.978	368.34
418.421	326.21
418.865	328.55
419.309	349.62
419.752	403.45
420.196	293.44
420.639	305.15
421.083	314.51
421.526	251.32
421.969	314.51
422.412	260.68
422.856	335.57
423.299	302.81
423.742	253.66
424.185	330.89
424.628	291.1
425.071	342.6
425.513	340.26
425.956	305.15
426.399	340.26
426.842	263.02
427.284	349.62
427.727	302.81
428.169	274.72
428.612	260.68
429.054	319.19
429.497	288.76
429.939	321.53
430.381	316.85
430.823	323.87
431.265	305.15
431.707	291.1
432.149	330.89
432.591	263.02
433.033	316.85
433.475	382.39
433.917	295.79
434.359	302.81
434.8	351.96
435.242	319.19
435.684	295.79
436.125	335.57
436.567	358.98
437.008	260.68
437.449	216.21
437.891	340.26
438.332	295.79
438.773	284.08
439.214	286.42
439.656	295.79
440.097	298.13
440.538	265.36
440.978	335.57
441.419	251.32
441.86	307.49
442.301	295.79
442.742	307.49
443.182	295.79
443.623	295.79
444.063	323.87
444.504	340.26
444.944	258.34
445.385	363.66
445.825	302.81
446.265	358.98
446.706	274.72
447.146	344.94
447.586	375.36
448.026	293.44
448.466	293.44
448.906	326.21
449.346	263.02
449.786	361.32
450.225	270.04
450.665	340.26
451.105	319.19
451.544	361.32
451.984	293.44
452.424	309.83
452.863	358.98
453.302	337.91
453.742	340.26
454.181	316.85
454.62	272.38
455.059	368.34
455.499	347.28
455.938	307.49
456.377	370.68
456.816	380.04
457.254	312.17
457.693	281.74
458.132	370.68
458.571	316.85
459.01	312.17
459.448	326.21
459.887	281.74
460.325	284.08
460.764	323.87
461.202	274.72
461.641	337.91
462.079	328.55
462.517	279.4
462.955	302.81
463.393	349.62
463.832	295.79
464.27	272.38
464.708	337.91
465.145	363.66
465.583	307.49
466.021	363.66
466.459	342.6
466.897	342.6
467.334	323.87
467.772	244.29
468.209	239.61
468.647	293.44
469.084	274.72
469.522	288.76
469.959	337.91
470.396	302.81
470.833	358.98
471.271	358.98
471.708	239.61
472.145	351.96
472.582	265.36
473.019	340.26
473.456	265.36
473.892	218.55
474.329	293.44
474.766	284.08
475.202	316.85
475.639	344.94
476.076	312.17
476.512	246.63
476.949	321.53
477.385	258.34
477.821	319.19
478.258	251.32
478.694	227.91
479.13	349.62
479.566	368.34
480.002	337.91
480.438	295.79
480.874	405.79
481.31	344.94
481.746	307.49
482.181	300.47
482.617	251.32
483.053	298.13
483.488	356.64
483.924	356.64
484.36	300.47
484.795	323.87
485.23	286.42
485.666	375.36
486.101	314.51
486.536	351.96
486.971	344.94
487.407	340.26
487.842	258.34
488.277	316.85
488.712	284.08
489.146	361.32
489.581	330.89
490.016	279.4
490.451	309.83
490.885	363.66
491.32	340.26
491.755	265.36
492.189	291.1
492.624	309.83
493.058	337.91
493.492	298.13
493.927	382.39
494.361	239.61
494.795	361.32
495.229	309.83
495.663	319.19
496.097	253.66
496.531	354.3
496.965	279.4
497.399	309.83
497.833	300.47
498.266	300.47
498.7	328.55
499.134	342.6
499.567	380.04
500.001	305.15
500.434	230.25
500.868	248.97
501.301	284.08
501.734	344.94
502.168	302.81
502.601	274.72
503.034	335.57
503.467	298.13
503.9	342.6
504.333	340.26
504.766	354.3
505.199	351.96
505.632	333.23
506.064	326.21
506.497	316.85
506.93	291.1
507.362	316.85
507.795	316.85
508.227	253.66
508.66	248.97
509.092	323.87
509.524	267.7
509.956	356.64
510.389	328.55
510.821	391.75
511.253	358.98
511.685	298.13
512.117	347.28
512.549	375.36
512.981	305.15
513.412	344.94
513.844	333.23
514.276	337.91
514.707	300.47
515.139	354.3
515.571	366
516.002	358.98
516.433	380.04
516.865	300.47
517.296	347.28
517.727	319.19
518.159	368.34
518.59	312.17
519.021	305.15
519.452	305.15
519.883	267.7
520.314	274.72
520.744	302.81
521.175	279.4
521.606	288.76
522.037	256
522.467	349.62
522.898	373.02
523.328	370.68
523.759	370.68
524.189	232.59
524.62	330.89
525.05	281.74
525.48	312.17
525.91	312.17
526.341	291.1
526.771	256
527.201	351.96
527.631	265.36
528.061	312.17
528.49	314.51
528.92	298.13
529.35	316.85
529.78	344.94
530.209	316.85
530.639	256
531.068	380.04
531.498	300.47
531.927	333.23
532.357	319.19
532.786	316.85
533.215	326.21
533.644	337.91
534.074	307.49
534.503	314.51
534.932	351.96
535.361	347.28
535.79	319.19
536.218	281.74
536.647	391.75
537.076	358.98
537.505	291.1
537.933	300.47
538.362	361.32
538.79	380.04
539.219	330.89
539.647	319.19
540.076	323.87
540.504	312.17
540.932	335.57
541.36	307.49
541.788	314.51
542.217	270.04
542.645	312.17
543.073	319.19
543.5	375.36
543.928	321.53
544.356	267.7
544.784	382.39
545.211	361.32
545.639	286.42
546.067	298.13
546.494	312.17
546.922	300.47
547.349	335.57
547.776	298.13
548.204	342.6
548.631	237.27
549.058	248.97
549.485	291.1
549.912	328.55
550.339	279.4
550.766	312.17
551.193	288.76
551.62	291.1
552.047	323.87
552.474	314.51
552.9	354.3
553.327	309.83
553.754	314.51
554.18	298.13
554.607	363.66
555.033	337.91
555.459	319.19
555.886	354.3
556.312	286.42
556.738	319.19
557.164	323.87
557.59	333.23
558.016	314.51
558.442	330.89
558.868	389.41
559.294	349.62
559.72	349.62
560.145	330.89
560.571	401.11
560.997	335.57
561.422	279.4
561.848	302.81
562.273	373.02
562.699	380.04
563.124	328.55
563.549	347.28
563.974	335.57
564.4	342.6
564.825	279.4
565.25	337.91
565.675	333.23
566.1	319.19
566.525	321.53
566.95	309.83
567.374	342.6
567.799	344.94
568.224	300.47
568.648	316.85
569.073	366
569.497	382.39
569.922	258.34
570.346	305.15
570.771	295.79
571.195	305.15
571.619	309.83
572.043	321.53
572.467	293.44
572.891	298.13
573.315	312.17
573.739	361.32
574.163	316.85
574.587	354.3
575.011	309.83
575.435	298.13
575.858	293.44
576.282	323.87
576.705	351.96
577.129	286.42
577.552	309.83
577.976	321.53
578.399	288.76
578.822	344.94
579.245	330.89
579.669	305.15
580.092	312.17
580.515	337.91
580.938	314.51
581.361	344.94
581.784	335.57
582.206	307.49
582.629	291.1
583.052	344.94
583.474	394.09
583.897	380.04
584.32	323.87
584.742	300.47
585.165	295.79
585.587	351.96
586.009	330.89
586.431	335.57
586.854	277.06
587.276	316.85
587.698	256
588.12	288.76
588.542	356.64
588.964	302.81
589.386	342.6
589.807	302.81
590.229	347.28
590.651	295.79
591.073	307.49
591.494	274.72
591.916	335.57
592.337	375.36
592.759	344.94
593.18	295.79
593.601	330.89
594.022	356.64
594.444	347.28
594.865	300.47
595.286	340.26
595.707	284.08
596.128	319.19
596.549	323.87
596.97	295.79
597.39	321.53
597.811	326.21
598.232	356.64
598.652	256
599.073	349.62
599.494	293.44
599.914	337.91
600.334	305.15
600.755	284.08
601.175	302.81
601.595	344.94
602.015	295.79
602.436	321.53
602.856	471.33
603.276	307.49
603.696	258.34
604.115	312.17
604.535	340.26
604.955	274.72
605.375	272.38
605.794	270.04
606.214	288.76
606.634	340.26
607.053	312.17
607.473	389.41
607.892	234.93
608.311	267.7
608.731	246.63
609.15	340.26
609.569	344.94
609.988	291.1
610.407	387.07
610.826	321.53
611.245	363.66
611.664	291.1
612.083	323.87
612.501	302.81
612.92	241.95
613.339	337.91
613.757	342.6
614.176	316.85
614.594	368.34
615.013	333.23
615.431	314.51
615.85	246.63
616.268	342.6
616.686	293.44
617.104	274.72
617.522	307.49
617.94	307.49
618.358	284.08
618.776	321.53
619.194	321.53
619.612	309.83
620.03	305.15
620.447	316.85
620.865	321.53
621.282	326.21
621.7	342.6
622.117	344.94
622.535	333.23
622.952	335.57
623.369	328.55
623.787	368.34
624.204	337.91
624.621	330.89
625.038	291.1
625.455	366
625.872	335.57
626.289	300.47
626.706	340.26
627.123	305.15
627.539	337.91
627.956	314.51
628.373	314.51
628.789	358.98
629.206	270.04
629.622	380.04
630.038	274.72
630.455	274.72
630.871	312.17
631.287	295.79
631.703	330.89
632.12	387.07
632.536	288.76
632.952	326.21
633.368	288.76
633.783	340.26
634.199	349.62
634.615	394.09
635.031	295.79
635.446	309.83
635.862	274.72
636.277	302.81
636.693	319.19
637.108	307.49
637.524	337.91
637.939	293.44
638.354	302.81
638.77	291.1
639.185	291.1
639.6	305.15
640.015	354.3
640.43	326.21
640.845	309.83
641.259	319.19
641.674	330.89
642.089	333.23
642.504	286.42
642.918	314.51
643.333	295.79
643.747	260.68
644.162	354.3
644.576	330.89
644.991	321.53
645.405	326.21
645.819	309.83
646.233	323.87
646.647	340.26
647.061	312.17
647.475	286.42
647.889	244.29
648.303	358.98
648.717	335.57
649.131	316.85
649.545	288.76
649.958	305.15
650.372	316.85
650.785	267.7
651.199	314.51
651.612	333.23
652.026	326.21
652.439	337.91
652.852	256
653.266	284.08
653.679	307.49
654.092	333.23
654.505	291.1
654.918	330.89
655.331	298.13
655.744	333.23
656.156	302.81
656.569	328.55
656.982	302.81
657.394	291.1
657.807	312.17
658.22	251.32
658.632	239.61
659.044	358.98
659.457	347.28
659.869	302.81
660.281	319.19
660.693	256
661.106	358.98
661.518	239.61
661.93	288.76
662.342	342.6
662.754	363.66
663.165	307.49
663.577	330.89
663.989	305.15
664.401	321.53
664.812	342.6
665.224	291.1
665.635	279.4
666.047	326.21
666.458	321.53
666.869	358.98
667.281	295.79
667.692	323.87
668.103	300.47
668.514	298.13
668.925	307.49
669.336	284.08
669.747	340.26
670.158	337.91
670.569	370.68
670.979	370.68
671.39	316.85
671.801	340.26
672.211	300.47
672.622	251.32
673.032	293.44
673.443	314.51
673.853	213.87
674.263	361.32
674.674	361.32
675.084	368.34
675.494	321.53
675.904	333.23
676.314	321.53
676.724	260.68
677.134	368.34
677.544	330.89
677.953	293.44
678.363	340.26
678.773	351.96
679.182	307.49
679.592	344.94
680.001	326.21
680.411	344.94
680.82	298.13
681.23	342.6
681.639	328.55
682.048	356.64
682.457	295.79
682.866	263.02
683.275	344.94
683.684	309.83
684.093	248.97
684.502	279.4
684.911	328.55
685.32	347.28
685.728	380.04
686.137	335.57
686.546	291.1
686.954	314.51
687.363	281.74
687.771	354.3
688.179	351.96
688.588	286.42
688.996	321.53
689.404	309.83
689.812	328.55
690.22	340.26
690.628	298.13
691.036	344.94
691.444	300.47
691.852	272.38
692.26	316.85
692.667	351.96
693.075	323.87
693.483	309.83
693.89	281.74
694.298	370.68
694.705	312.17
695.112	344.94
695.52	347.28
695.927	272.38
696.334	298.13
696.741	326.21
697.148	319.19
697.555	323.87
697.962	220.89
698.369	267.7
698.776	342.6
699.183	412.81
699.59	335.57
699.996	298.13
700.403	349.62
700.81	241.95
701.216	291.1
701.623	248.97
702.029	295.79
702.435	298.13
702.842	314.51
703.248	272.38
703.654	302.81
704.06	298.13
704.466	277.06
704.872	312.17
705.278	300.47
705.684	354.3
706.09	356.64
706.496	368.34
706.901	358.98
707.307	277.06
707.712	328.55
708.118	333.23
708.523	312.17
708.929	274.72
709.334	312.17
709.74	337.91
710.145	298.13
710.55	307.49
710.955	256
711.36	279.4
711.765	281.74
712.17	361.32
712.575	295.79
712.98	827.09
713.385	286.42
713.789	309.83
714.194	298.13
714.599	237.27
715.003	265.36
715.408	377.7
715.812	361.32
716.217	305.15
716.621	302.81
717.025	373.02
717.429	316.85
717.833	312.17
718.238	382.39
718.642	293.44
719.046	314.51
719.449	295.79
719.853	312.17
720.257	337.91
720.661	316.85
721.065	316.85
721.468	274.72
721.872	209.19
722.275	291.1
722.679	314.51
723.082	286.42
723.485	298.13
723.889	358.98
724.292	295.79
724.695	251.32
725.098	316.85
725.501	263.02
725.904	330.89
726.307	312.17
726.71	309.83
727.113	366
727.516	333.23
727.918	410.47
728.321	293.44
728.724	319.19
729.126	286.42
729.529	293.44
729.931	295.79
730.333	321.53
730.736	258.34
731.138	354.3
731.54	260.68
731.942	279.4
732.344	260.68
732.746	316.85
733.148	300.47
733.55	291.1
733.952	370.68
734.354	286.42
734.756	361.32
735.157	333.23
735.559	328.55
735.96	330.89
736.362	251.32
736.763	270.04
737.165	274.72
737.566	277.06
737.967	368.34
738.368	319.19
738.77	305.15
739.171	373.02
739.572	307.49
739.973	312.17
740.374	220.89
740.774	274.72
741.175	356.64
741.576	253.66
741.977	241.95
742.377	344.94
742.778	284.08
743.178	314.51
743.579	370.68
743.979	337.91
744.379	333.23
744.78	298.13
745.18	321.53
745.58	316.85
745.98	328.55
746.38	265.36
746.78	333.23
747.18	237.27
747.58	375.36
747.98	295.79
748.38	363.66
748.779	307.49
749.179	330.89
749.578	351.96
749.978	330.89
750.377	305.15
750.777	277.06
751.176	307.49
751.575	340.26
751.975	274.72
752.374	312.17
752.773	312.17
753.172	319.19
753.571	321.53
753.97	358.98
754.369	302.81
754.768	270.04
755.166	281.74
755.565	312.17
755.964	312.17
756.362	330.89
756.761	300.47
757.159	333.23
757.558	354.3
757.956	307.49
758.354	340.26
758.753	305.15
759.151	326.21
759.549	366
759.947	342.6
760.345	298.13
760.743	298.13
761.141	286.42
761.539	263.02
761.936	330.89
762.334	328.55
762.732	337.91
763.129	330.89
763.527	333.23
763.924	377.7
764.322	300.47
764.719	389.41
765.117	302.81
765.514	265.36
765.911	326.21
766.308	248.97
