Data from Al_FLMS009871__1235__16-44-33-375.txt Node

Date: Fri Mar 08 16:44:33 CST 2024
User: pe5414po
Spectrometer: FLMS00987
Trigger mode: 0
Integration Time (sec): 1.000000E-1
Scans to average: 1
Electric dark correction enabled: true
Nonlinearity correction enabled: false
Boxcar width: 0
XAxis mode: Wavelengths
Number of Pixels in Spectrum: 2048
>>>>>Begin Spectral Data<<<<<
188.938	-57.64
189.409	-57.64
189.879	-57.64
190.349	-118.49
190.819	-125.51
191.29	-88.06
191.76	-123.17
192.23	-64.66
192.7	-99.77
193.17	-109.13
193.64	31.3
194.109	-83.38
194.579	-36.57
195.049	3.22
195.519	45.35
195.988	101.52
196.458	38.33
196.927	122.59
197.397	82.8
197.866	94.5
198.336	85.14
198.805	150.67
199.274	122.59
199.744	197.48
200.213	206.84
200.682	174.08
201.151	281.74
201.62	267.7
202.089	183.44
202.558	211.53
203.027	270.04
203.495	277.06
203.964	246.63
204.433	274.72
204.902	218.55
205.37	347.28
205.839	251.32
206.307	373.02
206.776	340.26
207.244	279.4
207.712	319.19
208.181	309.83
208.649	281.74
209.117	288.76
209.585	272.38
210.053	356.64
210.521	263.02
210.989	323.87
211.457	263.02
211.925	295.79
212.393	291.1
212.861	314.51
213.328	302.81
213.796	234.93
214.264	279.4
214.731	248.97
215.199	363.66
215.666	265.36
216.133	286.42
216.601	258.34
217.068	256
217.535	291.1
218.003	279.4
218.47	302.81
218.937	279.4
219.404	279.4
219.871	253.66
220.338	291.1
220.805	270.04
221.271	277.06
221.738	216.21
222.205	239.61
222.671	286.42
223.138	230.25
223.605	270.04
224.071	244.29
224.538	340.26
225.004	279.4
225.47	251.32
225.937	295.79
226.403	319.19
226.869	302.81
227.335	300.47
227.801	314.51
228.267	256
228.733	309.83
229.199	298.13
229.665	263.02
230.131	265.36
230.597	307.49
231.062	300.47
231.528	295.79
231.994	216.21
232.459	312.17
232.925	272.38
233.39	277.06
233.856	293.44
234.321	295.79
234.786	260.68
235.252	291.1
235.717	223.23
236.182	213.87
236.647	260.68
237.112	305.15
237.577	258.34
238.042	258.34
238.507	234.93
238.972	272.38
239.436	274.72
239.901	218.55
240.366	312.17
240.83	291.1
241.295	253.66
241.76	298.13
242.224	316.85
242.688	246.63
243.153	314.51
243.617	239.61
244.081	291.1
244.545	267.7
245.01	227.91
245.474	256
245.938	312.17
246.402	253.66
246.866	241.95
247.33	302.81
247.793	302.81
248.257	274.72
248.721	295.79
249.185	267.7
249.648	270.04
250.112	302.81
250.575	265.36
251.039	246.63
251.502	302.81
251.965	258.34
252.429	251.32
252.892	199.82
253.355	321.53
253.818	293.44
254.281	321.53
254.744	281.74
255.207	279.4
255.67	302.81
256.133	279.4
256.596	227.91
257.059	305.15
257.522	319.19
257.984	274.72
258.447	286.42
258.909	307.49
259.372	241.95
259.834	295.79
260.297	279.4
260.759	270.04
261.221	305.15
261.684	272.38
262.146	298.13
262.608	277.06
263.07	272.38
263.532	307.49
263.994	314.51
264.456	309.83
264.918	246.63
265.38	277.06
265.842	281.74
266.303	316.85
266.765	286.42
267.227	241.95
267.688	288.76
268.15	291.1
268.611	300.47
269.072	288.76
269.534	286.42
269.995	244.29
270.456	291.1
270.918	328.55
271.379	375.36
271.84	270.04
272.301	263.02
272.762	263.02
273.223	319.19
273.684	319.19
274.144	281.74
274.605	291.1
275.066	239.61
275.527	281.74
275.987	253.66
276.448	286.42
276.908	291.1
277.369	232.59
277.829	281.74
278.289	333.23
278.75	241.95
279.21	272.38
279.67	333.23
280.13	309.83
280.59	260.68
281.05	258.34
281.51	225.57
281.97	298.13
282.43	300.47
282.89	291.1
283.35	344.94
283.809	272.38
284.269	291.1
284.729	281.74
285.188	277.06
285.648	300.47
286.107	244.29
286.567	281.74
287.026	272.38
287.485	298.13
287.944	258.34
288.404	277.06
288.863	309.83
289.322	291.1
289.781	225.57
290.24	316.85
290.699	354.3
291.158	281.74
291.616	234.93
292.075	281.74
292.534	258.34
292.992	253.66
293.451	272.38
293.91	281.74
294.368	356.64
294.827	316.85
295.285	314.51
295.743	300.47
296.202	319.19
296.66	305.15
297.118	244.29
297.576	260.68
298.034	267.7
298.492	342.6
298.95	260.68
299.408	267.7
299.866	342.6
300.324	307.49
300.781	307.49
301.239	337.91
301.697	260.68
302.154	279.4
302.612	258.34
303.069	319.19
303.527	272.38
303.984	295.79
304.441	253.66
304.899	288.76
305.356	295.79
305.813	272.38
306.27	316.85
306.727	319.19
307.184	337.91
307.641	316.85
308.098	272.38
308.555	286.42
309.012	319.19
309.468	319.19
309.925	281.74
310.382	272.38
310.838	330.89
311.295	333.23
311.751	281.74
312.208	291.1
312.664	370.68
313.12	307.49
313.577	279.4
314.033	291.1
314.489	272.38
314.945	298.13
315.401	300.47
315.857	225.57
316.313	328.55
316.769	295.79
317.225	375.36
317.681	337.91
318.136	375.36
318.592	323.87
319.048	335.57
319.503	263.02
319.959	220.89
320.414	291.1
320.869	293.44
321.325	351.96
321.78	281.74
322.235	284.08
322.691	319.19
323.146	326.21
323.601	279.4
324.056	248.97
324.511	288.76
324.966	356.64
325.421	300.47
325.875	291.1
326.33	260.68
326.785	267.7
327.24	328.55
327.694	319.19
328.149	258.34
328.603	286.42
329.058	363.66
329.512	281.74
329.966	281.74
330.421	326.21
330.875	340.26
331.329	300.47
331.783	309.83
332.237	263.02
332.691	314.51
333.145	307.49
333.599	239.61
334.053	277.06
334.507	309.83
334.96	288.76
335.414	323.87
335.868	344.94
336.321	279.4
336.775	277.06
337.228	319.19
337.682	382.39
338.135	272.38
338.588	248.97
339.042	335.57
339.495	314.51
339.948	248.97
340.401	263.02
340.854	312.17
341.307	328.55
341.76	232.59
342.213	321.53
342.666	286.42
343.119	307.49
343.571	333.23
344.024	337.91
344.477	354.3
344.929	302.81
345.382	319.19
345.834	298.13
346.287	281.74
346.739	319.19
347.191	316.85
347.644	263.02
348.096	370.68
348.548	305.15
349	309.83
349.452	258.34
349.904	319.19
350.356	279.4
350.808	288.76
351.26	333.23
351.711	288.76
352.163	309.83
352.615	351.96
353.066	394.09
353.518	410.47
353.969	286.42
354.421	319.19
354.872	344.94
355.324	319.19
355.775	309.83
356.226	265.36
356.677	281.74
357.128	309.83
357.579	347.28
358.03	305.15
358.481	265.36
358.932	384.73
359.383	328.55
359.834	323.87
360.285	298.13
360.735	265.36
361.186	342.6
361.637	328.55
362.087	363.66
362.538	309.83
362.988	298.13
363.438	279.4
363.889	309.83
364.339	281.74
364.789	300.47
365.239	314.51
365.689	319.19
366.139	351.96
366.589	356.64
367.039	234.93
367.489	312.17
367.939	305.15
368.389	256
368.839	281.74
369.288	286.42
369.738	298.13
370.187	260.68
370.637	227.91
371.086	272.38
371.536	363.66
371.985	342.6
372.434	286.42
372.884	307.49
373.333	319.19
373.782	253.66
374.231	307.49
374.68	326.21
375.129	314.51
375.578	337.91
376.027	305.15
376.475	333.23
376.924	366
377.373	354.3
377.822	314.51
378.27	293.44
378.719	302.81
379.167	328.55
379.616	351.96
380.064	298.13
380.512	298.13
380.961	382.39
381.409	300.47
381.857	335.57
382.305	314.51
382.753	272.38
383.201	370.68
383.649	333.23
384.097	328.55
384.545	307.49
384.992	277.06
385.44	335.57
385.888	349.62
386.335	366
386.783	356.64
387.231	284.08
387.678	309.83
388.125	358.98
388.573	314.51
389.02	277.06
389.467	279.4
389.914	305.15
390.362	373.02
390.809	358.98
391.256	307.49
391.703	309.83
392.15	293.44
392.596	291.1
393.043	312.17
393.49	281.74
393.937	328.55
394.383	330.89
394.83	337.91
395.276	335.57
395.723	342.6
396.169	286.42
396.616	279.4
397.062	309.83
397.508	337.91
397.954	312.17
398.401	307.49
398.847	314.51
399.293	323.87
399.739	281.74
400.185	274.72
400.631	277.06
401.076	349.62
401.522	270.04
401.968	328.55
402.414	288.76
402.859	256
403.305	293.44
403.75	309.83
404.196	319.19
404.641	366
405.086	363.66
405.532	298.13
405.977	267.7
406.422	328.55
406.867	258.34
407.312	286.42
407.757	361.32
408.202	363.66
408.647	323.87
409.092	326.21
409.537	344.94
409.982	307.49
410.426	337.91
410.871	284.08
411.316	323.87
411.76	277.06
412.205	305.15
412.649	314.51
413.093	377.7
413.538	363.66
413.982	302.81
414.426	330.89
414.87	288.76
415.314	288.76
415.758	277.06
416.202	326.21
416.646	302.81
417.09	291.1
417.534	323.87
417.978	377.7
418.421	319.19
418.865	312.17
419.309	412.81
419.752	312.17
420.196	326.21
420.639	314.51
421.083	330.89
421.526	314.51
421.969	363.66
422.412	347.28
422.856	232.59
423.299	284.08
423.742	316.85
424.185	300.47
424.628	384.73
425.071	342.6
425.513	260.68
425.956	347.28
426.399	351.96
426.842	286.42
427.284	349.62
427.727	366
428.169	328.55
428.612	251.32
429.054	274.72
429.497	256
429.939	342.6
430.381	351.96
430.823	263.02
431.265	312.17
431.707	312.17
432.149	284.08
432.591	265.36
433.033	333.23
433.475	251.32
433.917	326.21
434.359	312.17
434.8	312.17
435.242	270.04
435.684	337.91
436.125	291.1
436.567	256
437.008	284.08
437.449	286.42
437.891	323.87
438.332	248.97
438.773	256
439.214	330.89
439.656	274.72
440.097	279.4
440.538	349.62
440.978	335.57
441.419	298.13
441.86	293.44
442.301	319.19
442.742	326.21
443.182	305.15
443.623	342.6
444.063	270.04
444.504	314.51
444.944	356.64
445.385	312.17
445.825	358.98
446.265	286.42
446.706	274.72
447.146	333.23
447.586	382.39
448.026	270.04
448.466	344.94
448.906	363.66
449.346	298.13
449.786	342.6
450.225	366
450.665	286.42
451.105	225.57
451.544	319.19
451.984	307.49
452.424	300.47
452.863	298.13
453.302	351.96
453.742	300.47
454.181	375.36
454.62	333.23
455.059	333.23
455.499	335.57
455.938	361.32
456.377	319.19
456.816	335.57
457.254	302.81
457.693	323.87
458.132	340.26
458.571	300.47
459.01	300.47
459.448	321.53
459.887	363.66
460.325	321.53
460.764	277.06
461.202	253.66
461.641	340.26
462.079	337.91
462.517	354.3
462.955	340.26
463.393	300.47
463.832	316.85
464.27	328.55
464.708	333.23
465.145	298.13
465.583	328.55
466.021	333.23
466.459	319.19
466.897	298.13
467.334	295.79
467.772	342.6
468.209	265.36
468.647	380.04
469.084	328.55
469.522	316.85
469.959	256
470.396	307.49
470.833	298.13
471.271	253.66
471.708	305.15
472.145	316.85
472.582	328.55
473.019	263.02
473.456	300.47
473.892	293.44
474.329	305.15
474.766	337.91
475.202	300.47
475.639	337.91
476.076	298.13
476.512	270.04
476.949	263.02
477.385	351.96
477.821	342.6
478.258	291.1
478.694	333.23
479.13	277.06
479.566	335.57
480.002	288.76
480.438	263.02
480.874	312.17
481.31	312.17
481.746	356.64
482.181	281.74
482.617	333.23
483.053	279.4
483.488	293.44
483.924	333.23
484.36	347.28
484.795	293.44
485.23	286.42
485.666	298.13
486.101	363.66
486.536	356.64
486.971	340.26
487.407	330.89
487.842	328.55
488.277	253.66
488.712	328.55
489.146	298.13
489.581	284.08
490.016	305.15
490.451	370.68
490.885	361.32
491.32	291.1
491.755	358.98
492.189	316.85
492.624	344.94
493.058	302.81
493.492	300.47
493.927	307.49
494.361	272.38
494.795	263.02
495.229	335.57
495.663	351.96
496.097	323.87
496.531	295.79
496.965	230.25
497.399	300.47
497.833	330.89
498.266	321.53
498.7	298.13
499.134	340.26
499.567	314.51
500.001	284.08
500.434	307.49
500.868	323.87
501.301	316.85
501.734	302.81
502.168	307.49
502.601	337.91
503.034	316.85
503.467	309.83
503.9	293.44
504.333	244.29
504.766	281.74
505.199	295.79
505.632	248.97
506.064	237.27
506.497	309.83
506.93	305.15
507.362	344.94
507.795	326.21
508.227	316.85
508.66	347.28
509.092	363.66
509.524	277.06
509.956	323.87
510.389	366
510.821	323.87
511.253	323.87
511.685	349.62
512.117	279.4
512.549	305.15
512.981	279.4
513.412	358.98
513.844	354.3
514.276	291.1
514.707	288.76
515.139	323.87
515.571	284.08
516.002	314.51
516.433	356.64
516.865	305.15
517.296	335.57
517.727	302.81
518.159	316.85
518.59	356.64
519.021	330.89
519.452	286.42
519.883	307.49
520.314	272.38
520.744	328.55
521.175	396.43
521.606	293.44
522.037	309.83
522.467	258.34
522.898	305.15
523.328	349.62
523.759	316.85
524.189	295.79
524.62	330.89
525.05	312.17
525.48	302.81
525.91	314.51
526.341	279.4
526.771	330.89
527.201	274.72
527.631	274.72
528.061	251.32
528.49	375.36
528.92	293.44
529.35	298.13
529.78	274.72
530.209	314.51
530.639	351.96
531.068	246.63
531.498	309.83
531.927	307.49
532.357	307.49
532.786	265.36
533.215	358.98
533.644	234.93
534.074	300.47
534.503	295.79
534.932	298.13
535.361	354.3
535.79	314.51
536.218	319.19
536.647	326.21
537.076	267.7
537.505	314.51
537.933	265.36
538.362	366
538.79	347.28
539.219	330.89
539.647	373.02
540.076	256
540.504	309.83
540.932	333.23
541.36	358.98
541.788	267.7
542.217	312.17
542.645	267.7
543.073	326.21
543.5	340.26
543.928	344.94
544.356	335.57
544.784	335.57
545.211	337.91
545.639	326.21
546.067	281.74
546.494	328.55
546.922	314.51
547.349	267.7
547.776	286.42
548.204	333.23
548.631	291.1
549.058	307.49
549.485	302.81
549.912	312.17
550.339	330.89
550.766	291.1
551.193	323.87
551.62	288.76
552.047	298.13
552.474	330.89
552.9	356.64
553.327	265.36
553.754	281.74
554.18	342.6
554.607	344.94
555.033	319.19
555.459	279.4
555.886	356.64
556.312	321.53
556.738	342.6
557.164	267.7
557.59	309.83
558.016	314.51
558.442	274.72
558.868	316.85
559.294	349.62
559.72	277.06
560.145	321.53
560.571	354.3
560.997	342.6
561.422	391.75
561.848	354.3
562.273	326.21
562.699	258.34
563.124	330.89
563.549	305.15
563.974	305.15
564.4	291.1
564.825	340.26
565.25	335.57
565.675	284.08
566.1	321.53
566.525	323.87
566.95	312.17
567.374	347.28
567.799	401.11
568.224	307.49
568.648	354.3
569.073	363.66
569.497	351.96
569.922	323.87
570.346	328.55
570.771	342.6
571.195	356.64
571.619	330.89
572.043	293.44
572.467	314.51
572.891	312.17
573.315	300.47
573.739	321.53
574.163	326.21
574.587	274.72
575.011	293.44
575.435	328.55
575.858	274.72
576.282	244.29
576.705	293.44
577.129	330.89
577.552	314.51
577.976	344.94
578.399	412.81
578.822	284.08
579.245	349.62
579.669	288.76
580.092	337.91
580.515	342.6
580.938	265.36
581.361	335.57
581.784	305.15
582.206	300.47
582.629	349.62
583.052	344.94
583.474	342.6
583.897	293.44
584.32	328.55
584.742	251.32
585.165	337.91
585.587	321.53
586.009	349.62
586.431	347.28
586.854	333.23
587.276	295.79
587.698	293.44
588.12	363.66
588.542	295.79
588.964	363.66
589.386	302.81
589.807	316.85
590.229	277.06
590.651	326.21
591.073	281.74
591.494	312.17
591.916	248.97
592.337	284.08
592.759	295.79
593.18	253.66
593.601	270.04
594.022	274.72
594.444	312.17
594.865	265.36
595.286	314.51
595.707	319.19
596.128	298.13
596.549	335.57
596.97	330.89
597.39	293.44
597.811	263.02
598.232	380.04
598.652	305.15
599.073	293.44
599.494	330.89
599.914	342.6
600.334	298.13
600.755	354.3
601.175	368.34
601.595	312.17
602.015	279.4
602.436	333.23
602.856	408.13
603.276	326.21
603.696	349.62
604.115	267.7
604.535	270.04
604.955	330.89
605.375	277.06
605.794	330.89
606.214	256
606.634	239.61
607.053	344.94
607.473	307.49
607.892	307.49
608.311	340.26
608.731	335.57
609.15	291.1
609.569	277.06
609.988	277.06
610.407	326.21
610.826	267.7
611.245	300.47
611.664	288.76
612.083	288.76
612.501	328.55
612.92	251.32
613.339	263.02
613.757	319.19
614.176	375.36
614.594	328.55
615.013	389.41
615.431	253.66
615.85	291.1
616.268	342.6
616.686	305.15
617.104	312.17
617.522	267.7
617.94	375.36
618.358	316.85
618.776	344.94
619.194	227.91
619.612	335.57
620.03	337.91
620.447	351.96
620.865	309.83
621.282	349.62
621.7	403.45
622.117	300.47
622.535	335.57
622.952	300.47
623.369	335.57
623.787	337.91
624.204	351.96
624.621	356.64
625.038	291.1
625.455	328.55
625.872	351.96
626.289	340.26
626.706	319.19
627.123	286.42
627.539	314.51
627.956	293.44
628.373	256
628.789	309.83
629.206	307.49
629.622	373.02
630.038	298.13
630.455	349.62
630.871	380.04
631.287	291.1
631.703	239.61
632.12	328.55
632.536	335.57
632.952	335.57
633.368	426.86
633.783	326.21
634.199	319.19
634.615	305.15
635.031	305.15
635.446	302.81
635.862	272.38
636.277	337.91
636.693	288.76
637.108	256
637.524	316.85
637.939	305.15
638.354	305.15
638.77	286.42
639.185	307.49
639.6	314.51
640.015	312.17
640.43	363.66
640.845	307.49
641.259	351.96
641.674	326.21
642.089	293.44
642.504	361.32
642.918	263.02
643.333	279.4
643.747	272.38
644.162	330.89
644.576	330.89
644.991	305.15
645.405	408.13
645.819	277.06
646.233	358.98
646.647	335.57
647.061	256
647.475	354.3
647.889	302.81
648.303	312.17
648.717	328.55
649.131	373.02
649.545	337.91
649.958	312.17
650.372	316.85
650.785	384.73
651.199	305.15
651.612	309.83
652.026	270.04
652.439	351.96
652.852	323.87
653.266	274.72
653.679	286.42
654.092	370.68
654.505	335.57
654.918	344.94
655.331	298.13
655.744	302.81
656.156	344.94
656.569	295.79
656.982	305.15
657.394	309.83
657.807	307.49
658.22	351.96
658.632	321.53
659.044	284.08
659.457	319.19
659.869	319.19
660.281	335.57
660.693	288.76
661.106	316.85
661.518	356.64
661.93	342.6
662.342	333.23
662.754	309.83
663.165	291.1
663.577	351.96
663.989	274.72
664.401	312.17
664.812	370.68
665.224	319.19
665.635	302.81
666.047	344.94
666.458	326.21
666.869	312.17
667.281	384.73
667.692	349.62
668.103	314.51
668.514	342.6
668.925	340.26
669.336	267.7
669.747	363.66
670.158	307.49
670.569	270.04
670.979	340.26
671.39	321.53
671.801	366
672.211	305.15
672.622	300.47
673.032	293.44
673.443	302.81
673.853	281.74
674.263	368.34
674.674	319.19
675.084	340.26
675.494	270.04
675.904	319.19
676.314	288.76
676.724	361.32
677.134	279.4
677.544	333.23
677.953	328.55
678.363	356.64
678.773	368.34
679.182	295.79
679.592	302.81
680.001	342.6
680.411	305.15
680.82	270.04
681.23	326.21
681.639	377.7
682.048	284.08
682.457	307.49
682.866	356.64
683.275	253.66
683.684	293.44
684.093	330.89
684.502	305.15
684.911	291.1
685.32	323.87
685.728	256
686.137	335.57
686.546	340.26
686.954	314.51
687.363	260.68
687.771	344.94
688.179	295.79
688.588	349.62
688.996	241.95
689.404	337.91
689.812	333.23
690.22	349.62
690.628	335.57
691.036	333.23
691.444	328.55
691.852	312.17
692.26	358.98
692.667	333.23
693.075	340.26
693.483	323.87
693.89	340.26
694.298	335.57
694.705	307.49
695.112	288.76
695.52	279.4
695.927	270.04
696.334	356.64
696.741	333.23
697.148	328.55
697.555	342.6
697.962	291.1
698.369	370.68
698.776	354.3
699.183	342.6
699.59	344.94
699.996	272.38
700.403	330.89
700.81	361.32
701.216	335.57
701.623	239.61
702.029	356.64
702.435	307.49
702.842	316.85
703.248	351.96
703.654	321.53
704.06	351.96
704.466	309.83
704.872	347.28
705.278	335.57
705.684	246.63
706.09	298.13
706.496	370.68
706.901	342.6
707.307	323.87
707.712	312.17
708.118	333.23
708.523	284.08
708.929	270.04
709.334	335.57
709.74	284.08
710.145	326.21
710.55	363.66
710.955	286.42
711.36	347.28
711.765	330.89
712.17	351.96
712.575	277.06
712.98	873.9
713.385	286.42
713.789	321.53
714.194	302.81
714.599	340.26
715.003	298.13
715.408	302.81
715.812	298.13
716.217	293.44
716.621	335.57
717.025	272.38
717.429	307.49
717.833	333.23
718.238	312.17
718.642	272.38
719.046	337.91
719.449	319.19
719.853	316.85
720.257	316.85
720.661	305.15
721.065	272.38
721.468	295.79
721.872	309.83
722.275	291.1
722.679	307.49
723.082	291.1
723.485	288.76
723.889	351.96
724.292	356.64
724.695	314.51
725.098	295.79
725.501	380.04
725.904	270.04
726.307	323.87
726.71	302.81
727.113	321.53
727.516	270.04
727.918	323.87
728.321	284.08
728.724	335.57
729.126	241.95
729.529	351.96
729.931	335.57
730.333	302.81
730.736	267.7
731.138	337.91
731.54	312.17
731.942	384.73
732.344	307.49
732.746	321.53
733.148	328.55
733.55	284.08
733.952	328.55
734.354	333.23
734.756	387.07
735.157	291.1
735.559	288.76
735.96	342.6
736.362	358.98
736.763	279.4
737.165	319.19
737.566	291.1
737.967	330.89
738.368	270.04
738.77	328.55
739.171	333.23
739.572	319.19
739.973	335.57
740.374	319.19
740.774	267.7
741.175	288.76
741.576	244.29
741.977	356.64
742.377	295.79
742.778	330.89
743.178	305.15
743.579	225.57
743.979	337.91
744.379	321.53
744.78	298.13
745.18	274.72
745.58	366
745.98	333.23
746.38	302.81
746.78	323.87
747.18	316.85
747.58	281.74
747.98	307.49
748.38	251.32
748.779	326.21
749.179	333.23
749.578	333.23
749.978	347.28
750.377	394.09
750.777	333.23
751.176	358.98
751.575	293.44
751.975	342.6
752.374	314.51
752.773	321.53
753.172	354.3
753.571	288.76
753.97	284.08
754.369	340.26
754.768	377.7
755.166	291.1
755.565	286.42
755.964	321.53
756.362	349.62
756.761	274.72
757.159	300.47
757.558	316.85
757.956	358.98
758.354	321.53
758.753	232.59
759.151	305.15
759.549	281.74
759.947	321.53
760.345	358.98
760.743	300.47
761.141	335.57
761.539	394.09
761.936	274.72
762.334	358.98
762.732	347.28
763.129	323.87
763.527	342.6
763.924	321.53
764.322	326.21
764.719	281.74
765.117	358.98
765.514	260.68
765.911	321.53
766.308	342.6
766.705	300.47
767.102	274.72
