Data from Al_FLMS009871__1221__16-44-31-975.txt Node

Date: Fri Mar 08 16:44:31 CST 2024
User: pe5414po
Spectrometer: FLMS00987
Trigger mode: 0
Integration Time (sec): 1.000000E-1
Scans to average: 1
Electric dark correction enabled: true
Nonlinearity correction enabled: false
Boxcar width: 0
XAxis mode: Wavelengths
Number of Pixels in Spectrum: 2048
>>>>>Begin Spectral Data<<<<<
188.938	-40.23
189.409	-40.23
189.879	-40.23
190.349	-56.61
190.819	-129.17
191.29	-63.63
191.76	-108.1
192.23	-103.42
192.7	-84.7
193.17	-37.89
193.64	8.92
194.109	-40.23
194.579	-23.84
195.049	65.1
195.519	13.6
195.988	-47.25
196.458	81.48
196.927	58.07
197.397	121.27
197.866	67.44
198.336	93.18
198.805	165.74
199.274	168.08
199.744	172.76
200.213	186.8
200.682	158.72
201.151	203.19
201.62	247.66
202.089	226.59
202.558	247.66
203.027	257.02
203.495	273.4
203.964	324.9
204.433	299.15
204.902	301.49
205.37	278.08
205.839	275.74
206.307	264.04
206.776	345.96
207.244	261.7
207.712	315.53
208.181	320.21
208.649	341.28
209.117	299.15
209.585	322.56
210.053	282.77
210.521	299.15
210.989	296.81
211.457	294.47
211.925	310.85
212.393	266.38
212.861	303.83
213.328	324.9
213.796	268.72
214.264	303.83
214.731	348.3
215.199	268.72
215.666	287.45
216.133	273.4
216.601	306.17
217.068	345.96
217.535	273.4
218.003	329.58
218.47	313.19
218.937	329.58
219.404	280.43
219.871	355.32
220.338	308.51
220.805	296.81
221.271	247.66
221.738	289.79
222.205	247.66
222.671	266.38
223.138	278.08
223.605	273.4
224.071	303.83
224.538	268.72
225.004	273.4
225.47	240.64
225.937	303.83
226.403	315.53
226.869	315.53
227.335	327.24
227.801	268.72
228.267	254.68
228.733	292.13
229.199	250
229.665	257.02
230.131	301.49
230.597	247.66
231.062	299.15
231.528	264.04
231.994	250
232.459	303.83
232.925	278.08
233.39	327.24
233.856	317.87
234.321	268.72
234.786	259.36
235.252	296.81
235.717	275.74
236.182	266.38
236.647	320.21
237.112	287.45
237.577	245.32
238.042	362.34
238.507	320.21
238.972	266.38
239.436	343.62
239.901	233.61
240.366	296.81
240.83	294.47
241.295	310.85
241.76	240.64
242.224	294.47
242.688	310.85
243.153	320.21
243.617	242.98
244.081	254.68
244.545	315.53
245.01	271.06
245.474	242.98
245.938	285.11
246.402	369.37
246.866	301.49
247.33	313.19
247.793	355.32
248.257	264.04
248.721	348.3
249.185	261.7
249.648	315.53
250.112	257.02
250.575	313.19
251.039	294.47
251.502	275.74
251.965	268.72
252.429	296.81
252.892	278.08
253.355	273.4
253.818	235.96
254.281	315.53
254.744	273.4
255.207	287.45
255.67	322.56
256.133	238.3
256.596	301.49
257.059	322.56
257.522	259.36
257.984	320.21
258.447	324.9
258.909	242.98
259.372	306.17
259.834	348.3
260.297	289.79
260.759	273.4
261.221	303.83
261.684	362.34
262.146	322.56
262.608	313.19
263.07	331.92
263.532	301.49
263.994	329.58
264.456	334.26
264.918	287.45
265.38	348.3
265.842	378.73
266.303	355.32
266.765	338.94
267.227	268.72
267.688	313.19
268.15	296.81
268.611	350.64
269.072	271.06
269.534	245.32
269.995	338.94
270.456	259.36
270.918	301.49
271.379	280.43
271.84	308.51
272.301	299.15
272.762	296.81
273.223	257.02
273.684	317.87
274.144	289.79
274.605	285.11
275.066	338.94
275.527	296.81
275.987	341.28
276.448	355.32
276.908	334.26
277.369	360
277.829	292.13
278.289	273.4
278.75	322.56
279.21	329.58
279.67	310.85
280.13	280.43
280.59	299.15
281.05	315.53
281.51	257.02
281.97	299.15
282.43	331.92
282.89	355.32
283.35	348.3
283.809	324.9
284.269	289.79
284.729	278.08
285.188	294.47
285.648	308.51
286.107	296.81
286.567	303.83
287.026	371.71
287.485	287.45
287.944	322.56
288.404	338.94
288.863	315.53
289.322	306.17
289.781	296.81
290.24	348.3
290.699	294.47
291.158	310.85
291.616	320.21
292.075	296.81
292.534	350.64
292.992	235.96
293.451	294.47
293.91	238.3
294.368	306.17
294.827	301.49
295.285	313.19
295.743	287.45
296.202	296.81
296.66	287.45
297.118	355.32
297.576	296.81
298.034	352.98
298.492	292.13
298.95	315.53
299.408	238.3
299.866	329.58
300.324	348.3
300.781	322.56
301.239	301.49
301.697	296.81
302.154	350.64
302.612	224.25
303.069	315.53
303.527	313.19
303.984	334.26
304.441	329.58
304.899	364.68
305.356	287.45
305.813	324.9
306.27	357.66
306.727	378.73
307.184	336.6
307.641	381.07
308.098	296.81
308.555	266.38
309.012	334.26
309.468	294.47
309.925	268.72
310.382	301.49
310.838	324.9
311.295	324.9
311.751	292.13
312.208	315.53
312.664	313.19
313.12	343.62
313.577	315.53
314.033	308.51
314.489	310.85
314.945	273.4
315.401	259.36
315.857	329.58
316.313	331.92
316.769	266.38
317.225	327.24
317.681	404.47
318.136	275.74
318.592	273.4
319.048	334.26
319.503	350.64
319.959	350.64
320.414	292.13
320.869	294.47
321.325	212.55
321.78	324.9
322.235	278.08
322.691	294.47
323.146	301.49
323.601	324.9
324.056	264.04
324.511	329.58
324.966	348.3
325.421	261.7
325.875	343.62
326.33	271.06
326.785	257.02
327.24	322.56
327.694	327.24
328.149	278.08
328.603	322.56
329.058	320.21
329.512	296.81
329.966	280.43
330.421	282.77
330.875	287.45
331.329	257.02
331.783	320.21
332.237	350.64
332.691	331.92
333.145	320.21
333.599	287.45
334.053	374.05
334.507	324.9
334.96	301.49
335.414	369.37
335.868	264.04
336.321	303.83
336.775	310.85
337.228	350.64
337.682	334.26
338.135	322.56
338.588	371.71
339.042	341.28
339.495	324.9
339.948	310.85
340.401	315.53
340.854	362.34
341.307	348.3
341.76	324.9
342.213	360
342.666	315.53
343.119	250
343.571	331.92
344.024	292.13
344.477	282.77
344.929	348.3
345.382	310.85
345.834	273.4
346.287	308.51
346.739	336.6
347.191	271.06
347.644	388.09
348.096	308.51
348.548	360
349	360
349.452	285.11
349.904	338.94
350.356	322.56
350.808	315.53
351.26	315.53
351.711	315.53
352.163	378.73
352.615	338.94
353.066	315.53
353.518	362.34
353.969	329.58
354.421	357.66
354.872	345.96
355.324	324.9
355.775	343.62
356.226	350.64
356.677	341.28
357.128	266.38
357.579	320.21
358.03	306.17
358.481	338.94
358.932	381.07
359.383	301.49
359.834	345.96
360.285	334.26
360.735	322.56
361.186	235.96
361.637	360
362.087	322.56
362.538	282.77
362.988	296.81
363.438	275.74
363.889	250
364.339	404.47
364.789	355.32
365.239	310.85
365.689	329.58
366.139	376.39
366.589	331.92
367.039	313.19
367.489	327.24
367.939	360
368.389	364.68
368.839	310.85
369.288	338.94
369.738	331.92
370.187	334.26
370.637	252.34
371.086	341.28
371.536	313.19
371.985	390.43
372.434	362.34
372.884	331.92
373.333	287.45
373.782	329.58
374.231	338.94
374.68	273.4
375.129	329.58
375.578	324.9
376.027	285.11
376.475	364.68
376.924	299.15
377.373	350.64
377.822	371.71
378.27	301.49
378.719	341.28
379.167	336.6
379.616	338.94
380.064	329.58
380.512	294.47
380.961	315.53
381.409	341.28
381.857	317.87
382.305	331.92
382.753	315.53
383.201	278.08
383.649	320.21
384.097	289.79
384.545	320.21
384.992	278.08
385.44	329.58
385.888	430.22
386.335	331.92
386.783	355.32
387.231	362.34
387.678	289.79
388.125	331.92
388.573	362.34
389.02	317.87
389.467	287.45
389.914	327.24
390.362	348.3
390.809	310.85
391.256	327.24
391.703	301.49
392.15	350.64
392.596	303.83
393.043	345.96
393.49	355.32
393.937	336.6
394.383	301.49
394.83	320.21
395.276	331.92
395.723	257.02
396.169	350.64
396.616	322.56
397.062	374.05
397.508	310.85
397.954	301.49
398.401	315.53
398.847	315.53
399.293	322.56
399.739	336.6
400.185	406.81
400.631	338.94
401.076	306.17
401.522	390.43
401.968	299.15
402.414	329.58
402.859	350.64
403.305	310.85
403.75	273.4
404.196	341.28
404.641	378.73
405.086	376.39
405.532	336.6
405.977	317.87
406.422	324.9
406.867	329.58
407.312	308.51
407.757	383.41
408.202	355.32
408.647	282.77
409.092	261.7
409.537	374.05
409.982	285.11
410.426	299.15
410.871	374.05
411.316	341.28
411.76	294.47
412.205	301.49
412.649	313.19
413.093	322.56
413.538	371.71
413.982	362.34
414.426	327.24
414.87	343.62
415.314	292.13
415.758	338.94
416.202	254.68
416.646	247.66
417.09	343.62
417.534	336.6
417.978	369.37
418.421	294.47
418.865	371.71
419.309	371.71
419.752	289.79
420.196	306.17
420.639	296.81
421.083	324.9
421.526	329.58
421.969	285.11
422.412	306.17
422.856	315.53
423.299	320.21
423.742	266.38
424.185	404.47
424.628	287.45
425.071	357.66
425.513	331.92
425.956	357.66
426.399	364.68
426.842	338.94
427.284	322.56
427.727	287.45
428.169	369.37
428.612	336.6
429.054	322.56
429.497	348.3
429.939	409.15
430.381	343.62
430.823	355.32
431.265	367.03
431.707	294.47
432.149	315.53
432.591	329.58
433.033	327.24
433.475	378.73
433.917	301.49
434.359	329.58
434.8	289.79
435.242	383.41
435.684	329.58
436.125	322.56
436.567	327.24
437.008	289.79
437.449	233.61
437.891	261.7
438.332	376.39
438.773	294.47
439.214	308.51
439.656	308.51
440.097	303.83
440.538	313.19
440.978	282.77
441.419	360
441.86	345.96
442.301	362.34
442.742	292.13
443.182	341.28
443.623	343.62
444.063	341.28
444.504	282.77
444.944	360
445.385	268.72
445.825	310.85
446.265	352.98
446.706	303.83
447.146	357.66
447.586	343.62
448.026	285.11
448.466	320.21
448.906	371.71
449.346	360
449.786	287.45
450.225	320.21
450.665	388.09
451.105	334.26
451.544	348.3
451.984	395.11
452.424	374.05
452.863	338.94
453.302	268.72
453.742	327.24
454.181	345.96
454.62	397.45
455.059	350.64
455.499	268.72
455.938	331.92
456.377	303.83
456.816	315.53
457.254	315.53
457.693	343.62
458.132	287.45
458.571	324.9
459.01	324.9
459.448	348.3
459.887	385.75
460.325	296.81
460.764	343.62
461.202	334.26
461.641	345.96
462.079	345.96
462.517	315.53
462.955	338.94
463.393	315.53
463.832	388.09
464.27	369.37
464.708	338.94
465.145	345.96
465.583	334.26
466.021	371.71
466.459	324.9
466.897	369.37
467.334	331.92
467.772	287.45
468.209	334.26
468.647	334.26
469.084	282.77
469.522	357.66
469.959	334.26
470.396	338.94
470.833	282.77
471.271	252.34
471.708	345.96
472.145	296.81
472.582	294.47
473.019	364.68
473.456	331.92
473.892	280.43
474.329	338.94
474.766	320.21
475.202	341.28
475.639	329.58
476.076	392.77
476.512	322.56
476.949	369.37
477.385	296.81
477.821	331.92
478.258	331.92
478.694	348.3
479.13	348.3
479.566	343.62
480.002	343.62
480.438	352.98
480.874	271.06
481.31	388.09
481.746	310.85
482.181	348.3
482.617	334.26
483.053	322.56
483.488	404.47
483.924	303.83
484.36	289.79
484.795	301.49
485.23	362.34
485.666	322.56
486.101	334.26
486.536	336.6
486.971	364.68
487.407	343.62
487.842	268.72
488.277	404.47
488.712	289.79
489.146	275.74
489.581	273.4
490.016	282.77
490.451	299.15
490.885	369.37
491.32	376.39
491.755	341.28
492.189	341.28
492.624	383.41
493.058	343.62
493.492	341.28
493.927	367.03
494.361	343.62
494.795	313.19
495.229	310.85
495.663	357.66
496.097	364.68
496.531	329.58
496.965	296.81
497.399	299.15
497.833	388.09
498.266	317.87
498.7	228.93
499.134	306.17
499.567	285.11
500.001	301.49
500.434	364.68
500.868	296.81
501.301	301.49
501.734	343.62
502.168	275.74
502.601	360
503.034	352.98
503.467	360
503.9	306.17
504.333	371.71
504.766	399.79
505.199	282.77
505.632	273.4
506.064	362.34
506.497	301.49
506.93	324.9
507.362	317.87
507.795	289.79
508.227	310.85
508.66	341.28
509.092	310.85
509.524	345.96
509.956	308.51
510.389	341.28
510.821	362.34
511.253	355.32
511.685	303.83
512.117	336.6
512.549	324.9
512.981	362.34
513.412	388.09
513.844	268.72
514.276	406.81
514.707	338.94
515.139	310.85
515.571	381.07
516.002	362.34
516.433	320.21
516.865	364.68
517.296	341.28
517.727	292.13
518.159	357.66
518.59	313.19
519.021	285.11
519.452	338.94
519.883	252.34
520.314	327.24
520.744	306.17
521.175	324.9
521.606	374.05
522.037	392.77
522.467	322.56
522.898	320.21
523.328	315.53
523.759	397.45
524.189	355.32
524.62	320.21
525.05	331.92
525.48	348.3
525.91	371.71
526.341	336.6
526.771	275.74
527.201	343.62
527.631	322.56
528.061	352.98
528.49	317.87
528.92	315.53
529.35	310.85
529.78	320.21
530.209	264.04
530.639	336.6
531.068	315.53
531.498	345.96
531.927	369.37
532.357	285.11
532.786	299.15
533.215	362.34
533.644	294.47
534.074	338.94
534.503	381.07
534.932	313.19
535.361	292.13
535.79	310.85
536.218	364.68
536.647	306.17
537.076	310.85
537.505	341.28
537.933	345.96
538.362	350.64
538.79	310.85
539.219	322.56
539.647	357.66
540.076	341.28
540.504	282.77
540.932	294.47
541.36	367.03
541.788	360
542.217	306.17
542.645	397.45
543.073	371.71
543.5	322.56
543.928	371.71
544.356	352.98
544.784	371.71
545.211	367.03
545.639	301.49
546.067	357.66
546.494	315.53
546.922	310.85
547.349	317.87
547.776	355.32
548.204	327.24
548.631	385.75
549.058	374.05
549.485	345.96
549.912	289.79
550.339	317.87
550.766	355.32
551.193	345.96
551.62	360
552.047	336.6
552.474	322.56
552.9	369.37
553.327	341.28
553.754	306.17
554.18	341.28
554.607	310.85
555.033	348.3
555.459	310.85
555.886	357.66
556.312	315.53
556.738	294.47
557.164	327.24
557.59	294.47
558.016	331.92
558.442	371.71
558.868	324.9
559.294	369.37
559.72	343.62
560.145	287.45
560.571	306.17
560.997	338.94
561.422	334.26
561.848	292.13
562.273	343.62
562.699	357.66
563.124	303.83
563.549	334.26
563.974	327.24
564.4	338.94
564.825	327.24
565.25	306.17
565.675	301.49
566.1	374.05
566.525	350.64
566.95	397.45
567.374	296.81
567.799	271.06
568.224	397.45
568.648	240.64
569.073	324.9
569.497	362.34
569.922	331.92
570.346	329.58
570.771	324.9
571.195	376.39
571.619	310.85
572.043	329.58
572.467	345.96
572.891	324.9
573.315	294.47
573.739	355.32
574.163	289.79
574.587	355.32
575.011	334.26
575.435	352.98
575.858	369.37
576.282	345.96
576.705	355.32
577.129	376.39
577.552	352.98
577.976	334.26
578.399	271.06
578.822	322.56
579.245	360
579.669	357.66
580.092	315.53
580.515	374.05
580.938	306.17
581.361	310.85
581.784	313.19
582.206	310.85
582.629	308.51
583.052	362.34
583.474	345.96
583.897	338.94
584.32	336.6
584.742	336.6
585.165	338.94
585.587	364.68
586.009	383.41
586.431	299.15
586.854	299.15
587.276	383.41
587.698	331.92
588.12	313.19
588.542	369.37
588.964	303.83
589.386	378.73
589.807	320.21
590.229	310.85
590.651	357.66
591.073	338.94
591.494	367.03
591.916	350.64
592.337	462.99
592.759	313.19
593.18	369.37
593.601	327.24
594.022	334.26
594.444	334.26
594.865	334.26
595.286	334.26
595.707	331.92
596.128	381.07
596.549	399.79
596.97	282.77
597.39	292.13
597.811	413.84
598.232	343.62
598.652	306.17
599.073	355.32
599.494	252.34
599.914	364.68
600.334	334.26
600.755	334.26
601.175	336.6
601.595	299.15
602.015	374.05
602.436	259.36
602.856	423.2
603.276	313.19
603.696	322.56
604.115	308.51
604.535	315.53
604.955	313.19
605.375	315.53
605.794	343.62
606.214	317.87
606.634	320.21
607.053	310.85
607.473	367.03
607.892	376.39
608.311	322.56
608.731	327.24
609.15	308.51
609.569	336.6
609.988	336.6
610.407	334.26
610.826	280.43
611.245	355.32
611.664	317.87
612.083	322.56
612.501	348.3
612.92	322.56
613.339	322.56
613.757	322.56
614.176	306.17
614.594	261.7
615.013	334.26
615.431	329.58
615.85	320.21
616.268	282.77
616.686	303.83
617.104	278.08
617.522	317.87
617.94	369.37
618.358	275.74
618.776	329.58
619.194	334.26
619.612	345.96
620.03	268.72
620.447	371.71
620.865	271.06
621.282	320.21
621.7	350.64
622.117	310.85
622.535	268.72
622.952	317.87
623.369	322.56
623.787	357.66
624.204	238.3
624.621	329.58
625.038	397.45
625.455	320.21
625.872	355.32
626.289	357.66
626.706	378.73
627.123	324.9
627.539	350.64
627.956	303.83
628.373	350.64
628.789	338.94
629.206	367.03
629.622	306.17
630.038	315.53
630.455	338.94
630.871	285.11
631.287	378.73
631.703	376.39
632.12	357.66
632.536	327.24
632.952	320.21
633.368	357.66
633.783	271.06
634.199	299.15
634.615	317.87
635.031	350.64
635.446	308.51
635.862	336.6
636.277	205.53
636.693	336.6
637.108	306.17
637.524	388.09
637.939	317.87
638.354	271.06
638.77	350.64
639.185	367.03
639.6	306.17
640.015	322.56
640.43	313.19
640.845	315.53
641.259	280.43
641.674	310.85
642.089	352.98
642.504	334.26
642.918	362.34
643.333	303.83
643.747	378.73
644.162	338.94
644.576	343.62
644.991	352.98
645.405	310.85
645.819	334.26
646.233	345.96
646.647	367.03
647.061	362.34
647.475	327.24
647.889	296.81
648.303	341.28
648.717	355.32
649.131	296.81
649.545	327.24
649.958	334.26
650.372	320.21
650.785	327.24
651.199	287.45
651.612	271.06
652.026	338.94
652.439	331.92
652.852	285.11
653.266	357.66
653.679	331.92
654.092	313.19
654.505	334.26
654.918	362.34
655.331	355.32
655.744	343.62
656.156	259.36
656.569	334.26
656.982	338.94
657.394	294.47
657.807	278.08
658.22	343.62
658.632	310.85
659.044	383.41
659.457	292.13
659.869	278.08
660.281	268.72
660.693	360
661.106	341.28
661.518	257.02
661.93	367.03
662.342	278.08
662.754	334.26
663.165	324.9
663.577	320.21
663.989	360
664.401	367.03
664.812	259.36
665.224	306.17
665.635	308.51
666.047	282.77
666.458	313.19
666.869	287.45
667.281	367.03
667.692	383.41
668.103	355.32
668.514	320.21
668.925	301.49
669.336	299.15
669.747	317.87
670.158	322.56
670.569	322.56
670.979	289.79
671.39	350.64
671.801	313.19
672.211	357.66
672.622	301.49
673.032	313.19
673.443	348.3
673.853	292.13
674.263	350.64
674.674	303.83
675.084	320.21
675.494	331.92
675.904	317.87
676.314	343.62
676.724	301.49
677.134	364.68
677.544	315.53
677.953	350.64
678.363	296.81
678.773	285.11
679.182	374.05
679.592	320.21
680.001	343.62
680.411	278.08
680.82	315.53
681.23	341.28
681.639	345.96
682.048	343.62
682.457	287.45
682.866	390.43
683.275	334.26
683.684	271.06
684.093	259.36
684.502	334.26
684.911	301.49
685.32	310.85
685.728	336.6
686.137	315.53
686.546	352.98
686.954	308.51
687.363	271.06
687.771	303.83
688.179	338.94
688.588	329.58
688.996	303.83
689.404	383.41
689.812	329.58
690.22	313.19
690.628	280.43
691.036	334.26
691.444	341.28
691.852	327.24
692.26	306.17
692.667	336.6
693.075	362.34
693.483	399.79
693.89	322.56
694.298	301.49
694.705	308.51
695.112	301.49
695.52	282.77
695.927	324.9
696.334	299.15
696.741	331.92
697.148	285.11
697.555	210.21
697.962	287.45
698.369	331.92
698.776	278.08
699.183	296.81
699.59	352.98
699.996	329.58
700.403	324.9
700.81	315.53
701.216	362.34
701.623	329.58
702.029	355.32
702.435	315.53
702.842	395.11
703.248	301.49
703.654	299.15
704.06	374.05
704.466	362.34
704.872	242.98
705.278	210.21
705.684	299.15
706.09	397.45
706.496	292.13
706.901	360
707.307	306.17
707.712	406.81
708.118	296.81
708.523	285.11
708.929	338.94
709.334	315.53
709.74	343.62
710.145	301.49
710.55	320.21
710.955	261.7
711.36	268.72
711.765	306.17
712.17	313.19
712.575	308.51
712.98	874.92
713.385	357.66
713.789	315.53
714.194	292.13
714.599	261.7
715.003	385.75
715.408	402.13
715.812	310.85
716.217	360
716.621	392.77
717.025	397.45
717.429	313.19
717.833	327.24
718.238	315.53
718.642	322.56
719.046	362.34
719.449	338.94
719.853	345.96
720.257	282.77
720.661	292.13
721.065	338.94
721.468	317.87
721.872	350.64
722.275	327.24
722.679	364.68
723.082	317.87
723.485	360
723.889	292.13
724.292	285.11
724.695	266.38
725.098	336.6
725.501	324.9
725.904	317.87
726.307	306.17
726.71	287.45
727.113	331.92
727.516	371.71
727.918	308.51
728.321	292.13
728.724	301.49
729.126	338.94
729.529	306.17
729.931	369.37
730.333	266.38
730.736	317.87
731.138	313.19
731.54	287.45
731.942	329.58
732.344	301.49
732.746	350.64
733.148	348.3
733.55	362.34
733.952	360
734.354	285.11
734.756	385.75
735.157	308.51
735.559	334.26
735.96	357.66
736.362	287.45
736.763	289.79
737.165	336.6
737.566	357.66
737.967	322.56
738.368	348.3
738.77	355.32
739.171	336.6
739.572	261.7
739.973	371.71
740.374	388.09
740.774	331.92
741.175	355.32
741.576	331.92
741.977	324.9
742.377	301.49
742.778	343.62
743.178	374.05
743.579	301.49
743.979	338.94
744.379	303.83
744.78	324.9
745.18	261.7
745.58	327.24
745.98	331.92
746.38	282.77
746.78	245.32
747.18	369.37
747.58	294.47
747.98	338.94
748.38	331.92
748.779	308.51
749.179	329.58
749.578	329.58
749.978	280.43
750.377	362.34
750.777	294.47
751.176	285.11
751.575	322.56
751.975	289.79
752.374	324.9
752.773	273.4
753.172	320.21
753.571	310.85
753.97	247.66
754.369	273.4
754.768	294.47
755.166	322.56
755.565	378.73
755.964	324.9
756.362	355.32
756.761	315.53
757.159	343.62
757.558	292.13
757.956	352.98
758.354	383.41
758.753	287.45
759.151	348.3
759.549	345.96
759.947	310.85
760.345	388.09
760.743	329.58
761.141	303.83
761.539	317.87
761.936	313.19
762.334	245.32
762.732	317.87
763.129	343.62
763.527	289.79
763.924	315.53
764.322	327.24
764.719	313.19
765.117	273.4
765.514	285.11
765.911	324.9
766.308	294.47
766.705	343.62
