Data from Al_FLMS009871__1220__16-44-31-875.txt Node

Date: Fri Mar 08 16:44:31 CST 2024
User: pe5414po
Spectrometer: FLMS00987
Trigger mode: 0
Integration Time (sec): 1.000000E-1
Scans to average: 1
Electric dark correction enabled: true
Nonlinearity correction enabled: false
Boxcar width: 0
XAxis mode: Wavelengths
Number of Pixels in Spectrum: 2048
>>>>>Begin Spectral Data<<<<<
188.938	10.97
189.409	10.97
189.879	10.97
190.349	-113.08
190.819	-129.46
191.29	-84.99
191.76	-28.82
192.23	-47.54
192.7	-84.99
193.17	-14.77
193.64	-56.9
194.109	-52.22
194.579	-38.18
195.049	-47.54
195.519	67.14
195.988	13.31
196.458	71.83
196.927	13.31
197.397	46.08
197.866	83.53
198.336	160.77
198.805	132.68
199.274	160.77
199.744	116.3
200.213	223.96
200.682	209.92
201.151	238
201.62	219.28
202.089	259.07
202.558	247.37
203.027	221.62
203.495	263.75
203.964	277.79
204.433	263.75
204.902	254.39
205.37	249.71
205.839	270.77
206.307	273.11
206.776	233.32
207.244	280.13
207.712	254.39
208.181	317.58
208.649	326.94
209.117	340.99
209.585	331.62
210.053	298.86
210.521	275.45
210.989	280.13
211.457	362.05
211.925	216.94
212.393	256.73
212.861	277.79
213.328	284.81
213.796	263.75
214.264	266.09
214.731	273.11
215.199	296.52
215.666	277.79
216.133	312.9
216.601	268.43
217.068	298.86
217.535	296.52
218.003	305.88
218.47	221.62
218.937	268.43
219.404	252.05
219.871	235.66
220.338	268.43
220.805	277.79
221.271	263.75
221.738	317.58
222.205	308.22
222.671	216.94
223.138	240.34
223.605	345.67
224.071	261.41
224.538	256.73
225.004	317.58
225.47	291.84
225.937	247.37
226.403	326.94
226.869	305.88
227.335	298.86
227.801	350.35
228.267	277.79
228.733	308.22
229.199	333.97
229.665	261.41
230.131	301.2
230.597	305.88
231.062	252.05
231.528	315.24
231.994	280.13
232.459	289.5
232.925	249.71
233.39	233.32
233.856	202.9
234.321	294.18
234.786	266.09
235.252	287.15
235.717	238
236.182	259.07
236.647	259.07
237.112	319.92
237.577	235.66
238.042	291.84
238.507	287.15
238.972	324.6
239.436	303.54
239.901	280.13
240.366	266.09
240.83	277.79
241.295	315.24
241.76	319.92
242.224	270.77
242.688	296.52
243.153	315.24
243.617	268.43
244.081	298.86
244.545	284.81
245.01	254.39
245.474	296.52
245.938	305.88
246.402	322.26
246.866	315.24
247.33	289.5
247.793	282.47
248.257	291.84
248.721	291.84
249.185	273.11
249.648	242.68
250.112	261.41
250.575	322.26
251.039	284.81
251.502	261.41
251.965	242.68
252.429	270.77
252.892	277.79
253.355	254.39
253.818	298.86
254.281	308.22
254.744	303.54
255.207	263.75
255.67	252.05
256.133	294.18
256.596	289.5
257.059	277.79
257.522	336.31
257.984	289.5
258.447	282.47
258.909	303.54
259.372	333.97
259.834	294.18
260.297	266.09
260.759	252.05
261.221	226.3
261.684	305.88
262.146	319.92
262.608	366.73
263.07	401.84
263.532	294.18
263.994	333.97
264.456	317.58
264.918	317.58
265.38	266.09
265.842	287.15
266.303	221.62
266.765	294.18
267.227	373.75
267.688	348.01
268.15	296.52
268.611	273.11
269.072	226.3
269.534	317.58
269.995	261.41
270.456	259.07
270.918	326.94
271.379	270.77
271.84	275.45
272.301	284.81
272.762	287.15
273.223	280.13
273.684	308.22
274.144	273.11
274.605	240.34
275.066	394.82
275.527	322.26
275.987	326.94
276.448	308.22
276.908	287.15
277.369	261.41
277.829	263.75
278.289	247.37
278.75	294.18
279.21	305.88
279.67	326.94
280.13	303.54
280.59	291.84
281.05	296.52
281.51	249.71
281.97	275.45
282.43	310.56
282.89	317.58
283.35	291.84
283.809	291.84
284.269	310.56
284.729	289.5
285.188	340.99
285.648	289.5
286.107	298.86
286.567	228.64
287.026	312.9
287.485	287.15
287.944	275.45
288.404	331.62
288.863	291.84
289.322	310.56
289.781	366.73
290.24	259.07
290.699	273.11
291.158	326.94
291.616	312.9
292.075	364.39
292.534	263.75
292.992	373.75
293.451	317.58
293.91	277.79
294.368	284.81
294.827	266.09
295.285	280.13
295.743	238
296.202	249.71
296.66	343.33
297.118	282.47
297.576	326.94
298.034	268.43
298.492	259.07
298.95	348.01
299.408	242.68
299.866	308.22
300.324	329.28
300.781	343.33
301.239	275.45
301.697	284.81
302.154	284.81
302.612	312.9
303.069	376.09
303.527	371.41
303.984	329.28
304.441	263.75
304.899	301.2
305.356	308.22
305.813	315.24
306.27	266.09
306.727	326.94
307.184	308.22
307.641	280.13
308.098	333.97
308.555	282.47
309.012	238
309.468	261.41
309.925	326.94
310.382	352.69
310.838	308.22
311.295	310.56
311.751	308.22
312.208	359.71
312.664	324.6
313.12	298.86
313.577	350.35
314.033	280.13
314.489	259.07
314.945	301.2
315.401	284.81
315.857	291.84
316.313	298.86
316.769	333.97
317.225	261.41
317.681	291.84
318.136	289.5
318.592	303.54
319.048	263.75
319.503	336.31
319.959	238
320.414	312.9
320.869	305.88
321.325	340.99
321.78	298.86
322.235	273.11
322.691	310.56
323.146	380.78
323.601	249.71
324.056	270.77
324.511	298.86
324.966	289.5
325.421	385.46
325.875	319.92
326.33	340.99
326.785	322.26
327.24	284.81
327.694	331.62
328.149	326.94
328.603	282.47
329.058	324.6
329.512	305.88
329.966	305.88
330.421	289.5
330.875	242.68
331.329	296.52
331.783	282.47
332.237	338.65
332.691	336.31
333.145	308.22
333.599	273.11
334.053	340.99
334.507	336.31
334.96	298.86
335.414	340.99
335.868	350.35
336.321	319.92
336.775	280.13
337.228	336.31
337.682	305.88
338.135	282.47
338.588	298.86
339.042	331.62
339.495	298.86
339.948	301.2
340.401	326.94
340.854	298.86
341.307	352.69
341.76	397.16
342.213	312.9
342.666	317.58
343.119	275.45
343.571	305.88
344.024	348.01
344.477	380.78
344.929	294.18
345.382	277.79
345.834	301.2
346.287	312.9
346.739	310.56
347.191	291.84
347.644	263.75
348.096	322.26
348.548	268.43
349	303.54
349.452	266.09
349.904	359.71
350.356	329.28
350.808	287.15
351.26	273.11
351.711	310.56
352.163	310.56
352.615	308.22
353.066	324.6
353.518	284.81
353.969	340.99
354.421	284.81
354.872	284.81
355.324	273.11
355.775	319.92
356.226	287.15
356.677	310.56
357.128	315.24
357.579	364.39
358.03	270.77
358.481	282.47
358.932	336.31
359.383	343.33
359.834	294.18
360.285	383.12
360.735	312.9
361.186	326.94
361.637	380.78
362.087	338.65
362.538	322.26
362.988	291.84
363.438	298.86
363.889	319.92
364.339	303.54
364.789	333.97
365.239	280.13
365.689	326.94
366.139	294.18
366.589	333.97
367.039	338.65
367.489	270.77
367.939	340.99
368.389	254.39
368.839	277.79
369.288	298.86
369.738	326.94
370.187	343.33
370.637	350.35
371.086	273.11
371.536	355.03
371.985	270.77
372.434	273.11
372.884	310.56
373.333	312.9
373.782	298.86
374.231	261.41
374.68	355.03
375.129	256.73
375.578	273.11
376.027	350.35
376.475	364.39
376.924	331.62
377.373	329.28
377.822	303.54
378.27	352.69
378.719	308.22
379.167	291.84
379.616	303.54
380.064	305.88
380.512	338.65
380.961	294.18
381.409	383.12
381.857	319.92
382.305	277.79
382.753	359.71
383.201	310.56
383.649	284.81
384.097	294.18
384.545	348.01
384.992	282.47
385.44	312.9
385.888	245.02
386.335	282.47
386.783	326.94
387.231	326.94
387.678	366.73
388.125	331.62
388.573	294.18
389.02	373.75
389.467	284.81
389.914	326.94
390.362	305.88
390.809	305.88
391.256	326.94
391.703	333.97
392.15	322.26
392.596	235.66
393.043	305.88
393.49	312.9
393.937	315.24
394.383	315.24
394.83	326.94
395.276	333.97
395.723	305.88
396.169	315.24
396.616	310.56
397.062	322.26
397.508	390.14
397.954	329.28
398.401	319.92
398.847	340.99
399.293	315.24
399.739	357.37
400.185	317.58
400.631	294.18
401.076	268.43
401.522	305.88
401.968	303.54
402.414	359.71
402.859	324.6
403.305	315.24
403.75	319.92
404.196	333.97
404.641	291.84
405.086	268.43
405.532	268.43
405.977	336.31
406.422	263.75
406.867	340.99
407.312	315.24
407.757	305.88
408.202	383.12
408.647	359.71
409.092	319.92
409.537	343.33
409.982	291.84
410.426	312.9
410.871	348.01
411.316	355.03
411.76	362.05
412.205	275.45
412.649	352.69
413.093	322.26
413.538	336.31
413.982	333.97
414.426	319.92
414.87	282.47
415.314	324.6
415.758	340.99
416.202	319.92
416.646	369.07
417.09	298.86
417.534	348.01
417.978	301.2
418.421	378.44
418.865	329.28
419.309	298.86
419.752	298.86
420.196	308.22
420.639	291.84
421.083	303.54
421.526	340.99
421.969	317.58
422.412	317.58
422.856	350.35
423.299	235.66
423.742	380.78
424.185	261.41
424.628	275.45
425.071	315.24
425.513	317.58
425.956	315.24
426.399	256.73
426.842	291.84
427.284	305.88
427.727	223.96
428.169	301.2
428.612	343.33
429.054	369.07
429.497	310.56
429.939	312.9
430.381	331.62
430.823	291.84
431.265	385.46
431.707	294.18
432.149	338.65
432.591	352.69
433.033	331.62
433.475	298.86
433.917	291.84
434.359	308.22
434.8	277.79
435.242	362.05
435.684	275.45
436.125	340.99
436.567	312.9
437.008	268.43
437.449	329.28
437.891	333.97
438.332	315.24
438.773	376.09
439.214	324.6
439.656	350.35
440.097	333.97
440.538	277.79
440.978	289.5
441.419	305.88
441.86	296.52
442.301	357.37
442.742	277.79
443.182	312.9
443.623	357.37
444.063	376.09
444.504	308.22
444.944	310.56
445.385	366.73
445.825	331.62
446.265	294.18
446.706	322.26
447.146	411.2
447.586	387.8
448.026	343.33
448.466	315.24
448.906	296.52
449.346	303.54
449.786	338.65
450.225	333.97
450.665	329.28
451.105	315.24
451.544	277.79
451.984	303.54
452.424	362.05
452.863	312.9
453.302	296.52
453.742	376.09
454.181	357.37
454.62	249.71
455.059	277.79
455.499	329.28
455.938	336.31
456.377	336.31
456.816	263.75
457.254	305.88
457.693	303.54
458.132	317.58
458.571	284.81
459.01	340.99
459.448	301.2
459.887	390.14
460.325	364.39
460.764	338.65
461.202	305.88
461.641	345.67
462.079	315.24
462.517	303.54
462.955	284.81
463.393	282.47
463.832	326.94
464.27	408.86
464.708	301.2
465.145	371.41
465.583	298.86
466.021	298.86
466.459	296.52
466.897	317.58
467.334	338.65
467.772	340.99
468.209	397.16
468.647	296.52
469.084	340.99
469.522	359.71
469.959	319.92
470.396	324.6
470.833	343.33
471.271	315.24
471.708	310.56
472.145	369.07
472.582	291.84
473.019	319.92
473.456	301.2
473.892	294.18
474.329	287.15
474.766	289.5
475.202	326.94
475.639	303.54
476.076	333.97
476.512	305.88
476.949	359.71
477.385	294.18
477.821	329.28
478.258	348.01
478.694	305.88
479.13	305.88
479.566	376.09
480.002	284.81
480.438	266.09
480.874	301.2
481.31	291.84
481.746	228.64
482.181	310.56
482.617	287.15
483.053	298.86
483.488	308.22
483.924	301.2
484.36	312.9
484.795	282.47
485.23	312.9
485.666	364.39
486.101	326.94
486.536	333.97
486.971	256.73
487.407	301.2
487.842	336.31
488.277	350.35
488.712	310.56
489.146	362.05
489.581	378.44
490.016	294.18
490.451	380.78
490.885	298.86
491.32	333.97
491.755	277.79
492.189	310.56
492.624	301.2
493.058	312.9
493.492	310.56
493.927	357.37
494.361	331.62
494.795	345.67
495.229	366.73
495.663	350.35
496.097	359.71
496.531	338.65
496.965	312.9
497.399	373.75
497.833	343.33
498.266	352.69
498.7	326.94
499.134	277.79
499.567	345.67
500.001	352.69
500.434	329.28
500.868	303.54
501.301	315.24
501.734	275.45
502.168	357.37
502.601	350.35
503.034	352.69
503.467	277.79
503.9	305.88
504.333	312.9
504.766	343.33
505.199	352.69
505.632	291.84
506.064	287.15
506.497	352.69
506.93	329.28
507.362	338.65
507.795	312.9
508.227	352.69
508.66	296.52
509.092	308.22
509.524	317.58
509.956	282.47
510.389	301.2
510.821	324.6
511.253	355.03
511.685	280.13
512.117	322.26
512.549	322.26
512.981	310.56
513.412	322.26
513.844	350.35
514.276	333.97
514.707	249.71
515.139	326.94
515.571	362.05
516.002	343.33
516.433	315.24
516.865	310.56
517.296	340.99
517.727	376.09
518.159	319.92
518.59	348.01
519.021	308.22
519.452	319.92
519.883	312.9
520.314	298.86
520.744	284.81
521.175	378.44
521.606	425.25
522.037	310.56
522.467	284.81
522.898	315.24
523.328	324.6
523.759	319.92
524.189	350.35
524.62	357.37
525.05	315.24
525.48	399.5
525.91	298.86
526.341	338.65
526.771	331.62
527.201	366.73
527.631	362.05
528.061	326.94
528.49	312.9
528.92	362.05
529.35	289.5
529.78	315.24
530.209	336.31
530.639	287.15
531.068	310.56
531.498	317.58
531.927	333.97
532.357	284.81
532.786	319.92
533.215	326.94
533.644	303.54
534.074	329.28
534.503	319.92
534.932	312.9
535.361	294.18
535.79	348.01
536.218	266.09
536.647	312.9
537.076	319.92
537.505	329.28
537.933	317.58
538.362	305.88
538.79	315.24
539.219	303.54
539.647	308.22
540.076	373.75
540.504	235.66
540.932	268.43
541.36	324.6
541.788	270.77
542.217	303.54
542.645	252.05
543.073	352.69
543.5	287.15
543.928	331.62
544.356	380.78
544.784	336.31
545.211	352.69
545.639	305.88
546.067	315.24
546.494	305.88
546.922	373.75
547.349	357.37
547.776	301.2
548.204	291.84
548.631	310.56
549.058	364.39
549.485	317.58
549.912	317.58
550.339	326.94
550.766	289.5
551.193	331.62
551.62	303.54
552.047	345.67
552.474	355.03
552.9	350.35
553.327	310.56
553.754	268.43
554.18	261.41
554.607	331.62
555.033	305.88
555.459	317.58
555.886	333.97
556.312	336.31
556.738	329.28
557.164	329.28
557.59	340.99
558.016	315.24
558.442	340.99
558.868	350.35
559.294	294.18
559.72	324.6
560.145	343.33
560.571	310.56
560.997	366.73
561.422	296.52
561.848	348.01
562.273	352.69
562.699	275.45
563.124	326.94
563.549	366.73
563.974	298.86
564.4	333.97
564.825	390.14
565.25	275.45
565.675	280.13
566.1	303.54
566.525	338.65
566.95	385.46
567.374	301.2
567.799	317.58
568.224	277.79
568.648	322.26
569.073	369.07
569.497	331.62
569.922	298.86
570.346	263.75
570.771	333.97
571.195	315.24
571.619	273.11
572.043	303.54
572.467	312.9
572.891	245.02
573.315	273.11
573.739	355.03
574.163	273.11
574.587	301.2
575.011	280.13
575.435	284.81
575.858	364.39
576.282	294.18
576.705	336.31
577.129	303.54
577.552	301.2
577.976	317.58
578.399	357.37
578.822	322.26
579.245	357.37
579.669	308.22
580.092	284.81
580.515	345.67
580.938	362.05
581.361	303.54
581.784	312.9
582.206	296.52
582.629	242.68
583.052	319.92
583.474	305.88
583.897	324.6
584.32	315.24
584.742	280.13
585.165	359.71
585.587	348.01
586.009	310.56
586.431	329.28
586.854	326.94
587.276	249.71
587.698	326.94
588.12	308.22
588.542	312.9
588.964	294.18
589.386	362.05
589.807	256.73
590.229	364.39
590.651	268.43
591.073	348.01
591.494	324.6
591.916	319.92
592.337	364.39
592.759	333.97
593.18	289.5
593.601	348.01
594.022	355.03
594.444	303.54
594.865	291.84
595.286	312.9
595.707	345.67
596.128	322.26
596.549	310.56
596.97	331.62
597.39	259.07
597.811	350.35
598.232	319.92
598.652	308.22
599.073	362.05
599.494	348.01
599.914	268.43
600.334	373.75
600.755	326.94
601.175	301.2
601.595	340.99
602.015	343.33
602.436	312.9
602.856	453.33
603.276	364.39
603.696	254.39
604.115	315.24
604.535	254.39
604.955	348.01
605.375	308.22
605.794	308.22
606.214	366.73
606.634	359.71
607.053	280.13
607.473	373.75
607.892	326.94
608.311	331.62
608.731	333.97
609.15	336.31
609.569	261.41
609.988	350.35
610.407	348.01
610.826	282.47
611.245	383.12
611.664	345.67
612.083	315.24
612.501	326.94
612.92	317.58
613.339	369.07
613.757	303.54
614.176	315.24
614.594	280.13
615.013	340.99
615.431	296.52
615.85	291.84
616.268	305.88
616.686	340.99
617.104	301.2
617.522	310.56
617.94	392.48
618.358	390.14
618.776	291.84
619.194	294.18
619.612	378.44
620.03	266.09
620.447	348.01
620.865	369.07
621.282	301.2
621.7	315.24
622.117	315.24
622.535	303.54
622.952	366.73
623.369	373.75
623.787	329.28
624.204	277.79
624.621	324.6
625.038	322.26
625.455	369.07
625.872	312.9
626.289	343.33
626.706	366.73
627.123	310.56
627.539	329.28
627.956	324.6
628.373	338.65
628.789	284.81
629.206	270.77
629.622	308.22
630.038	315.24
630.455	270.77
630.871	319.92
631.287	294.18
631.703	280.13
632.12	338.65
632.536	364.39
632.952	317.58
633.368	348.01
633.783	289.5
634.199	336.31
634.615	340.99
635.031	340.99
635.446	350.35
635.862	373.75
636.277	420.57
636.693	319.92
637.108	310.56
637.524	305.88
637.939	355.03
638.354	336.31
638.77	275.45
639.185	331.62
639.6	333.97
640.015	312.9
640.43	331.62
640.845	343.33
641.259	343.33
641.674	291.84
642.089	352.69
642.504	249.71
642.918	324.6
643.333	240.34
643.747	364.39
644.162	273.11
644.576	319.92
644.991	310.56
645.405	301.2
645.819	289.5
646.233	322.26
646.647	270.77
647.061	266.09
647.475	359.71
647.889	350.35
648.303	319.92
648.717	289.5
649.131	324.6
649.545	287.15
649.958	277.79
650.372	331.62
650.785	289.5
651.199	305.88
651.612	362.05
652.026	329.28
652.439	343.33
652.852	308.22
653.266	338.65
653.679	310.56
654.092	340.99
654.505	333.97
654.918	322.26
655.331	326.94
655.744	340.99
656.156	301.2
656.569	287.15
656.982	348.01
657.394	326.94
657.807	310.56
658.22	331.62
658.632	319.92
659.044	298.86
659.457	331.62
659.869	345.67
660.281	315.24
660.693	303.54
661.106	359.71
661.518	296.52
661.93	298.86
662.342	277.79
662.754	338.65
663.165	385.46
663.577	338.65
663.989	308.22
664.401	291.84
664.812	303.54
665.224	364.39
665.635	289.5
666.047	289.5
666.458	322.26
666.869	329.28
667.281	280.13
667.692	322.26
668.103	350.35
668.514	296.52
668.925	266.09
669.336	364.39
669.747	343.33
670.158	310.56
670.569	287.15
670.979	273.11
671.39	312.9
671.801	310.56
672.211	331.62
672.622	282.47
673.032	303.54
673.443	362.05
673.853	298.86
674.263	352.69
674.674	340.99
675.084	291.84
675.494	291.84
675.904	378.44
676.314	371.41
676.724	296.52
677.134	270.77
677.544	308.22
677.953	296.52
678.363	394.82
678.773	352.69
679.182	355.03
679.592	317.58
680.001	366.73
680.411	364.39
680.82	291.84
681.23	280.13
681.639	326.94
682.048	289.5
682.457	256.73
682.866	303.54
683.275	322.26
683.684	322.26
684.093	312.9
684.502	348.01
684.911	296.52
685.32	338.65
685.728	348.01
686.137	263.75
686.546	345.67
686.954	324.6
687.363	303.54
687.771	298.86
688.179	280.13
688.588	312.9
688.996	291.84
689.404	324.6
689.812	340.99
690.22	284.81
690.628	371.41
691.036	378.44
691.444	338.65
691.852	310.56
692.26	376.09
692.667	305.88
693.075	230.98
693.483	336.31
693.89	275.45
694.298	298.86
694.705	315.24
695.112	385.46
695.52	303.54
695.927	348.01
696.334	308.22
696.741	333.97
697.148	280.13
697.555	305.88
697.962	322.26
698.369	270.77
698.776	362.05
699.183	326.94
699.59	287.15
699.996	315.24
700.403	326.94
700.81	291.84
701.216	317.58
701.623	319.92
702.029	394.82
702.435	266.09
702.842	294.18
703.248	289.5
703.654	308.22
704.06	336.31
704.466	291.84
704.872	301.2
705.278	275.45
705.684	322.26
706.09	312.9
706.496	308.22
706.901	331.62
707.307	324.6
707.712	324.6
708.118	338.65
708.523	252.05
708.929	277.79
709.334	324.6
709.74	338.65
710.145	261.41
710.55	294.18
710.955	371.41
711.36	357.37
711.765	308.22
712.17	350.35
712.575	329.28
712.98	872.29
713.385	275.45
713.789	294.18
714.194	301.2
714.599	298.86
715.003	355.03
715.408	310.56
715.812	305.88
716.217	312.9
716.621	308.22
717.025	317.58
717.429	308.22
717.833	287.15
718.238	319.92
718.642	322.26
719.046	252.05
719.449	322.26
719.853	310.56
720.257	331.62
720.661	282.47
721.065	312.9
721.468	305.88
721.872	266.09
722.275	315.24
722.679	280.13
723.082	315.24
723.485	245.02
723.889	338.65
724.292	315.24
724.695	289.5
725.098	310.56
725.501	331.62
725.904	270.77
726.307	291.84
726.71	336.31
727.113	415.88
727.516	348.01
727.918	345.67
728.321	298.86
728.724	355.03
729.126	310.56
729.529	364.39
729.931	280.13
730.333	331.62
730.736	289.5
731.138	275.45
731.54	308.22
731.942	294.18
732.344	366.73
732.746	331.62
733.148	315.24
733.55	350.35
733.952	324.6
734.354	266.09
734.756	333.97
735.157	268.43
735.559	254.39
735.96	282.47
736.362	305.88
736.763	305.88
737.165	310.56
737.566	247.37
737.967	247.37
738.368	305.88
738.77	277.79
739.171	308.22
739.572	296.52
739.973	263.75
740.374	291.84
740.774	348.01
741.175	336.31
741.576	319.92
741.977	266.09
742.377	252.05
742.778	369.07
743.178	350.35
743.579	303.54
743.979	333.97
744.379	355.03
744.78	348.01
745.18	315.24
745.58	319.92
745.98	343.33
746.38	312.9
746.78	322.26
747.18	338.65
747.58	340.99
747.98	263.75
748.38	315.24
748.779	338.65
749.179	284.81
749.578	319.92
749.978	340.99
750.377	221.62
750.777	289.5
751.176	287.15
751.575	326.94
751.975	305.88
752.374	348.01
752.773	340.99
753.172	338.65
753.571	298.86
753.97	343.33
754.369	369.07
754.768	273.11
755.166	415.88
755.565	317.58
755.964	338.65
756.362	352.69
756.761	289.5
757.159	245.02
757.558	326.94
757.956	355.03
758.354	329.28
758.753	317.58
759.151	266.09
759.549	284.81
759.947	415.88
760.345	261.41
760.743	261.41
761.141	254.39
761.539	348.01
761.936	366.73
762.334	256.73
762.732	331.62
763.129	317.58
763.527	275.45
763.924	331.62
764.322	376.09
764.719	343.33
765.117	266.09
