Data from Al_FLMS009871__1237__16-44-33-575.txt Node

Date: Fri Mar 08 16:44:33 CST 2024
User: pe5414po
Spectrometer: FLMS00987
Trigger mode: 0
Integration Time (sec): 1.000000E-1
Scans to average: 1
Electric dark correction enabled: true
Nonlinearity correction enabled: false
Boxcar width: 0
XAxis mode: Wavelengths
Number of Pixels in Spectrum: 2048
>>>>>Begin Spectral Data<<<<<
188.938	-6.73
189.409	-6.73
189.879	-6.73
190.349	-81.63
190.819	-93.33
191.29	-133.12
191.76	-109.71
192.23	-123.76
192.7	-53.54
193.17	-37.16
193.64	-27.79
194.109	-25.45
194.579	4.97
195.049	-20.77
195.519	-4.39
195.988	33.06
196.458	40.08
196.927	72.85
197.397	107.96
197.866	138.38
198.336	138.38
198.805	175.83
199.274	173.49
199.744	222.64
200.213	201.58
200.682	253.07
201.151	239.03
201.62	199.24
202.089	206.26
202.558	222.64
203.027	313.92
203.495	255.41
203.964	241.37
204.433	281.16
204.902	285.84
205.37	278.82
205.839	306.9
206.307	243.71
206.776	351.37
207.244	330.31
207.712	299.88
208.181	267.11
208.649	318.61
209.117	292.86
209.585	367.76
210.053	290.52
210.521	264.77
210.989	304.56
211.457	292.86
211.925	260.09
212.393	215.62
212.861	274.14
213.328	278.82
213.796	311.58
214.264	281.16
214.731	276.48
215.199	297.54
215.666	215.62
216.133	288.18
216.601	239.03
217.068	302.22
217.535	276.48
218.003	224.98
218.47	281.16
218.937	274.14
219.404	217.96
219.871	297.54
220.338	281.16
220.805	299.88
221.271	288.18
221.738	274.14
222.205	257.75
222.671	267.11
223.138	253.07
223.605	299.88
224.071	292.86
224.538	255.41
225.004	255.41
225.47	267.11
225.937	271.79
226.403	302.22
226.869	246.05
227.335	302.22
227.801	274.14
228.267	267.11
228.733	292.86
229.199	232.01
229.665	255.41
230.131	269.45
230.597	311.58
231.062	274.14
231.528	299.88
231.994	320.95
232.459	313.92
232.925	255.41
233.39	311.58
233.856	239.03
234.321	297.54
234.786	292.86
235.252	330.31
235.717	316.26
236.182	311.58
236.647	327.97
237.112	232.01
237.577	283.5
238.042	290.52
238.507	269.45
238.972	262.43
239.436	239.03
239.901	250.73
240.366	304.56
240.83	313.92
241.295	253.07
241.76	297.54
242.224	309.24
242.688	250.73
243.153	264.77
243.617	206.26
244.081	299.88
244.545	220.3
245.01	206.26
245.474	297.54
245.938	224.98
246.402	253.07
246.866	320.95
247.33	243.71
247.793	346.69
248.257	243.71
248.721	271.79
249.185	302.22
249.648	276.48
250.112	281.16
250.575	239.03
251.039	271.79
251.502	250.73
251.965	302.22
252.429	295.2
252.892	297.54
253.355	285.84
253.818	243.71
254.281	269.45
254.744	344.35
255.207	234.35
255.67	260.09
256.133	267.11
256.596	215.62
257.059	239.03
257.522	271.79
257.984	299.88
258.447	320.95
258.909	299.88
259.372	180.51
259.834	313.92
260.297	299.88
260.759	353.71
261.221	332.65
261.684	278.82
262.146	297.54
262.608	285.84
263.07	327.97
263.532	278.82
263.994	276.48
264.456	346.69
264.918	292.86
265.38	290.52
265.842	327.97
266.303	292.86
266.765	346.69
267.227	330.31
267.688	332.65
268.15	271.79
268.611	316.26
269.072	253.07
269.534	264.77
269.995	363.08
270.456	346.69
270.918	257.75
271.379	309.24
271.84	288.18
272.301	253.07
272.762	271.79
273.223	316.26
273.684	327.97
274.144	327.97
274.605	253.07
275.066	313.92
275.527	313.92
275.987	309.24
276.448	337.33
276.908	290.52
277.369	311.58
277.829	288.18
278.289	299.88
278.75	323.29
279.21	257.75
279.67	236.69
280.13	290.52
280.59	318.61
281.05	316.26
281.51	269.45
281.97	260.09
282.43	267.11
282.89	299.88
283.35	290.52
283.809	318.61
284.269	346.69
284.729	316.26
285.188	304.56
285.648	295.2
286.107	299.88
286.567	332.65
287.026	285.84
287.485	311.58
287.944	325.63
288.404	309.24
288.863	306.9
289.322	292.86
289.781	311.58
290.24	304.56
290.699	276.48
291.158	342.01
291.616	278.82
292.075	241.37
292.534	283.5
292.992	306.9
293.451	334.99
293.91	342.01
294.368	271.79
294.827	334.99
295.285	360.74
295.743	313.92
296.202	278.82
296.66	309.24
297.118	290.52
297.576	358.39
298.034	311.58
298.492	276.48
298.95	351.37
299.408	351.37
299.866	302.22
300.324	302.22
300.781	325.63
301.239	334.99
301.697	302.22
302.154	339.67
302.612	344.35
303.069	309.24
303.527	299.88
303.984	334.99
304.441	306.9
304.899	318.61
305.356	318.61
305.813	295.2
306.27	318.61
306.727	276.48
307.184	267.11
307.641	239.03
308.098	283.5
308.555	295.2
309.012	316.26
309.468	316.26
309.925	306.9
310.382	344.35
310.838	264.77
311.295	360.74
311.751	253.07
312.208	332.65
312.664	356.05
313.12	320.95
313.577	311.58
314.033	337.33
314.489	297.54
314.945	234.35
315.401	278.82
315.857	292.86
316.313	318.61
316.769	295.2
317.225	234.35
317.681	360.74
318.136	278.82
318.592	290.52
319.048	302.22
319.503	267.11
319.959	236.69
320.414	318.61
320.869	323.29
321.325	339.67
321.78	232.01
322.235	325.63
322.691	323.29
323.146	339.67
323.601	288.18
324.056	253.07
324.511	304.56
324.966	236.69
325.421	372.44
325.875	342.01
326.33	346.69
326.785	311.58
327.24	264.77
327.694	332.65
328.149	274.14
328.603	327.97
329.058	297.54
329.512	292.86
329.966	320.95
330.421	330.31
330.875	299.88
331.329	299.88
331.783	306.9
332.237	330.31
332.691	316.26
333.145	313.92
333.599	318.61
334.053	323.29
334.507	344.35
334.96	285.84
335.414	363.08
335.868	365.42
336.321	339.67
336.775	351.37
337.228	288.18
337.682	276.48
338.135	327.97
338.588	302.22
339.042	283.5
339.495	309.24
339.948	320.95
340.401	248.39
340.854	377.12
341.307	264.77
341.76	323.29
342.213	274.14
342.666	325.63
343.119	339.67
343.571	349.03
344.024	320.95
344.477	330.31
344.929	276.48
345.382	320.95
345.834	325.63
346.287	363.08
346.739	349.03
347.191	316.26
347.644	344.35
348.096	295.2
348.548	267.11
349	222.64
349.452	290.52
349.904	309.24
350.356	297.54
350.808	311.58
351.26	393.5
351.711	290.52
352.163	253.07
352.615	257.75
353.066	372.44
353.518	327.97
353.969	388.82
354.421	299.88
354.872	334.99
355.324	271.79
355.775	342.01
356.226	339.67
356.677	346.69
357.128	309.24
357.579	290.52
358.03	306.9
358.481	330.31
358.932	299.88
359.383	360.74
359.834	295.2
360.285	346.69
360.735	292.86
361.186	281.16
361.637	325.63
362.087	349.03
362.538	304.56
362.988	260.09
363.438	299.88
363.889	253.07
364.339	334.99
364.789	334.99
365.239	267.11
365.689	304.56
366.139	370.1
366.589	299.88
367.039	313.92
367.489	311.58
367.939	353.71
368.389	367.76
368.839	318.61
369.288	283.5
369.738	260.09
370.187	402.86
370.637	334.99
371.086	323.29
371.536	363.08
371.985	327.97
372.434	285.84
372.884	309.24
373.333	320.95
373.782	313.92
374.231	346.69
374.68	325.63
375.129	285.84
375.578	246.05
376.027	339.67
376.475	313.92
376.924	384.14
377.373	316.26
377.822	306.9
378.27	344.35
378.719	349.03
379.167	332.65
379.616	210.94
380.064	356.05
380.512	295.2
380.961	339.67
381.409	232.01
381.857	325.63
382.305	384.14
382.753	297.54
383.201	358.39
383.649	412.23
384.097	309.24
384.545	323.29
384.992	402.86
385.44	330.31
385.888	248.39
386.335	290.52
386.783	349.03
387.231	342.01
387.678	274.14
388.125	269.45
388.573	342.01
389.02	311.58
389.467	311.58
389.914	292.86
390.362	356.05
390.809	316.26
391.256	306.9
391.703	302.22
392.15	395.84
392.596	262.43
393.043	323.29
393.49	299.88
393.937	288.18
394.383	334.99
394.83	290.52
395.276	330.31
395.723	318.61
396.169	271.79
396.616	309.24
397.062	337.33
397.508	330.31
397.954	304.56
398.401	327.97
398.847	393.5
399.293	407.55
399.739	316.26
400.185	386.48
400.631	416.91
401.076	351.37
401.522	386.48
401.968	360.74
402.414	353.71
402.859	353.71
403.305	349.03
403.75	297.54
404.196	349.03
404.641	299.88
405.086	332.65
405.532	306.9
405.977	384.14
406.422	311.58
406.867	346.69
407.312	349.03
407.757	304.56
408.202	309.24
408.647	292.86
409.092	290.52
409.537	325.63
409.982	311.58
410.426	327.97
410.871	339.67
411.316	327.97
411.76	281.16
412.205	339.67
412.649	351.37
413.093	288.18
413.538	356.05
413.982	239.03
414.426	311.58
414.87	320.95
415.314	351.37
415.758	356.05
416.202	260.09
416.646	316.26
417.09	339.67
417.534	334.99
417.978	337.33
418.421	290.52
418.865	332.65
419.309	278.82
419.752	253.07
420.196	243.71
420.639	285.84
421.083	283.5
421.526	384.14
421.969	262.43
422.412	313.92
422.856	344.35
423.299	367.76
423.742	337.33
424.185	285.84
424.628	311.58
425.071	337.33
425.513	274.14
425.956	342.01
426.399	386.48
426.842	339.67
427.284	318.61
427.727	269.45
428.169	339.67
428.612	311.58
429.054	353.71
429.497	356.05
429.939	332.65
430.381	311.58
430.823	339.67
431.265	337.33
431.707	295.2
432.149	306.9
432.591	344.35
433.033	330.31
433.475	351.37
433.917	339.67
434.359	337.33
434.8	299.88
435.242	316.26
435.684	325.63
436.125	320.95
436.567	290.52
437.008	248.39
437.449	323.29
437.891	346.69
438.332	302.22
438.773	262.43
439.214	349.03
439.656	306.9
440.097	323.29
440.538	339.67
440.978	323.29
441.419	334.99
441.86	323.29
442.301	306.9
442.742	334.99
443.182	330.31
443.623	342.01
444.063	358.39
444.504	276.48
444.944	304.56
445.385	288.18
445.825	349.03
446.265	269.45
446.706	292.86
447.146	288.18
447.586	309.24
448.026	344.35
448.466	342.01
448.906	358.39
449.346	267.11
449.786	295.2
450.225	281.16
450.665	311.58
451.105	311.58
451.544	325.63
451.984	302.22
452.424	337.33
452.863	372.44
453.302	302.22
453.742	285.84
454.181	306.9
454.62	309.24
455.059	342.01
455.499	363.08
455.938	330.31
456.377	332.65
456.816	323.29
457.254	325.63
457.693	323.29
458.132	377.12
458.571	283.5
459.01	358.39
459.448	384.14
459.887	283.5
460.325	306.9
460.764	372.44
461.202	316.26
461.641	384.14
462.079	367.76
462.517	318.61
462.955	346.69
463.393	370.1
463.832	327.97
464.27	311.58
464.708	309.24
465.145	290.52
465.583	367.76
466.021	374.78
466.459	283.5
466.897	304.56
467.334	327.97
467.772	353.71
468.209	379.46
468.647	288.18
469.084	274.14
469.522	290.52
469.959	323.29
470.396	344.35
470.833	285.84
471.271	400.52
471.708	285.84
472.145	288.18
472.582	299.88
473.019	363.08
473.456	318.61
473.892	236.69
474.329	313.92
474.766	309.24
475.202	318.61
475.639	224.98
476.076	358.39
476.512	353.71
476.949	318.61
477.385	351.37
477.821	309.24
478.258	334.99
478.694	370.1
479.13	342.01
479.566	274.14
480.002	295.2
480.438	426.27
480.874	330.31
481.31	302.22
481.746	339.67
482.181	297.54
482.617	358.39
483.053	334.99
483.488	358.39
483.924	330.31
484.36	318.61
484.795	377.12
485.23	332.65
485.666	330.31
486.101	297.54
486.536	365.42
486.971	306.9
487.407	260.09
487.842	297.54
488.277	318.61
488.712	323.29
489.146	304.56
489.581	374.78
490.016	318.61
490.451	327.97
490.885	316.26
491.32	306.9
491.755	360.74
492.189	346.69
492.624	342.01
493.058	370.1
493.492	365.42
493.927	306.9
494.361	299.88
494.795	325.63
495.229	274.14
495.663	323.29
496.097	360.74
496.531	360.74
496.965	402.86
497.399	344.35
497.833	334.99
498.266	339.67
498.7	330.31
499.134	299.88
499.567	295.2
500.001	342.01
500.434	325.63
500.868	334.99
501.301	342.01
501.734	306.9
502.168	320.95
502.601	327.97
503.034	337.33
503.467	330.31
503.9	351.37
504.333	353.71
504.766	304.56
505.199	323.29
505.632	311.58
506.064	325.63
506.497	370.1
506.93	292.86
507.362	311.58
507.795	320.95
508.227	323.29
508.66	344.35
509.092	297.54
509.524	278.82
509.956	260.09
510.389	339.67
510.821	327.97
511.253	309.24
511.685	295.2
512.117	276.48
512.549	306.9
512.981	290.52
513.412	342.01
513.844	278.82
514.276	278.82
514.707	337.33
515.139	267.11
515.571	349.03
516.002	309.24
516.433	318.61
516.865	295.2
517.296	288.18
517.727	306.9
518.159	342.01
518.59	323.29
519.021	311.58
519.452	262.43
519.883	323.29
520.314	306.9
520.744	372.44
521.175	288.18
521.606	295.2
522.037	288.18
522.467	360.74
522.898	327.97
523.328	327.97
523.759	344.35
524.189	342.01
524.62	311.58
525.05	304.56
525.48	327.97
525.91	370.1
526.341	363.08
526.771	260.09
527.201	316.26
527.631	290.52
528.061	292.86
528.49	313.92
528.92	276.48
529.35	346.69
529.78	304.56
530.209	334.99
530.639	302.22
531.068	349.03
531.498	337.33
531.927	320.95
532.357	267.11
532.786	344.35
533.215	330.31
533.644	342.01
534.074	292.86
534.503	330.31
534.932	304.56
535.361	334.99
535.79	330.31
536.218	278.82
536.647	320.95
537.076	325.63
537.505	313.92
537.933	311.58
538.362	323.29
538.79	311.58
539.219	393.5
539.647	330.31
540.076	349.03
540.504	400.52
540.932	306.9
541.36	243.71
541.788	363.08
542.217	381.8
542.645	412.23
543.073	309.24
543.5	342.01
543.928	309.24
544.356	337.33
544.784	304.56
545.211	290.52
545.639	358.39
546.067	313.92
546.494	351.37
546.922	311.58
547.349	299.88
547.776	330.31
548.204	334.99
548.631	283.5
549.058	344.35
549.485	309.24
549.912	288.18
550.339	332.65
550.766	292.86
551.193	262.43
551.62	253.07
552.047	374.78
552.474	363.08
552.9	302.22
553.327	318.61
553.754	253.07
554.18	327.97
554.607	299.88
555.033	339.67
555.459	356.05
555.886	323.29
556.312	337.33
556.738	323.29
557.164	372.44
557.59	332.65
558.016	349.03
558.442	351.37
558.868	334.99
559.294	332.65
559.72	367.76
560.145	330.31
560.571	306.9
560.997	304.56
561.422	386.48
561.848	297.54
562.273	367.76
562.699	290.52
563.124	325.63
563.549	320.95
563.974	337.33
564.4	311.58
564.825	318.61
565.25	304.56
565.675	395.84
566.1	295.2
566.525	367.76
566.95	332.65
567.374	353.71
567.799	386.48
568.224	358.39
568.648	325.63
569.073	325.63
569.497	276.48
569.922	339.67
570.346	372.44
570.771	262.43
571.195	299.88
571.619	288.18
572.043	320.95
572.467	337.33
572.891	365.42
573.315	356.05
573.739	332.65
574.163	320.95
574.587	351.37
575.011	337.33
575.435	388.82
575.858	353.71
576.282	363.08
576.705	367.76
577.129	393.5
577.552	325.63
577.976	309.24
578.399	370.1
578.822	409.89
579.245	360.74
579.669	356.05
580.092	379.46
580.515	311.58
580.938	309.24
581.361	283.5
581.784	327.97
582.206	391.16
582.629	367.76
583.052	304.56
583.474	255.41
583.897	323.29
584.32	285.84
584.742	344.35
585.165	292.86
585.587	334.99
586.009	325.63
586.431	325.63
586.854	290.52
587.276	283.5
587.698	285.84
588.12	299.88
588.542	379.46
588.964	351.37
589.386	367.76
589.807	297.54
590.229	262.43
590.651	297.54
591.073	320.95
591.494	334.99
591.916	337.33
592.337	323.29
592.759	313.92
593.18	353.71
593.601	299.88
594.022	342.01
594.444	353.71
594.865	349.03
595.286	356.05
595.707	304.56
596.128	353.71
596.549	323.29
596.97	339.67
597.39	318.61
597.811	278.82
598.232	346.69
598.652	311.58
599.073	320.95
599.494	285.84
599.914	276.48
600.334	257.75
600.755	372.44
601.175	260.09
601.595	325.63
602.015	349.03
602.436	306.9
602.856	407.55
603.276	356.05
603.696	318.61
604.115	283.5
604.535	370.1
604.955	339.67
605.375	313.92
605.794	332.65
606.214	363.08
606.634	232.01
607.053	349.03
607.473	320.95
607.892	339.67
608.311	323.29
608.731	313.92
609.15	334.99
609.569	316.26
609.988	330.31
610.407	311.58
610.826	302.22
611.245	257.75
611.664	281.16
612.083	349.03
612.501	339.67
612.92	372.44
613.339	325.63
613.757	342.01
614.176	349.03
614.594	269.45
615.013	243.71
615.431	351.37
615.85	311.58
616.268	325.63
616.686	295.2
617.104	360.74
617.522	334.99
617.94	316.26
618.358	342.01
618.776	330.31
619.194	381.8
619.612	398.18
620.03	351.37
620.447	363.08
620.865	330.31
621.282	318.61
621.7	306.9
622.117	344.35
622.535	276.48
622.952	316.26
623.369	332.65
623.787	327.97
624.204	379.46
624.621	325.63
625.038	342.01
625.455	297.54
625.872	309.24
626.289	260.09
626.706	327.97
627.123	339.67
627.539	299.88
627.956	323.29
628.373	318.61
628.789	309.24
629.206	334.99
629.622	299.88
630.038	288.18
630.455	304.56
630.871	290.52
631.287	323.29
631.703	285.84
632.12	281.16
632.536	330.31
632.952	351.37
633.368	311.58
633.783	377.12
634.199	360.74
634.615	302.22
635.031	222.64
635.446	330.31
635.862	297.54
636.277	377.12
636.693	325.63
637.108	285.84
637.524	358.39
637.939	253.07
638.354	264.77
638.77	356.05
639.185	353.71
639.6	349.03
640.015	281.16
640.43	320.95
640.845	327.97
641.259	356.05
641.674	344.35
642.089	365.42
642.504	339.67
642.918	309.24
643.333	299.88
643.747	337.33
644.162	304.56
644.576	363.08
644.991	313.92
645.405	295.2
645.819	295.2
646.233	274.14
646.647	318.61
647.061	316.26
647.475	363.08
647.889	339.67
648.303	269.45
648.717	346.69
649.131	346.69
649.545	398.18
649.958	274.14
650.372	356.05
650.785	351.37
651.199	327.97
651.612	349.03
652.026	344.35
652.439	374.78
652.852	320.95
653.266	398.18
653.679	316.26
654.092	407.55
654.505	346.69
654.918	302.22
655.331	325.63
655.744	323.29
656.156	320.95
656.569	332.65
656.982	274.14
657.394	318.61
657.807	391.16
658.22	367.76
658.632	367.76
659.044	274.14
659.457	253.07
659.869	365.42
660.281	349.03
660.693	330.31
661.106	311.58
661.518	309.24
661.93	346.69
662.342	264.77
662.754	372.44
663.165	316.26
663.577	351.37
663.989	285.84
664.401	302.22
664.812	267.11
665.224	318.61
665.635	264.77
666.047	316.26
666.458	349.03
666.869	349.03
667.281	290.52
667.692	320.95
668.103	267.11
668.514	311.58
668.925	320.95
669.336	309.24
669.747	349.03
670.158	339.67
670.569	405.21
670.979	367.76
671.39	374.78
671.801	325.63
672.211	325.63
672.622	381.8
673.032	264.77
673.443	360.74
673.853	253.07
674.263	332.65
674.674	327.97
675.084	274.14
675.494	349.03
675.904	374.78
676.314	306.9
676.724	309.24
677.134	334.99
677.544	330.31
677.953	337.33
678.363	370.1
678.773	412.23
679.182	327.97
679.592	358.39
680.001	290.52
680.411	349.03
680.82	313.92
681.23	313.92
681.639	353.71
682.048	323.29
682.457	320.95
682.866	306.9
683.275	344.35
683.684	267.11
684.093	274.14
684.502	297.54
684.911	356.05
685.32	360.74
685.728	367.76
686.137	334.99
686.546	304.56
686.954	281.16
687.363	349.03
687.771	264.77
688.179	327.97
688.588	288.18
688.996	271.79
689.404	349.03
689.812	297.54
690.22	370.1
690.628	342.01
691.036	318.61
691.444	278.82
691.852	309.24
692.26	320.95
692.667	334.99
693.075	370.1
693.483	393.5
693.89	276.48
694.298	260.09
694.705	342.01
695.112	278.82
695.52	346.69
695.927	339.67
696.334	332.65
696.741	353.71
697.148	337.33
697.555	257.75
697.962	349.03
698.369	349.03
698.776	346.69
699.183	351.37
699.59	260.09
699.996	353.71
700.403	320.95
700.81	370.1
701.216	358.39
701.623	299.88
702.029	304.56
702.435	358.39
702.842	330.31
703.248	320.95
703.654	332.65
704.06	283.5
704.466	334.99
704.872	260.09
705.278	349.03
705.684	288.18
706.09	311.58
706.496	374.78
706.901	379.46
707.307	292.86
707.712	332.65
708.118	306.9
708.523	276.48
708.929	325.63
709.334	344.35
709.74	395.84
710.145	323.29
710.55	377.12
710.955	365.42
711.36	337.33
711.765	311.58
712.17	381.8
712.575	363.08
712.98	842.89
713.385	360.74
713.789	292.86
714.194	356.05
714.599	318.61
715.003	295.2
715.408	339.67
715.812	302.22
716.217	337.33
716.621	351.37
717.025	311.58
717.429	334.99
717.833	274.14
718.238	356.05
718.642	325.63
719.046	255.41
719.449	323.29
719.853	246.05
720.257	267.11
720.661	327.97
721.065	344.35
721.468	278.82
721.872	311.58
722.275	349.03
722.679	342.01
723.082	309.24
723.485	332.65
723.889	344.35
724.292	330.31
724.695	302.22
725.098	332.65
725.501	391.16
725.904	318.61
726.307	269.45
726.71	344.35
727.113	339.67
727.516	290.52
727.918	327.97
728.321	304.56
728.724	313.92
729.126	344.35
729.529	323.29
729.931	351.37
730.333	283.5
730.736	227.32
731.138	323.29
731.54	339.67
731.942	330.31
732.344	316.26
732.746	320.95
733.148	395.84
733.55	306.9
733.952	339.67
734.354	285.84
734.756	339.67
735.157	339.67
735.559	299.88
735.96	283.5
736.362	334.99
736.763	325.63
737.165	334.99
737.566	285.84
737.967	334.99
738.368	309.24
738.77	309.24
739.171	332.65
739.572	372.44
739.973	318.61
740.374	365.42
740.774	290.52
741.175	386.48
741.576	337.33
741.977	318.61
742.377	327.97
742.778	290.52
743.178	334.99
743.579	304.56
743.979	318.61
744.379	313.92
744.78	374.78
745.18	313.92
745.58	250.73
745.98	267.11
746.38	320.95
746.78	309.24
747.18	344.35
747.58	351.37
747.98	311.58
748.38	297.54
748.779	290.52
749.179	239.03
749.578	278.82
749.978	395.84
750.377	356.05
750.777	346.69
751.176	330.31
751.575	309.24
751.975	363.08
752.374	276.48
752.773	309.24
753.172	311.58
753.571	267.11
753.97	295.2
754.369	283.5
754.768	332.65
755.166	334.99
755.565	269.45
755.964	264.77
756.362	232.01
756.761	320.95
757.159	290.52
757.558	342.01
757.956	344.35
758.354	337.33
758.753	367.76
759.151	295.2
759.549	344.35
759.947	365.42
760.345	327.97
760.743	334.99
761.141	306.9
761.539	309.24
761.936	332.65
762.334	309.24
762.732	313.92
763.129	309.24
763.527	309.24
763.924	330.31
