Data from Al_FLMS009871__1226__16-44-32-475.txt Node

Date: Fri Mar 08 16:44:32 CST 2024
User: pe5414po
Spectrometer: FLMS00987
Trigger mode: 0
Integration Time (sec): 1.000000E-1
Scans to average: 1
Electric dark correction enabled: true
Nonlinearity correction enabled: false
Boxcar width: 0
XAxis mode: Wavelengths
Number of Pixels in Spectrum: 2048
>>>>>Begin Spectral Data<<<<<
188.938	-64.36
189.409	-64.36
189.879	-64.36
190.349	-160.33
190.819	-129.9
191.29	-90.11
191.76	-76.07
192.23	-57.34
192.7	-64.36
193.17	-118.2
193.64	-43.3
194.109	-78.41
194.579	-8.19
195.049	22.24
195.519	8.19
195.988	45.64
196.458	66.71
196.927	111.18
197.397	45.64
197.866	108.83
198.336	127.56
198.805	92.45
199.274	99.47
199.744	179.05
200.213	165.01
200.682	165.01
201.151	253.95
201.62	235.22
202.089	200.12
202.558	221.18
203.027	235.22
203.495	298.42
203.964	223.52
204.433	232.88
204.902	253.95
205.37	246.93
205.839	282.03
206.307	277.35
206.776	282.03
207.244	228.2
207.712	237.56
208.181	298.42
208.649	282.03
209.117	293.74
209.585	246.93
210.053	298.42
210.521	282.03
210.989	246.93
211.457	321.82
211.925	307.78
212.393	258.63
212.861	204.8
213.328	284.38
213.796	270.33
214.264	253.95
214.731	239.9
215.199	352.25
215.666	279.69
216.133	258.63
216.601	251.61
217.068	263.31
217.535	263.31
218.003	211.82
218.47	267.99
218.937	300.76
219.404	209.48
219.871	260.97
220.338	183.73
220.805	225.86
221.271	293.74
221.738	232.88
222.205	221.18
222.671	267.99
223.138	204.8
223.605	204.8
224.071	225.86
224.538	249.27
225.004	193.09
225.47	244.59
225.937	183.73
226.403	275.01
226.869	282.03
227.335	277.35
227.801	289.06
228.267	272.67
228.733	279.69
229.199	284.38
229.665	239.9
230.131	244.59
230.597	270.33
231.062	197.78
231.528	270.33
231.994	300.76
232.459	167.35
232.925	211.82
233.39	228.2
233.856	253.95
234.321	298.42
234.786	272.67
235.252	272.67
235.717	218.84
236.182	209.48
236.647	296.08
237.112	256.29
237.577	209.48
238.042	307.78
238.507	293.74
238.972	253.95
239.436	279.69
239.901	298.42
240.366	267.99
240.83	232.88
241.295	270.33
241.76	258.63
242.224	324.16
242.688	286.72
243.153	300.76
243.617	300.76
244.081	249.27
244.545	263.31
245.01	282.03
245.474	312.46
245.938	242.25
246.402	244.59
246.866	260.97
247.33	303.1
247.793	303.1
248.257	300.76
248.721	284.38
249.185	328.85
249.648	228.2
250.112	251.61
250.575	195.43
251.039	312.46
251.502	284.38
251.965	275.01
252.429	300.76
252.892	263.31
253.355	298.42
253.818	242.25
254.281	293.74
254.744	312.46
255.207	228.2
255.67	258.63
256.133	267.99
256.596	284.38
257.059	270.33
257.522	326.5
257.984	207.14
258.447	286.72
258.909	312.46
259.372	263.31
259.834	244.59
260.297	279.69
260.759	286.72
261.221	293.74
261.684	298.42
262.146	270.33
262.608	225.86
263.07	272.67
263.532	307.78
263.994	286.72
264.456	235.22
264.918	279.69
265.38	345.23
265.842	324.16
266.303	277.35
266.765	321.82
267.227	319.48
267.688	347.57
268.15	253.95
268.611	263.31
269.072	214.16
269.534	265.65
269.995	260.97
270.456	232.88
270.918	298.42
271.379	216.5
271.84	265.65
272.301	253.95
272.762	272.67
273.223	305.44
273.684	293.74
274.144	270.33
274.605	340.55
275.066	237.56
275.527	282.03
275.987	326.5
276.448	291.4
276.908	270.33
277.369	270.33
277.829	232.88
278.289	319.48
278.75	246.93
279.21	296.08
279.67	263.31
280.13	296.08
280.59	275.01
281.05	298.42
281.51	314.8
281.97	279.69
282.43	314.8
282.89	237.56
283.35	286.72
283.809	300.76
284.269	333.53
284.729	267.99
285.188	293.74
285.648	258.63
286.107	242.25
286.567	291.4
287.026	296.08
287.485	312.46
287.944	286.72
288.404	211.82
288.863	298.42
289.322	310.12
289.781	359.27
290.24	277.35
290.699	258.63
291.158	277.35
291.616	228.2
292.075	251.61
292.534	300.76
292.992	286.72
293.451	253.95
293.91	260.97
294.368	296.08
294.827	275.01
295.285	328.85
295.743	246.93
296.202	272.67
296.66	291.4
297.118	321.82
297.576	289.06
298.034	335.87
298.492	303.1
298.95	279.69
299.408	335.87
299.866	277.35
300.324	366.29
300.781	289.06
301.239	324.16
301.697	258.63
302.154	310.12
302.612	335.87
303.069	324.16
303.527	352.25
303.984	296.08
304.441	256.29
304.899	244.59
305.356	258.63
305.813	277.35
306.27	263.31
306.727	321.82
307.184	293.74
307.641	305.44
308.098	267.99
308.555	293.74
309.012	312.46
309.468	237.56
309.925	267.99
310.382	249.27
310.838	303.1
311.295	340.55
311.751	279.69
312.208	230.54
312.664	310.12
313.12	303.1
313.577	326.5
314.033	272.67
314.489	305.44
314.945	270.33
315.401	303.1
315.857	305.44
316.313	284.38
316.769	296.08
317.225	342.89
317.681	326.5
318.136	249.27
318.592	303.1
319.048	361.61
319.503	258.63
319.959	296.08
320.414	239.9
320.869	321.82
321.325	249.27
321.78	300.76
322.235	296.08
322.691	300.76
323.146	279.69
323.601	310.12
324.056	331.19
324.511	239.9
324.966	303.1
325.421	282.03
325.875	228.2
326.33	335.87
326.785	286.72
327.24	303.1
327.694	279.69
328.149	228.2
328.603	314.8
329.058	300.76
329.512	293.74
329.966	352.25
330.421	387.36
330.875	342.89
331.329	368.63
331.783	345.23
332.237	314.8
332.691	289.06
333.145	296.08
333.599	260.97
334.053	319.48
334.507	300.76
334.96	263.31
335.414	272.67
335.868	314.8
336.321	354.59
336.775	260.97
337.228	275.01
337.682	303.1
338.135	333.53
338.588	258.63
339.042	267.99
339.495	256.29
339.948	275.01
340.401	253.95
340.854	296.08
341.307	333.53
341.76	354.59
342.213	228.2
342.666	242.25
343.119	328.85
343.571	310.12
344.024	267.99
344.477	270.33
344.929	277.35
345.382	265.65
345.834	289.06
346.287	277.35
346.739	258.63
347.191	314.8
347.644	307.78
348.096	291.4
348.548	324.16
349	314.8
349.452	286.72
349.904	352.25
350.356	326.5
350.808	305.44
351.26	267.99
351.711	333.53
352.163	314.8
352.615	263.31
353.066	296.08
353.518	291.4
353.969	272.67
354.421	352.25
354.872	373.32
355.324	342.89
355.775	312.46
356.226	312.46
356.677	249.27
357.128	319.48
357.579	291.4
358.03	326.5
358.481	293.74
358.932	244.59
359.383	326.5
359.834	349.91
360.285	244.59
360.735	368.63
361.186	275.01
361.637	319.48
362.087	246.93
362.538	270.33
362.988	284.38
363.438	298.42
363.889	284.38
364.339	312.46
364.789	296.08
365.239	317.14
365.689	296.08
366.139	289.06
366.589	284.38
367.039	319.48
367.489	319.48
367.939	253.95
368.389	300.76
368.839	303.1
369.288	331.19
369.738	246.93
370.187	246.93
370.637	307.78
371.086	275.01
371.536	349.91
371.985	312.46
372.434	298.42
372.884	328.85
373.333	251.61
373.782	242.25
374.231	256.29
374.68	319.48
375.129	326.5
375.578	258.63
376.027	310.12
376.475	298.42
376.924	289.06
377.373	399.06
377.822	253.95
378.27	293.74
378.719	253.95
379.167	310.12
379.616	282.03
380.064	275.01
380.512	363.95
380.961	265.65
381.409	303.1
381.857	251.61
382.305	326.5
382.753	347.57
383.201	298.42
383.649	331.19
384.097	338.21
384.545	286.72
384.992	340.55
385.44	380.34
385.888	237.56
386.335	293.74
386.783	319.48
387.231	354.59
387.678	296.08
388.125	279.69
388.573	307.78
389.02	312.46
389.467	328.85
389.914	310.12
390.362	277.35
390.809	310.12
391.256	284.38
391.703	312.46
392.15	298.42
392.596	291.4
393.043	303.1
393.49	270.33
393.937	312.46
394.383	319.48
394.83	321.82
395.276	345.23
395.723	342.89
396.169	265.65
396.616	270.33
397.062	317.14
397.508	370.97
397.954	267.99
398.401	303.1
398.847	277.35
399.293	305.44
399.739	352.25
400.185	305.44
400.631	321.82
401.076	310.12
401.522	296.08
401.968	342.89
402.414	319.48
402.859	312.46
403.305	312.46
403.75	300.76
404.196	253.95
404.641	289.06
405.086	232.88
405.532	242.25
405.977	293.74
406.422	256.29
406.867	244.59
407.312	324.16
407.757	272.67
408.202	279.69
408.647	359.27
409.092	246.93
409.537	314.8
409.982	284.38
410.426	296.08
410.871	298.42
411.316	340.55
411.76	314.8
412.205	378
412.649	324.16
413.093	314.8
413.538	293.74
413.982	310.12
414.426	307.78
414.87	277.35
415.314	267.99
415.758	298.42
416.202	307.78
416.646	286.72
417.09	314.8
417.534	319.48
417.978	305.44
418.421	286.72
418.865	272.67
419.309	347.57
419.752	275.01
420.196	286.72
420.639	291.4
421.083	303.1
421.526	256.29
421.969	289.06
422.412	296.08
422.856	293.74
423.299	321.82
423.742	335.87
424.185	328.85
424.628	324.16
425.071	335.87
425.513	321.82
425.956	253.95
426.399	368.63
426.842	328.85
427.284	239.9
427.727	331.19
428.169	303.1
428.612	312.46
429.054	317.14
429.497	277.35
429.939	232.88
430.381	368.63
430.823	293.74
431.265	296.08
431.707	314.8
432.149	333.53
432.591	340.55
433.033	335.87
433.475	347.57
433.917	338.21
434.359	286.72
434.8	359.27
435.242	328.85
435.684	270.33
436.125	298.42
436.567	282.03
437.008	298.42
437.449	312.46
437.891	310.12
438.332	333.53
438.773	335.87
439.214	370.97
439.656	260.97
440.097	307.78
440.538	333.53
440.978	338.21
441.419	305.44
441.86	305.44
442.301	286.72
442.742	282.03
443.182	298.42
443.623	319.48
444.063	319.48
444.504	282.03
444.944	293.74
445.385	319.48
445.825	307.78
446.265	256.29
446.706	312.46
447.146	279.69
447.586	321.82
448.026	319.48
448.466	307.78
448.906	289.06
449.346	347.57
449.786	321.82
450.225	284.38
450.665	277.35
451.105	291.4
451.544	349.91
451.984	289.06
452.424	345.23
452.863	319.48
453.302	307.78
453.742	312.46
454.181	352.25
454.62	310.12
455.059	331.19
455.499	333.53
455.938	359.27
456.377	310.12
456.816	340.55
457.254	321.82
457.693	300.76
458.132	331.19
458.571	307.78
459.01	293.74
459.448	251.61
459.887	251.61
460.325	298.42
460.764	328.85
461.202	293.74
461.641	319.48
462.079	389.7
462.517	291.4
462.955	312.46
463.393	298.42
463.832	326.5
464.27	267.99
464.708	303.1
465.145	256.29
465.583	319.48
466.021	282.03
466.459	296.08
466.897	378
467.334	246.93
467.772	284.38
468.209	363.95
468.647	282.03
469.084	307.78
469.522	293.74
469.959	260.97
470.396	314.8
470.833	279.69
471.271	324.16
471.708	326.5
472.145	300.76
472.582	319.48
473.019	282.03
473.456	296.08
473.892	314.8
474.329	223.52
474.766	279.69
475.202	326.5
475.639	300.76
476.076	314.8
476.512	263.31
476.949	310.12
477.385	277.35
477.821	307.78
478.258	319.48
478.694	326.5
479.13	363.95
479.566	258.63
480.002	291.4
480.438	335.87
480.874	319.48
481.31	319.48
481.746	277.35
482.181	335.87
482.617	305.44
483.053	279.69
483.488	270.33
483.924	258.63
484.36	319.48
484.795	272.67
485.23	314.8
485.666	300.76
486.101	333.53
486.536	349.91
486.971	237.56
487.407	324.16
487.842	246.93
488.277	356.93
488.712	349.91
489.146	317.14
489.581	286.72
490.016	312.46
490.451	326.5
490.885	303.1
491.32	338.21
491.755	183.73
492.189	335.87
492.624	319.48
493.058	340.55
493.492	321.82
493.927	296.08
494.361	286.72
494.795	284.38
495.229	293.74
495.663	307.78
496.097	361.61
496.531	328.85
496.965	312.46
497.399	321.82
497.833	282.03
498.266	296.08
498.7	326.5
499.134	307.78
499.567	237.56
500.001	237.56
500.434	286.72
500.868	338.21
501.301	263.31
501.734	289.06
502.168	303.1
502.601	352.25
503.034	298.42
503.467	279.69
503.9	333.53
504.333	284.38
504.766	277.35
505.199	319.48
505.632	333.53
506.064	319.48
506.497	317.14
506.93	286.72
507.362	312.46
507.795	314.8
508.227	279.69
508.66	314.8
509.092	277.35
509.524	335.87
509.956	263.31
510.389	328.85
510.821	272.67
511.253	319.48
511.685	385.02
512.117	326.5
512.549	312.46
512.981	298.42
513.412	312.46
513.844	298.42
514.276	347.57
514.707	317.14
515.139	352.25
515.571	242.25
516.002	277.35
516.433	321.82
516.865	394.38
517.296	291.4
517.727	319.48
518.159	286.72
518.59	293.74
519.021	303.1
519.452	260.97
519.883	317.14
520.314	352.25
520.744	331.19
521.175	303.1
521.606	267.99
522.037	375.66
522.467	324.16
522.898	298.42
523.328	326.5
523.759	296.08
524.189	298.42
524.62	310.12
525.05	296.08
525.48	310.12
525.91	239.9
526.341	342.89
526.771	345.23
527.201	319.48
527.631	326.5
528.061	291.4
528.49	310.12
528.92	366.29
529.35	335.87
529.78	286.72
530.209	335.87
530.639	260.97
531.068	256.29
531.498	225.86
531.927	267.99
532.357	253.95
532.786	258.63
533.215	237.56
533.644	237.56
534.074	277.35
534.503	303.1
534.932	342.89
535.361	307.78
535.79	349.91
536.218	305.44
536.647	345.23
537.076	356.93
537.505	305.44
537.933	312.46
538.362	324.16
538.79	314.8
539.219	260.97
539.647	342.89
540.076	303.1
540.504	333.53
540.932	296.08
541.36	328.85
541.788	328.85
542.217	326.5
542.645	296.08
543.073	253.95
543.5	340.55
543.928	275.01
544.356	305.44
544.784	300.76
545.211	228.2
545.639	331.19
546.067	331.19
546.494	291.4
546.922	387.36
547.349	345.23
547.776	289.06
548.204	321.82
548.631	307.78
549.058	284.38
549.485	333.53
549.912	347.57
550.339	331.19
550.766	263.31
551.193	335.87
551.62	356.93
552.047	317.14
552.474	321.82
552.9	307.78
553.327	352.25
553.754	335.87
554.18	291.4
554.607	321.82
555.033	352.25
555.459	356.93
555.886	319.48
556.312	349.91
556.738	307.78
557.164	249.27
557.59	378
558.016	303.1
558.442	307.78
558.868	211.82
559.294	342.89
559.72	256.29
560.145	298.42
560.571	333.53
560.997	328.85
561.422	296.08
561.848	279.69
562.273	296.08
562.699	225.86
563.124	307.78
563.549	342.89
563.974	314.8
564.4	300.76
564.825	256.29
565.25	310.12
565.675	305.44
566.1	380.34
566.525	307.78
566.95	321.82
567.374	335.87
567.799	356.93
568.224	361.61
568.648	296.08
569.073	345.23
569.497	328.85
569.922	331.19
570.346	328.85
570.771	300.76
571.195	263.31
571.619	335.87
572.043	363.95
572.467	303.1
572.891	237.56
573.315	307.78
573.739	389.7
574.163	286.72
574.587	289.06
575.011	298.42
575.435	286.72
575.858	324.16
576.282	277.35
576.705	328.85
577.129	333.53
577.552	342.89
577.976	291.4
578.399	277.35
578.822	289.06
579.245	342.89
579.669	267.99
580.092	340.55
580.515	282.03
580.938	286.72
581.361	286.72
581.784	244.59
582.206	307.78
582.629	321.82
583.052	258.63
583.474	258.63
583.897	275.01
584.32	272.67
584.742	284.38
585.165	282.03
585.587	291.4
586.009	317.14
586.431	293.74
586.854	331.19
587.276	256.29
587.698	321.82
588.12	319.48
588.542	298.42
588.964	312.46
589.386	382.68
589.807	345.23
590.229	284.38
590.651	277.35
591.073	331.19
591.494	319.48
591.916	305.44
592.337	307.78
592.759	347.57
593.18	321.82
593.601	279.69
594.022	305.44
594.444	300.76
594.865	303.1
595.286	335.87
595.707	310.12
596.128	291.4
596.549	307.78
596.97	284.38
597.39	244.59
597.811	279.69
598.232	368.63
598.652	258.63
599.073	331.19
599.494	275.01
599.914	338.21
600.334	298.42
600.755	272.67
601.175	321.82
601.595	242.25
602.015	303.1
602.436	305.44
602.856	406.08
603.276	363.95
603.696	310.12
604.115	345.23
604.535	282.03
604.955	321.82
605.375	328.85
605.794	312.46
606.214	366.29
606.634	340.55
607.053	275.01
607.473	312.46
607.892	354.59
608.311	317.14
608.731	331.19
609.15	326.5
609.569	354.59
609.988	319.48
610.407	310.12
610.826	340.55
611.245	282.03
611.664	296.08
612.083	326.5
612.501	270.33
612.92	354.59
613.339	289.06
613.757	296.08
614.176	328.85
614.594	380.34
615.013	328.85
615.431	300.76
615.85	300.76
616.268	293.74
616.686	282.03
617.104	354.59
617.522	307.78
617.94	265.65
618.358	303.1
618.776	312.46
619.194	338.21
619.612	342.89
620.03	260.97
620.447	284.38
620.865	307.78
621.282	382.68
621.7	305.44
622.117	272.67
622.535	284.38
622.952	338.21
623.369	296.08
623.787	319.48
624.204	335.87
624.621	321.82
625.038	307.78
625.455	375.66
625.872	331.19
626.289	239.9
626.706	270.33
627.123	310.12
627.539	335.87
627.956	317.14
628.373	216.5
628.789	305.44
629.206	279.69
629.622	328.85
630.038	282.03
630.455	293.74
630.871	296.08
631.287	267.99
631.703	279.69
632.12	260.97
632.536	307.78
632.952	310.12
633.368	286.72
633.783	314.8
634.199	286.72
634.615	305.44
635.031	303.1
635.446	310.12
635.862	324.16
636.277	375.66
636.693	338.21
637.108	349.91
637.524	340.55
637.939	300.76
638.354	293.74
638.77	312.46
639.185	298.42
639.6	317.14
640.015	335.87
640.43	317.14
640.845	345.23
641.259	282.03
641.674	253.95
642.089	239.9
642.504	328.85
642.918	291.4
643.333	307.78
643.747	256.29
644.162	324.16
644.576	289.06
644.991	275.01
645.405	328.85
645.819	368.63
646.233	314.8
646.647	244.59
647.061	331.19
647.475	312.46
647.889	303.1
648.303	352.25
648.717	335.87
649.131	335.87
649.545	284.38
649.958	293.74
650.372	314.8
650.785	314.8
651.199	282.03
651.612	275.01
652.026	256.29
652.439	282.03
652.852	356.93
653.266	242.25
653.679	331.19
654.092	331.19
654.505	317.14
654.918	298.42
655.331	296.08
655.744	265.65
656.156	293.74
656.569	305.44
656.982	310.12
657.394	333.53
657.807	326.5
658.22	298.42
658.632	361.61
659.044	307.78
659.457	235.22
659.869	352.25
660.281	319.48
660.693	221.18
661.106	296.08
661.518	284.38
661.93	282.03
662.342	326.5
662.754	272.67
663.165	328.85
663.577	331.19
663.989	354.59
664.401	305.44
664.812	307.78
665.224	251.61
665.635	293.74
666.047	253.95
666.458	296.08
666.869	300.76
667.281	258.63
667.692	349.91
668.103	293.74
668.514	277.35
668.925	321.82
669.336	352.25
669.747	307.78
670.158	246.93
670.569	310.12
670.979	298.42
671.39	272.67
671.801	328.85
672.211	312.46
672.622	307.78
673.032	305.44
673.443	335.87
673.853	326.5
674.263	331.19
674.674	305.44
675.084	286.72
675.494	282.03
675.904	356.93
676.314	345.23
676.724	314.8
677.134	300.76
677.544	293.74
677.953	284.38
678.363	277.35
678.773	300.76
679.182	340.55
679.592	270.33
680.001	256.29
680.411	356.93
680.82	349.91
681.23	223.52
681.639	296.08
682.048	260.97
682.457	317.14
682.866	321.82
683.275	277.35
683.684	310.12
684.093	272.67
684.502	356.93
684.911	251.61
685.32	300.76
685.728	326.5
686.137	349.91
686.546	363.95
686.954	333.53
687.363	270.33
687.771	356.93
688.179	359.27
688.588	347.57
688.996	272.67
689.404	272.67
689.812	335.87
690.22	289.06
690.628	307.78
691.036	326.5
691.444	359.27
691.852	333.53
692.26	319.48
692.667	352.25
693.075	282.03
693.483	326.5
693.89	314.8
694.298	293.74
694.705	258.63
695.112	345.23
695.52	305.44
695.927	328.85
696.334	317.14
696.741	258.63
697.148	296.08
697.555	333.53
697.962	256.29
698.369	347.57
698.776	314.8
699.183	286.72
699.59	258.63
699.996	312.46
700.403	289.06
700.81	291.4
701.216	286.72
701.623	305.44
702.029	279.69
702.435	230.54
702.842	312.46
703.248	225.86
703.654	291.4
704.06	347.57
704.466	380.34
704.872	335.87
705.278	284.38
705.684	331.19
706.09	242.25
706.496	253.95
706.901	342.89
707.307	317.14
707.712	321.82
708.118	342.89
708.523	354.59
708.929	324.16
709.334	282.03
709.74	317.14
710.145	249.27
710.55	263.31
710.955	352.25
711.36	293.74
711.765	277.35
712.17	333.53
712.575	270.33
712.98	825.04
713.385	345.23
713.789	239.9
714.194	282.03
714.599	314.8
715.003	349.91
715.408	328.85
715.812	305.44
716.217	303.1
716.621	338.21
717.025	293.74
717.429	303.1
717.833	296.08
718.238	317.14
718.642	349.91
719.046	340.55
719.449	340.55
719.853	319.48
720.257	305.44
720.661	345.23
721.065	265.65
721.468	326.5
721.872	279.69
722.275	319.48
722.679	282.03
723.082	303.1
723.485	263.31
723.889	305.44
724.292	284.38
724.695	284.38
725.098	284.38
725.501	387.36
725.904	352.25
726.307	293.74
726.71	317.14
727.113	307.78
727.516	359.27
727.918	258.63
728.321	326.5
728.724	310.12
729.126	305.44
729.529	317.14
729.931	328.85
730.333	338.21
730.736	284.38
731.138	272.67
731.54	333.53
731.942	298.42
732.344	284.38
732.746	326.5
733.148	349.91
733.55	338.21
733.952	333.53
734.354	284.38
734.756	296.08
735.157	284.38
735.559	242.25
735.96	253.95
736.362	293.74
736.763	253.95
737.165	265.65
737.566	282.03
737.967	293.74
738.368	293.74
738.77	237.56
739.171	251.61
739.572	242.25
739.973	340.55
740.374	307.78
740.774	326.5
741.175	282.03
741.576	310.12
741.977	270.33
742.377	300.76
742.778	338.21
743.178	284.38
743.579	279.69
743.979	314.8
744.379	317.14
744.78	289.06
745.18	303.1
745.58	314.8
745.98	263.31
746.38	300.76
746.78	291.4
747.18	349.91
747.58	338.21
747.98	298.42
748.38	298.42
748.779	387.36
749.179	284.38
749.578	321.82
749.978	319.48
750.377	324.16
750.777	275.01
751.176	293.74
751.575	406.08
751.975	251.61
752.374	314.8
752.773	232.88
753.172	317.14
753.571	228.2
753.97	370.97
754.369	338.21
754.768	324.16
755.166	347.57
755.565	232.88
755.964	338.21
756.362	293.74
756.761	314.8
757.159	242.25
757.558	300.76
757.956	317.14
758.354	298.42
758.753	291.4
759.151	258.63
759.549	275.01
759.947	319.48
760.345	296.08
760.743	298.42
761.141	305.44
761.539	298.42
761.936	321.82
762.334	305.44
762.732	300.76
763.129	286.72
763.527	333.53
763.924	307.78
764.322	286.72
764.719	260.97
765.117	356.93
765.514	319.48
765.911	370.97
