Data from Al_FLMS009871__1227__16-44-32-575.txt Node

Date: Fri Mar 08 16:44:32 CST 2024
User: pe5414po
Spectrometer: FLMS00987
Trigger mode: 0
Integration Time (sec): 1.000000E-1
Scans to average: 1
Electric dark correction enabled: true
Nonlinearity correction enabled: false
Boxcar width: 0
XAxis mode: Wavelengths
Number of Pixels in Spectrum: 2048
>>>>>Begin Spectral Data<<<<<
188.938	-59.24
189.409	-59.24
189.879	-59.24
190.349	-94.35
190.819	-150.53
191.29	-82.65
191.76	-145.84
192.23	-131.8
192.7	-103.71
193.17	13.31
193.64	-19.46
194.109	6.29
194.579	3.95
195.049	-19.46
195.519	-31.16
195.988	32.04
196.458	10.97
196.927	62.46
197.397	135.02
197.866	109.27
198.336	160.77
198.805	172.47
199.274	188.85
199.744	193.53
200.213	137.36
200.682	167.79
201.151	221.62
201.62	219.28
202.089	301.2
202.558	305.88
203.027	266.09
203.495	287.15
203.964	287.15
204.433	261.41
204.902	249.71
205.37	277.79
205.839	296.52
206.307	287.15
206.776	266.09
207.244	315.24
207.712	296.52
208.181	301.2
208.649	366.73
209.117	259.07
209.585	319.92
210.053	282.47
210.521	275.45
210.989	340.99
211.457	315.24
211.925	284.81
212.393	294.18
212.861	268.43
213.328	230.98
213.796	263.75
214.264	268.43
214.731	226.3
215.199	230.98
215.666	268.43
216.133	214.6
216.601	277.79
217.068	256.73
217.535	230.98
218.003	277.79
218.47	233.32
218.937	291.84
219.404	221.62
219.871	240.34
220.338	277.79
220.805	247.37
221.271	308.22
221.738	263.75
222.205	315.24
222.671	249.71
223.138	240.34
223.605	275.45
224.071	261.41
224.538	221.62
225.004	254.39
225.47	245.02
225.937	268.43
226.403	284.81
226.869	296.52
227.335	284.81
227.801	233.32
228.267	315.24
228.733	245.02
229.199	235.66
229.665	268.43
230.131	364.39
230.597	263.75
231.062	200.55
231.528	308.22
231.994	273.11
232.459	275.45
232.925	270.77
233.39	226.3
233.856	191.19
234.321	289.5
234.786	268.43
235.252	261.41
235.717	322.26
236.182	268.43
236.647	270.77
237.112	301.2
237.577	322.26
238.042	301.2
238.507	230.98
238.972	261.41
239.436	294.18
239.901	240.34
240.366	200.55
240.83	230.98
241.295	247.37
241.76	259.07
242.224	240.34
242.688	277.79
243.153	305.88
243.617	249.71
244.081	277.79
244.545	221.62
245.01	319.92
245.474	291.84
245.938	319.92
246.402	296.52
246.866	230.98
247.33	298.86
247.793	238
248.257	284.81
248.721	291.84
249.185	245.02
249.648	270.77
250.112	230.98
250.575	301.2
251.039	303.54
251.502	191.19
251.965	284.81
252.429	277.79
252.892	303.54
253.355	333.97
253.818	221.62
254.281	221.62
254.744	240.34
255.207	263.75
255.67	207.58
256.133	245.02
256.596	301.2
257.059	310.56
257.522	294.18
257.984	200.55
258.447	340.99
258.909	340.99
259.372	298.86
259.834	291.84
260.297	310.56
260.759	268.43
261.221	235.66
261.684	256.73
262.146	298.86
262.608	228.64
263.07	277.79
263.532	284.81
263.994	343.33
264.456	228.64
264.918	343.33
265.38	291.84
265.842	310.56
266.303	273.11
266.765	268.43
267.227	296.52
267.688	326.94
268.15	298.86
268.611	261.41
269.072	287.15
269.534	226.3
269.995	270.77
270.456	317.58
270.918	355.03
271.379	268.43
271.84	280.13
272.301	298.86
272.762	261.41
273.223	294.18
273.684	235.66
274.144	294.18
274.605	266.09
275.066	284.81
275.527	273.11
275.987	289.5
276.448	282.47
276.908	301.2
277.369	319.92
277.829	284.81
278.289	289.5
278.75	336.31
279.21	308.22
279.67	303.54
280.13	277.79
280.59	289.5
281.05	331.62
281.51	270.77
281.97	305.88
282.43	315.24
282.89	280.13
283.35	348.01
283.809	247.37
284.269	348.01
284.729	315.24
285.188	289.5
285.648	270.77
286.107	301.2
286.567	252.05
287.026	268.43
287.485	266.09
287.944	252.05
288.404	322.26
288.863	228.64
289.322	254.39
289.781	282.47
290.24	252.05
290.699	268.43
291.158	305.88
291.616	308.22
292.075	298.86
292.534	284.81
292.992	277.79
293.451	301.2
293.91	312.9
294.368	312.9
294.827	273.11
295.285	301.2
295.743	303.54
296.202	254.39
296.66	277.79
297.118	270.77
297.576	261.41
298.034	287.15
298.492	256.73
298.95	315.24
299.408	303.54
299.866	280.13
300.324	329.28
300.781	329.28
301.239	310.56
301.697	315.24
302.154	373.75
302.612	275.45
303.069	242.68
303.527	275.45
303.984	230.98
304.441	256.73
304.899	324.6
305.356	252.05
305.813	371.41
306.27	352.69
306.727	263.75
307.184	291.84
307.641	284.81
308.098	305.88
308.555	273.11
309.012	326.94
309.468	284.81
309.925	273.11
310.382	338.65
310.838	261.41
311.295	294.18
311.751	291.84
312.208	266.09
312.664	326.94
313.12	252.05
313.577	319.92
314.033	303.54
314.489	282.47
314.945	247.37
315.401	308.22
315.857	312.9
316.313	296.52
316.769	275.45
317.225	329.28
317.681	247.37
318.136	301.2
318.592	305.88
319.048	319.92
319.503	219.28
319.959	296.52
320.414	266.09
320.869	282.47
321.325	261.41
321.78	277.79
322.235	310.56
322.691	235.66
323.146	350.35
323.601	336.31
324.056	310.56
324.511	322.26
324.966	308.22
325.421	357.37
325.875	223.96
326.33	350.35
326.785	329.28
327.24	326.94
327.694	284.81
328.149	261.41
328.603	254.39
329.058	326.94
329.512	373.75
329.966	296.52
330.421	270.77
330.875	326.94
331.329	261.41
331.783	294.18
332.237	259.07
332.691	303.54
333.145	294.18
333.599	275.45
334.053	399.5
334.507	268.43
334.96	324.6
335.414	277.79
335.868	291.84
336.321	310.56
336.775	287.15
337.228	315.24
337.682	352.69
338.135	303.54
338.588	294.18
339.042	329.28
339.495	371.41
339.948	273.11
340.401	287.15
340.854	277.79
341.307	298.86
341.76	273.11
342.213	317.58
342.666	319.92
343.119	277.79
343.571	350.35
344.024	284.81
344.477	331.62
344.929	322.26
345.382	268.43
345.834	310.56
346.287	310.56
346.739	333.97
347.191	319.92
347.644	291.84
348.096	284.81
348.548	256.73
349	301.2
349.452	266.09
349.904	261.41
350.356	245.02
350.808	296.52
351.26	294.18
351.711	329.28
352.163	355.03
352.615	284.81
353.066	338.65
353.518	273.11
353.969	270.77
354.421	266.09
354.872	333.97
355.324	266.09
355.775	345.67
356.226	392.48
356.677	249.71
357.128	333.97
357.579	296.52
358.03	228.64
358.481	355.03
358.932	287.15
359.383	324.6
359.834	310.56
360.285	249.71
360.735	294.18
361.186	291.84
361.637	277.79
362.087	298.86
362.538	277.79
362.988	296.52
363.438	350.35
363.889	245.02
364.339	280.13
364.789	301.2
365.239	254.39
365.689	301.2
366.139	298.86
366.589	294.18
367.039	308.22
367.489	252.05
367.939	340.99
368.389	355.03
368.839	315.24
369.288	340.99
369.738	312.9
370.187	333.97
370.637	312.9
371.086	305.88
371.536	277.79
371.985	301.2
372.434	338.65
372.884	362.05
373.333	319.92
373.782	348.01
374.231	336.31
374.68	326.94
375.129	296.52
375.578	303.54
376.027	284.81
376.475	373.75
376.924	312.9
377.373	277.79
377.822	305.88
378.27	296.52
378.719	270.77
379.167	324.6
379.616	319.92
380.064	324.6
380.512	305.88
380.961	322.26
381.409	240.34
381.857	308.22
382.305	310.56
382.753	268.43
383.201	324.6
383.649	324.6
384.097	317.58
384.545	238
384.992	319.92
385.44	376.09
385.888	357.37
386.335	298.86
386.783	277.79
387.231	359.71
387.678	289.5
388.125	312.9
388.573	280.13
389.02	287.15
389.467	301.2
389.914	308.22
390.362	277.79
390.809	289.5
391.256	352.69
391.703	317.58
392.15	336.31
392.596	230.98
393.043	308.22
393.49	338.65
393.937	336.31
394.383	294.18
394.83	245.02
395.276	312.9
395.723	270.77
396.169	369.07
396.616	254.39
397.062	364.39
397.508	277.79
397.954	340.99
398.401	273.11
398.847	308.22
399.293	336.31
399.739	315.24
400.185	305.88
400.631	331.62
401.076	289.5
401.522	270.77
401.968	333.97
402.414	296.52
402.859	343.33
403.305	331.62
403.75	252.05
404.196	263.75
404.641	296.52
405.086	273.11
405.532	310.56
405.977	364.39
406.422	289.5
406.867	315.24
407.312	247.37
407.757	326.94
408.202	322.26
408.647	298.86
409.092	235.66
409.537	348.01
409.982	317.58
410.426	226.3
410.871	298.86
411.316	214.6
411.76	312.9
412.205	336.31
412.649	252.05
413.093	312.9
413.538	326.94
413.982	357.37
414.426	322.26
414.87	275.45
415.314	352.69
415.758	280.13
416.202	359.71
416.646	319.92
417.09	301.2
417.534	296.52
417.978	284.81
418.421	329.28
418.865	350.35
419.309	345.67
419.752	333.97
420.196	324.6
420.639	256.73
421.083	305.88
421.526	289.5
421.969	249.71
422.412	324.6
422.856	352.69
423.299	305.88
423.742	312.9
424.185	315.24
424.628	329.28
425.071	310.56
425.513	319.92
425.956	333.97
426.399	301.2
426.842	209.92
427.284	294.18
427.727	298.86
428.169	277.79
428.612	303.54
429.054	319.92
429.497	394.82
429.939	284.81
430.381	301.2
430.823	362.05
431.265	289.5
431.707	275.45
432.149	343.33
432.591	317.58
433.033	305.88
433.475	256.73
433.917	352.69
434.359	329.28
434.8	289.5
435.242	301.2
435.684	310.56
436.125	324.6
436.567	298.86
437.008	284.81
437.449	340.99
437.891	350.35
438.332	352.69
438.773	312.9
439.214	291.84
439.656	230.98
440.097	371.41
440.538	357.37
440.978	319.92
441.419	336.31
441.86	333.97
442.301	343.33
442.742	303.54
443.182	350.35
443.623	355.03
444.063	348.01
444.504	282.47
444.944	282.47
445.385	287.15
445.825	261.41
446.265	284.81
446.706	373.75
447.146	303.54
447.586	301.2
448.026	312.9
448.466	324.6
448.906	373.75
449.346	315.24
449.786	350.35
450.225	249.71
450.665	282.47
451.105	317.58
451.544	282.47
451.984	282.47
452.424	329.28
452.863	275.45
453.302	345.67
453.742	326.94
454.181	289.5
454.62	331.62
455.059	366.73
455.499	303.54
455.938	326.94
456.377	336.31
456.816	273.11
457.254	336.31
457.693	310.56
458.132	322.26
458.571	369.07
459.01	331.62
459.448	284.81
459.887	280.13
460.325	282.47
460.764	291.84
461.202	282.47
461.641	324.6
462.079	369.07
462.517	345.67
462.955	322.26
463.393	322.26
463.832	329.28
464.27	310.56
464.708	303.54
465.145	329.28
465.583	301.2
466.021	369.07
466.459	336.31
466.897	315.24
467.334	387.8
467.772	345.67
468.209	413.54
468.647	317.58
469.084	371.41
469.522	338.65
469.959	336.31
470.396	345.67
470.833	359.71
471.271	348.01
471.708	298.86
472.145	312.9
472.582	350.35
473.019	259.07
473.456	294.18
473.892	289.5
474.329	296.52
474.766	324.6
475.202	268.43
475.639	296.52
476.076	228.64
476.512	301.2
476.949	296.52
477.385	352.69
477.821	310.56
478.258	376.09
478.694	317.58
479.13	287.15
479.566	315.24
480.002	345.67
480.438	326.94
480.874	322.26
481.31	277.79
481.746	333.97
482.181	289.5
482.617	252.05
483.053	333.97
483.488	282.47
483.924	324.6
484.36	275.45
484.795	373.75
485.23	277.79
485.666	303.54
486.101	291.84
486.536	305.88
486.971	312.9
487.407	333.97
487.842	282.47
488.277	252.05
488.712	291.84
489.146	291.84
489.581	324.6
490.016	280.13
490.451	312.9
490.885	280.13
491.32	364.39
491.755	310.56
492.189	308.22
492.624	277.79
493.058	256.73
493.492	317.58
493.927	322.26
494.361	209.92
494.795	259.07
495.229	371.41
495.663	340.99
496.097	324.6
496.531	287.15
496.965	319.92
497.399	301.2
497.833	357.37
498.266	319.92
498.7	305.88
499.134	261.41
499.567	331.62
500.001	289.5
500.434	364.39
500.868	287.15
501.301	317.58
501.734	287.15
502.168	326.94
502.601	308.22
503.034	315.24
503.467	322.26
503.9	324.6
504.333	326.94
504.766	331.62
505.199	296.52
505.632	362.05
506.064	315.24
506.497	289.5
506.93	282.47
507.362	301.2
507.795	352.69
508.227	273.11
508.66	294.18
509.092	326.94
509.524	355.03
509.956	343.33
510.389	256.73
510.821	296.52
511.253	336.31
511.685	392.48
512.117	305.88
512.549	287.15
512.981	273.11
513.412	289.5
513.844	298.86
514.276	315.24
514.707	259.07
515.139	308.22
515.571	331.62
516.002	317.58
516.433	357.37
516.865	329.28
517.296	355.03
517.727	352.69
518.159	261.41
518.59	383.12
519.021	284.81
519.452	303.54
519.883	348.01
520.314	280.13
520.744	280.13
521.175	254.39
521.606	277.79
522.037	326.94
522.467	284.81
522.898	298.86
523.328	280.13
523.759	366.73
524.189	252.05
524.62	362.05
525.05	312.9
525.48	326.94
525.91	303.54
526.341	280.13
526.771	324.6
527.201	338.65
527.631	331.62
528.061	277.79
528.49	331.62
528.92	329.28
529.35	303.54
529.78	301.2
530.209	310.56
530.639	305.88
531.068	355.03
531.498	343.33
531.927	336.31
532.357	336.31
532.786	287.15
533.215	280.13
533.644	333.97
534.074	345.67
534.503	326.94
534.932	259.07
535.361	322.26
535.79	301.2
536.218	298.86
536.647	345.67
537.076	291.84
537.505	333.97
537.933	289.5
538.362	252.05
538.79	331.62
539.219	317.58
539.647	305.88
540.076	275.45
540.504	266.09
540.932	310.56
541.36	261.41
541.788	277.79
542.217	315.24
542.645	315.24
543.073	317.58
543.5	336.31
543.928	296.52
544.356	333.97
544.784	301.2
545.211	294.18
545.639	280.13
546.067	263.75
546.494	352.69
546.922	261.41
547.349	287.15
547.776	256.73
548.204	312.9
548.631	324.6
549.058	289.5
549.485	371.41
549.912	245.02
550.339	366.73
550.766	273.11
551.193	378.44
551.62	329.28
552.047	308.22
552.474	270.77
552.9	355.03
553.327	315.24
553.754	345.67
554.18	294.18
554.607	322.26
555.033	317.58
555.459	362.05
555.886	275.45
556.312	287.15
556.738	310.56
557.164	340.99
557.59	291.84
558.016	343.33
558.442	310.56
558.868	294.18
559.294	329.28
559.72	340.99
560.145	282.47
560.571	308.22
560.997	324.6
561.422	284.81
561.848	263.75
562.273	340.99
562.699	317.58
563.124	277.79
563.549	263.75
563.974	294.18
564.4	315.24
564.825	294.18
565.25	296.52
565.675	308.22
566.1	310.56
566.525	305.88
566.95	263.75
567.374	348.01
567.799	317.58
568.224	326.94
568.648	245.02
569.073	355.03
569.497	345.67
569.922	350.35
570.346	322.26
570.771	326.94
571.195	303.54
571.619	284.81
572.043	329.28
572.467	329.28
572.891	336.31
573.315	329.28
573.739	287.15
574.163	308.22
574.587	303.54
575.011	280.13
575.435	298.86
575.858	315.24
576.282	294.18
576.705	296.52
577.129	317.58
577.552	331.62
577.976	287.15
578.399	315.24
578.822	277.79
579.245	242.68
579.669	263.75
580.092	315.24
580.515	324.6
580.938	230.98
581.361	350.35
581.784	308.22
582.206	348.01
582.629	362.05
583.052	291.84
583.474	277.79
583.897	317.58
584.32	355.03
584.742	277.79
585.165	312.9
585.587	282.47
586.009	308.22
586.431	308.22
586.854	296.52
587.276	277.79
587.698	298.86
588.12	284.81
588.542	364.39
588.964	329.28
589.386	333.97
589.807	317.58
590.229	319.92
590.651	350.35
591.073	298.86
591.494	357.37
591.916	312.9
592.337	294.18
592.759	329.28
593.18	298.86
593.601	322.26
594.022	371.41
594.444	273.11
594.865	350.35
595.286	270.77
595.707	282.47
596.128	273.11
596.549	364.39
596.97	371.41
597.39	247.37
597.811	308.22
598.232	359.71
598.652	284.81
599.073	277.79
599.494	315.24
599.914	331.62
600.334	324.6
600.755	296.52
601.175	324.6
601.595	254.39
602.015	249.71
602.436	291.84
602.856	436.95
603.276	263.75
603.696	340.99
604.115	305.88
604.535	364.39
604.955	333.97
605.375	252.05
605.794	287.15
606.214	319.92
606.634	317.58
607.053	333.97
607.473	312.9
607.892	268.43
608.311	317.58
608.731	340.99
609.15	315.24
609.569	259.07
609.988	296.52
610.407	322.26
610.826	376.09
611.245	296.52
611.664	301.2
612.083	301.2
612.501	319.92
612.92	355.03
613.339	296.52
613.757	359.71
614.176	331.62
614.594	280.13
615.013	383.12
615.431	338.65
615.85	352.69
616.268	287.15
616.686	289.5
617.104	280.13
617.522	280.13
617.94	277.79
618.358	212.26
618.776	280.13
619.194	256.73
619.612	378.44
620.03	338.65
620.447	268.43
620.865	308.22
621.282	296.52
621.7	310.56
622.117	284.81
622.535	282.47
622.952	289.5
623.369	301.2
623.787	308.22
624.204	348.01
624.621	195.87
625.038	373.75
625.455	326.94
625.872	350.35
626.289	308.22
626.706	289.5
627.123	317.58
627.539	383.12
627.956	362.05
628.373	294.18
628.789	275.45
629.206	350.35
629.622	331.62
630.038	263.75
630.455	273.11
630.871	273.11
631.287	310.56
631.703	329.28
632.12	294.18
632.536	280.13
632.952	284.81
633.368	275.45
633.783	312.9
634.199	315.24
634.615	312.9
635.031	348.01
635.446	296.52
635.862	315.24
636.277	301.2
636.693	315.24
637.108	270.77
637.524	329.28
637.939	385.46
638.354	303.54
638.77	305.88
639.185	289.5
639.6	317.58
640.015	261.41
640.43	287.15
640.845	333.97
641.259	336.31
641.674	294.18
642.089	233.32
642.504	333.97
642.918	338.65
643.333	340.99
643.747	277.79
644.162	289.5
644.576	315.24
644.991	331.62
645.405	315.24
645.819	240.34
646.233	326.94
646.647	362.05
647.061	338.65
647.475	254.39
647.889	282.47
648.303	359.71
648.717	263.75
649.131	298.86
649.545	326.94
649.958	355.03
650.372	305.88
650.785	294.18
651.199	280.13
651.612	345.67
652.026	298.86
652.439	301.2
652.852	315.24
653.266	275.45
653.679	275.45
654.092	256.73
654.505	280.13
654.918	324.6
655.331	319.92
655.744	324.6
656.156	291.84
656.569	331.62
656.982	329.28
657.394	345.67
657.807	305.88
658.22	200.55
658.632	348.01
659.044	275.45
659.457	298.86
659.869	263.75
660.281	287.15
660.693	373.75
661.106	348.01
661.518	312.9
661.93	280.13
662.342	366.73
662.754	336.31
663.165	294.18
663.577	329.28
663.989	294.18
664.401	308.22
664.812	336.31
665.224	319.92
665.635	298.86
666.047	291.84
666.458	275.45
666.869	275.45
667.281	298.86
667.692	331.62
668.103	266.09
668.514	357.37
668.925	305.88
669.336	359.71
669.747	277.79
670.158	324.6
670.569	294.18
670.979	315.24
671.39	259.07
671.801	348.01
672.211	282.47
672.622	287.15
673.032	263.75
673.443	319.92
673.853	359.71
674.263	298.86
674.674	277.79
675.084	312.9
675.494	326.94
675.904	338.65
676.314	369.07
676.724	315.24
677.134	343.33
677.544	387.8
677.953	322.26
678.363	259.07
678.773	301.2
679.182	352.69
679.592	333.97
680.001	324.6
680.411	343.33
680.82	214.6
681.23	263.75
681.639	305.88
682.048	305.88
682.457	343.33
682.866	312.9
683.275	312.9
683.684	338.65
684.093	343.33
684.502	249.71
684.911	301.2
685.32	296.52
685.728	261.41
686.137	291.84
686.546	315.24
686.954	303.54
687.363	268.43
687.771	289.5
688.179	294.18
688.588	230.98
688.996	245.02
689.404	305.88
689.812	326.94
690.22	348.01
690.628	296.52
691.036	345.67
691.444	301.2
691.852	331.62
692.26	322.26
692.667	357.37
693.075	350.35
693.483	303.54
693.89	343.33
694.298	287.15
694.705	289.5
695.112	315.24
695.52	362.05
695.927	291.84
696.334	291.84
696.741	252.05
697.148	268.43
697.555	343.33
697.962	284.81
698.369	359.71
698.776	336.31
699.183	249.71
699.59	277.79
699.996	352.69
700.403	287.15
700.81	312.9
701.216	319.92
701.623	296.52
702.029	343.33
702.435	305.88
702.842	329.28
703.248	359.71
703.654	282.47
704.06	296.52
704.466	287.15
704.872	284.81
705.278	282.47
705.684	252.05
706.09	291.84
706.496	338.65
706.901	329.28
707.307	322.26
707.712	298.86
708.118	331.62
708.523	284.81
708.929	336.31
709.334	305.88
709.74	303.54
710.145	291.84
710.55	268.43
710.955	294.18
711.36	301.2
711.765	385.46
712.17	322.26
712.575	366.73
712.98	797.39
713.385	312.9
713.789	289.5
714.194	310.56
714.599	317.58
715.003	252.05
715.408	296.52
715.812	331.62
716.217	345.67
716.621	312.9
717.025	280.13
717.429	277.79
717.833	352.69
718.238	340.99
718.642	324.6
719.046	247.37
719.449	296.52
719.853	324.6
720.257	371.41
720.661	329.28
721.065	277.79
721.468	277.79
721.872	287.15
722.275	268.43
722.679	312.9
723.082	277.79
723.485	357.37
723.889	287.15
724.292	319.92
724.695	329.28
725.098	333.97
725.501	266.09
725.904	282.47
726.307	252.05
726.71	284.81
727.113	273.11
727.516	362.05
727.918	322.26
728.321	340.99
728.724	305.88
729.126	256.73
729.529	282.47
729.931	287.15
730.333	296.52
730.736	291.84
731.138	287.15
731.54	369.07
731.942	296.52
732.344	301.2
732.746	322.26
733.148	319.92
733.55	371.41
733.952	333.97
734.354	280.13
734.756	324.6
735.157	289.5
735.559	277.79
735.96	259.07
736.362	317.58
736.763	240.34
737.165	261.41
737.566	324.6
737.967	305.88
738.368	345.67
738.77	268.43
739.171	294.18
739.572	277.79
739.973	296.52
740.374	275.45
740.774	310.56
741.175	385.46
741.576	305.88
741.977	291.84
742.377	263.75
742.778	256.73
743.178	322.26
743.579	315.24
743.979	308.22
744.379	345.67
744.78	352.69
745.18	371.41
745.58	333.97
745.98	326.94
746.38	270.77
746.78	277.79
747.18	343.33
747.58	287.15
747.98	256.73
748.38	261.41
748.779	287.15
749.179	287.15
749.578	282.47
749.978	216.94
750.377	378.44
750.777	296.52
751.176	380.78
751.575	322.26
751.975	326.94
752.374	329.28
752.773	329.28
753.172	301.2
753.571	315.24
753.97	326.94
754.369	252.05
754.768	336.31
755.166	317.58
755.565	352.69
755.964	336.31
756.362	289.5
756.761	312.9
757.159	317.58
757.558	362.05
757.956	303.54
758.354	238
758.753	366.73
759.151	322.26
759.549	273.11
759.947	310.56
760.345	259.07
760.743	233.32
761.141	291.84
761.539	280.13
761.936	312.9
762.334	329.28
762.732	294.18
763.129	331.62
763.527	308.22
763.924	305.88
764.322	317.58
764.719	343.33
765.117	287.15
765.514	275.45
