Data from Al_FLMS009871__1234__16-44-33-275.txt Node

Date: Fri Mar 08 16:44:33 CST 2024
User: pe5414po
Spectrometer: FLMS00987
Trigger mode: 0
Integration Time (sec): 1.000000E-1
Scans to average: 1
Electric dark correction enabled: true
Nonlinearity correction enabled: false
Boxcar width: 0
XAxis mode: Wavelengths
Number of Pixels in Spectrum: 2048
>>>>>Begin Spectral Data<<<<<
188.938	-99.47
189.409	-99.47
189.879	-99.47
190.349	-153.31
190.819	-118.2
191.29	-139.26
191.76	-125.22
192.23	-66.71
192.7	-94.79
193.17	-87.77
193.64	-17.55
194.109	-15.21
194.579	-29.26
195.049	22.24
195.519	8.19
195.988	47.98
196.458	80.75
196.927	69.05
197.397	108.83
197.866	87.77
198.336	150.96
198.805	186.07
199.274	225.86
199.744	260.97
200.213	183.73
200.682	197.78
201.151	186.07
201.62	188.41
202.089	204.8
202.558	228.2
203.027	272.67
203.495	279.69
203.964	235.22
204.433	256.29
204.902	249.27
205.37	342.89
205.839	293.74
206.307	244.59
206.776	263.31
207.244	237.56
207.712	265.65
208.181	300.76
208.649	249.27
209.117	267.99
209.585	258.63
210.053	310.12
210.521	258.63
210.989	260.97
211.457	279.69
211.925	275.01
212.393	197.78
212.861	284.38
213.328	307.78
213.796	289.06
214.264	277.35
214.731	230.54
215.199	258.63
215.666	284.38
216.133	298.42
216.601	265.65
217.068	237.56
217.535	279.69
218.003	267.99
218.47	298.42
218.937	244.59
219.404	300.76
219.871	246.93
220.338	265.65
220.805	270.33
221.271	239.9
221.738	225.86
222.205	216.5
222.671	216.5
223.138	237.56
223.605	265.65
224.071	291.4
224.538	225.86
225.004	249.27
225.47	249.27
225.937	253.95
226.403	221.18
226.869	253.95
227.335	317.14
227.801	260.97
228.267	225.86
228.733	256.29
229.199	188.41
229.665	284.38
230.131	209.48
230.597	239.9
231.062	282.03
231.528	310.12
231.994	230.54
232.459	235.22
232.925	275.01
233.39	267.99
233.856	305.44
234.321	242.25
234.786	286.72
235.252	253.95
235.717	265.65
236.182	223.52
236.647	214.16
237.112	275.01
237.577	253.95
238.042	286.72
238.507	242.25
238.972	340.55
239.436	291.4
239.901	202.46
240.366	270.33
240.83	237.56
241.295	314.8
241.76	296.08
242.224	307.78
242.688	260.97
243.153	258.63
243.617	289.06
244.081	228.2
244.545	275.01
245.01	251.61
245.474	190.75
245.938	265.65
246.402	258.63
246.866	225.86
247.33	167.35
247.793	282.03
248.257	324.16
248.721	218.84
249.185	230.54
249.648	303.1
250.112	277.35
250.575	340.55
251.039	305.44
251.502	279.69
251.965	267.99
252.429	265.65
252.892	333.53
253.355	270.33
253.818	279.69
254.281	265.65
254.744	253.95
255.207	251.61
255.67	270.33
256.133	232.88
256.596	277.35
257.059	267.99
257.522	293.74
257.984	265.65
258.447	275.01
258.909	321.82
259.372	228.2
259.834	338.21
260.297	244.59
260.759	253.95
261.221	291.4
261.684	277.35
262.146	235.22
262.608	263.31
263.07	230.54
263.532	239.9
263.994	265.65
264.456	310.12
264.918	253.95
265.38	260.97
265.842	284.38
266.303	319.48
266.765	314.8
267.227	277.35
267.688	275.01
268.15	300.76
268.611	235.22
269.072	186.07
269.534	335.87
269.995	221.18
270.456	314.8
270.918	239.9
271.379	317.14
271.84	331.19
272.301	270.33
272.762	279.69
273.223	251.61
273.684	265.65
274.144	239.9
274.605	284.38
275.066	303.1
275.527	237.56
275.987	221.18
276.448	242.25
276.908	230.54
277.369	291.4
277.829	239.9
278.289	275.01
278.75	265.65
279.21	284.38
279.67	272.67
280.13	284.38
280.59	277.35
281.05	296.08
281.51	333.53
281.97	310.12
282.43	286.72
282.89	317.14
283.35	303.1
283.809	284.38
284.269	286.72
284.729	246.93
285.188	251.61
285.648	235.22
286.107	235.22
286.567	256.29
287.026	235.22
287.485	312.46
287.944	249.27
288.404	225.86
288.863	305.44
289.322	291.4
289.781	286.72
290.24	260.97
290.699	319.48
291.158	293.74
291.616	347.57
292.075	303.1
292.534	289.06
292.992	305.44
293.451	249.27
293.91	282.03
294.368	324.16
294.827	279.69
295.285	312.46
295.743	265.65
296.202	249.27
296.66	340.55
297.118	260.97
297.576	324.16
298.034	338.21
298.492	298.42
298.95	300.76
299.408	312.46
299.866	228.2
300.324	267.99
300.781	260.97
301.239	291.4
301.697	282.03
302.154	314.8
302.612	228.2
303.069	237.56
303.527	216.5
303.984	291.4
304.441	317.14
304.899	286.72
305.356	258.63
305.813	319.48
306.27	333.53
306.727	298.42
307.184	368.63
307.641	251.61
308.098	314.8
308.555	326.5
309.012	303.1
309.468	277.35
309.925	331.19
310.382	265.65
310.838	228.2
311.295	286.72
311.751	340.55
312.208	342.89
312.664	352.25
313.12	314.8
313.577	284.38
314.033	239.9
314.489	275.01
314.945	312.46
315.401	256.29
315.857	310.12
316.313	289.06
316.769	267.99
317.225	277.35
317.681	314.8
318.136	361.61
318.592	275.01
319.048	331.19
319.503	270.33
319.959	237.56
320.414	298.42
320.869	300.76
321.325	282.03
321.78	298.42
322.235	282.03
322.691	279.69
323.146	263.31
323.601	282.03
324.056	223.52
324.511	291.4
324.966	251.61
325.421	282.03
325.875	267.99
326.33	265.65
326.785	338.21
327.24	293.74
327.694	314.8
328.149	307.78
328.603	282.03
329.058	347.57
329.512	267.99
329.966	317.14
330.421	303.1
330.875	263.31
331.329	277.35
331.783	260.97
332.237	279.69
332.691	272.67
333.145	291.4
333.599	242.25
334.053	317.14
334.507	326.5
334.96	282.03
335.414	263.31
335.868	321.82
336.321	275.01
336.775	317.14
337.228	282.03
337.682	328.85
338.135	300.76
338.588	305.44
339.042	265.65
339.495	267.99
339.948	282.03
340.401	324.16
340.854	256.29
341.307	286.72
341.76	331.19
342.213	319.48
342.666	265.65
343.119	225.86
343.571	298.42
344.024	300.76
344.477	291.4
344.929	291.4
345.382	310.12
345.834	293.74
346.287	249.27
346.739	310.12
347.191	277.35
347.644	352.25
348.096	310.12
348.548	331.19
349	277.35
349.452	303.1
349.904	293.74
350.356	310.12
350.808	319.48
351.26	265.65
351.711	328.85
352.163	296.08
352.615	356.93
353.066	286.72
353.518	253.95
353.969	305.44
354.421	232.88
354.872	300.76
355.324	260.97
355.775	286.72
356.226	265.65
356.677	270.33
357.128	300.76
357.579	307.78
358.03	289.06
358.481	328.85
358.932	298.42
359.383	258.63
359.834	317.14
360.285	303.1
360.735	305.44
361.186	317.14
361.637	335.87
362.087	293.74
362.538	305.44
362.988	321.82
363.438	293.74
363.889	293.74
364.339	296.08
364.789	345.23
365.239	305.44
365.689	267.99
366.139	258.63
366.589	326.5
367.039	321.82
367.489	284.38
367.939	326.5
368.389	317.14
368.839	251.61
369.288	305.44
369.738	291.4
370.187	321.82
370.637	298.42
371.086	289.06
371.536	312.46
371.985	291.4
372.434	314.8
372.884	312.46
373.333	326.5
373.782	300.76
374.231	272.67
374.68	340.55
375.129	300.76
375.578	298.42
376.027	286.72
376.475	258.63
376.924	328.85
377.373	300.76
377.822	326.5
378.27	303.1
378.719	303.1
379.167	267.99
379.616	282.03
380.064	312.46
380.512	296.08
380.961	300.76
381.409	251.61
381.857	263.31
382.305	286.72
382.753	363.95
383.201	272.67
383.649	340.55
384.097	296.08
384.545	284.38
384.992	270.33
385.44	366.29
385.888	338.21
386.335	237.56
386.783	263.31
387.231	349.91
387.678	352.25
388.125	258.63
388.573	342.89
389.02	239.9
389.467	267.99
389.914	298.42
390.362	279.69
390.809	326.5
391.256	293.74
391.703	265.65
392.15	275.01
392.596	279.69
393.043	232.88
393.49	282.03
393.937	361.61
394.383	286.72
394.83	275.01
395.276	275.01
395.723	370.97
396.169	293.74
396.616	289.06
397.062	296.08
397.508	235.22
397.954	349.91
398.401	282.03
398.847	373.32
399.293	317.14
399.739	296.08
400.185	305.44
400.631	324.16
401.076	293.74
401.522	321.82
401.968	312.46
402.414	284.38
402.859	331.19
403.305	258.63
403.75	333.53
404.196	314.8
404.641	305.44
405.086	282.03
405.532	298.42
405.977	242.25
406.422	256.29
406.867	270.33
407.312	277.35
407.757	387.36
408.202	359.27
408.647	282.03
409.092	321.82
409.537	340.55
409.982	296.08
410.426	324.16
410.871	291.4
411.316	291.4
411.76	310.12
412.205	335.87
412.649	298.42
413.093	356.93
413.538	225.86
413.982	300.76
414.426	335.87
414.87	312.46
415.314	324.16
415.758	267.99
416.202	361.61
416.646	345.23
417.09	286.72
417.534	317.14
417.978	275.01
418.421	349.91
418.865	307.78
419.309	373.32
419.752	303.1
420.196	366.29
420.639	286.72
421.083	275.01
421.526	284.38
421.969	282.03
422.412	310.12
422.856	307.78
423.299	300.76
423.742	319.48
424.185	282.03
424.628	267.99
425.071	284.38
425.513	286.72
425.956	282.03
426.399	296.08
426.842	289.06
427.284	305.44
427.727	303.1
428.169	347.57
428.612	307.78
429.054	368.63
429.497	251.61
429.939	282.03
430.381	314.8
430.823	317.14
431.265	305.44
431.707	265.65
432.149	267.99
432.591	303.1
433.033	335.87
433.475	289.06
433.917	300.76
434.359	256.29
434.8	333.53
435.242	321.82
435.684	312.46
436.125	291.4
436.567	342.89
437.008	275.01
437.449	300.76
437.891	310.12
438.332	314.8
438.773	326.5
439.214	328.85
439.656	282.03
440.097	244.59
440.538	345.23
440.978	293.74
441.419	310.12
441.86	324.16
442.301	282.03
442.742	368.63
443.182	333.53
443.623	286.72
444.063	293.74
444.504	296.08
444.944	314.8
445.385	279.69
445.825	303.1
446.265	328.85
446.706	279.69
447.146	298.42
447.586	265.65
448.026	328.85
448.466	272.67
448.906	345.23
449.346	265.65
449.786	272.67
450.225	263.31
450.665	286.72
451.105	270.33
451.544	267.99
451.984	305.44
452.424	286.72
452.863	298.42
453.302	303.1
453.742	289.06
454.181	270.33
454.62	279.69
455.059	265.65
455.499	263.31
455.938	228.2
456.377	260.97
456.816	312.46
457.254	249.27
457.693	338.21
458.132	291.4
458.571	293.74
459.01	333.53
459.448	289.06
459.887	272.67
460.325	253.95
460.764	253.95
461.202	303.1
461.641	279.69
462.079	267.99
462.517	267.99
462.955	338.21
463.393	352.25
463.832	326.5
464.27	359.27
464.708	293.74
465.145	356.93
465.583	284.38
466.021	378
466.459	324.16
466.897	338.21
467.334	282.03
467.772	267.99
468.209	310.12
468.647	284.38
469.084	263.31
469.522	258.63
469.959	284.38
470.396	253.95
470.833	286.72
471.271	207.14
471.708	331.19
472.145	356.93
472.582	347.57
473.019	345.23
473.456	296.08
473.892	408.42
474.329	263.31
474.766	319.48
475.202	298.42
475.639	326.5
476.076	349.91
476.512	389.7
476.949	342.89
477.385	363.95
477.821	270.33
478.258	286.72
478.694	256.29
479.13	237.56
479.566	354.59
480.002	289.06
480.438	251.61
480.874	239.9
481.31	342.89
481.746	321.82
482.181	363.95
482.617	275.01
483.053	293.74
483.488	265.65
483.924	310.12
484.36	293.74
484.795	267.99
485.23	263.31
485.666	370.97
486.101	352.25
486.536	342.89
486.971	265.65
487.407	305.44
487.842	326.5
488.277	293.74
488.712	265.65
489.146	314.8
489.581	303.1
490.016	349.91
490.451	324.16
490.885	361.61
491.32	359.27
491.755	305.44
492.189	328.85
492.624	335.87
493.058	368.63
493.492	230.54
493.927	335.87
494.361	272.67
494.795	279.69
495.229	338.21
495.663	260.97
496.097	275.01
496.531	328.85
496.965	335.87
497.399	239.9
497.833	345.23
498.266	347.57
498.7	333.53
499.134	298.42
499.567	363.95
500.001	298.42
500.434	319.48
500.868	326.5
501.301	326.5
501.734	228.2
502.168	256.29
502.601	338.21
503.034	303.1
503.467	335.87
503.9	296.08
504.333	296.08
504.766	272.67
505.199	310.12
505.632	331.19
506.064	260.97
506.497	242.25
506.93	291.4
507.362	319.48
507.795	375.66
508.227	289.06
508.66	270.33
509.092	310.12
509.524	352.25
509.956	338.21
510.389	289.06
510.821	289.06
511.253	314.8
511.685	312.46
512.117	263.31
512.549	214.16
512.981	312.46
513.412	321.82
513.844	310.12
514.276	310.12
514.707	312.46
515.139	347.57
515.571	300.76
516.002	272.67
516.433	352.25
516.865	310.12
517.296	207.14
517.727	310.12
518.159	300.76
518.59	298.42
519.021	296.08
519.452	310.12
519.883	263.31
520.314	342.89
520.744	359.27
521.175	293.74
521.606	282.03
522.037	333.53
522.467	279.69
522.898	305.44
523.328	310.12
523.759	286.72
524.189	335.87
524.62	307.78
525.05	279.69
525.48	267.99
525.91	256.29
526.341	289.06
526.771	335.87
527.201	293.74
527.631	307.78
528.061	300.76
528.49	246.93
528.92	186.07
529.35	272.67
529.78	289.06
530.209	286.72
530.639	239.9
531.068	303.1
531.498	291.4
531.927	293.74
532.357	256.29
532.786	303.1
533.215	333.53
533.644	361.61
534.074	272.67
534.503	296.08
534.932	296.08
535.361	349.91
535.79	270.33
536.218	314.8
536.647	298.42
537.076	289.06
537.505	328.85
537.933	345.23
538.362	279.69
538.79	345.23
539.219	265.65
539.647	286.72
540.076	321.82
540.504	312.46
540.932	406.08
541.36	366.29
541.788	326.5
542.217	286.72
542.645	347.57
543.073	263.31
543.5	305.44
543.928	298.42
544.356	289.06
544.784	277.35
545.211	324.16
545.639	289.06
546.067	312.46
546.494	345.23
546.922	228.2
547.349	289.06
547.776	251.61
548.204	282.03
548.631	312.46
549.058	324.16
549.485	349.91
549.912	279.69
550.339	328.85
550.766	342.89
551.193	293.74
551.62	291.4
552.047	251.61
552.474	282.03
552.9	223.52
553.327	310.12
553.754	356.93
554.18	345.23
554.607	296.08
555.033	260.97
555.459	319.48
555.886	286.72
556.312	340.55
556.738	321.82
557.164	242.25
557.59	314.8
558.016	312.46
558.442	352.25
558.868	333.53
559.294	303.1
559.72	331.19
560.145	328.85
560.571	321.82
560.997	270.33
561.422	277.35
561.848	239.9
562.273	263.31
562.699	263.31
563.124	307.78
563.549	270.33
563.974	275.01
564.4	310.12
564.825	366.29
565.25	307.78
565.675	284.38
566.1	342.89
566.525	342.89
566.95	338.21
567.374	289.06
567.799	305.44
568.224	289.06
568.648	279.69
569.073	282.03
569.497	312.46
569.922	260.97
570.346	246.93
570.771	396.72
571.195	300.76
571.619	291.4
572.043	218.84
572.467	296.08
572.891	272.67
573.315	211.82
573.739	272.67
574.163	310.12
574.587	359.27
575.011	333.53
575.435	321.82
575.858	389.7
576.282	314.8
576.705	380.34
577.129	345.23
577.552	356.93
577.976	270.33
578.399	321.82
578.822	378
579.245	289.06
579.669	305.44
580.092	242.25
580.515	291.4
580.938	221.18
581.361	270.33
581.784	275.01
582.206	326.5
582.629	300.76
583.052	349.91
583.474	289.06
583.897	338.21
584.32	246.93
584.742	258.63
585.165	300.76
585.587	317.14
586.009	310.12
586.431	277.35
586.854	293.74
587.276	277.35
587.698	321.82
588.12	249.27
588.542	289.06
588.964	300.76
589.386	275.01
589.807	300.76
590.229	289.06
590.651	354.59
591.073	342.89
591.494	305.44
591.916	253.95
592.337	251.61
592.759	242.25
593.18	307.78
593.601	289.06
594.022	314.8
594.444	354.59
594.865	312.46
595.286	303.1
595.707	312.46
596.128	321.82
596.549	331.19
596.97	272.67
597.39	272.67
597.811	342.89
598.232	342.89
598.652	291.4
599.073	263.31
599.494	291.4
599.914	265.65
600.334	331.19
600.755	277.35
601.175	310.12
601.595	296.08
602.015	230.54
602.436	319.48
602.856	438.85
603.276	333.53
603.696	335.87
604.115	359.27
604.535	272.67
604.955	284.38
605.375	251.61
605.794	270.33
606.214	342.89
606.634	314.8
607.053	338.21
607.473	321.82
607.892	289.06
608.311	312.46
608.731	312.46
609.15	286.72
609.569	324.16
609.988	321.82
610.407	305.44
610.826	310.12
611.245	242.25
611.664	223.52
612.083	239.9
612.501	289.06
612.92	291.4
613.339	312.46
613.757	303.1
614.176	265.65
614.594	275.01
615.013	319.48
615.431	272.67
615.85	286.72
616.268	291.4
616.686	310.12
617.104	342.89
617.522	305.44
617.94	242.25
618.358	286.72
618.776	310.12
619.194	289.06
619.612	307.78
620.03	284.38
620.447	293.74
620.865	333.53
621.282	312.46
621.7	270.33
622.117	310.12
622.535	272.67
622.952	331.19
623.369	333.53
623.787	279.69
624.204	314.8
624.621	305.44
625.038	263.31
625.455	317.14
625.872	270.33
626.289	279.69
626.706	368.63
627.123	310.12
627.539	345.23
627.956	321.82
628.373	317.14
628.789	314.8
629.206	370.97
629.622	312.46
630.038	305.44
630.455	317.14
630.871	303.1
631.287	275.01
631.703	305.44
632.12	303.1
632.536	293.74
632.952	319.48
633.368	291.4
633.783	270.33
634.199	319.48
634.615	314.8
635.031	333.53
635.446	328.85
635.862	331.19
636.277	291.4
636.693	317.14
637.108	289.06
637.524	347.57
637.939	352.25
638.354	300.76
638.77	359.27
639.185	345.23
639.6	296.08
640.015	317.14
640.43	207.14
640.845	314.8
641.259	270.33
641.674	317.14
642.089	265.65
642.504	267.99
642.918	265.65
643.333	298.42
643.747	312.46
644.162	333.53
644.576	270.33
644.991	310.12
645.405	378
645.819	291.4
646.233	284.38
646.647	270.33
647.061	267.99
647.475	272.67
647.889	258.63
648.303	277.35
648.717	331.19
649.131	284.38
649.545	244.59
649.958	326.5
650.372	232.88
650.785	319.48
651.199	263.31
651.612	239.9
652.026	246.93
652.439	275.01
652.852	291.4
653.266	300.76
653.679	298.42
654.092	277.35
654.505	347.57
654.918	235.22
655.331	258.63
655.744	359.27
656.156	331.19
656.569	333.53
656.982	277.35
657.394	298.42
657.807	314.8
658.22	282.03
658.632	237.56
659.044	284.38
659.457	284.38
659.869	279.69
660.281	328.85
660.693	258.63
661.106	286.72
661.518	249.27
661.93	275.01
662.342	314.8
662.754	331.19
663.165	303.1
663.577	289.06
663.989	319.48
664.401	335.87
664.812	324.16
665.224	239.9
665.635	317.14
666.047	300.76
666.458	293.74
666.869	270.33
667.281	237.56
667.692	312.46
668.103	300.76
668.514	324.16
668.925	331.19
669.336	324.16
669.747	272.67
670.158	324.16
670.569	303.1
670.979	253.95
671.39	307.78
671.801	328.85
672.211	307.78
672.622	305.44
673.032	314.8
673.443	340.55
673.853	324.16
674.263	359.27
674.674	326.5
675.084	396.72
675.494	291.4
675.904	354.59
676.314	333.53
676.724	345.23
677.134	338.21
677.544	328.85
677.953	345.23
678.363	331.19
678.773	349.91
679.182	319.48
679.592	366.29
680.001	335.87
680.411	258.63
680.82	342.89
681.23	291.4
681.639	314.8
682.048	340.55
682.457	275.01
682.866	270.33
683.275	282.03
683.684	293.74
684.093	253.95
684.502	342.89
684.911	307.78
685.32	310.12
685.728	291.4
686.137	253.95
686.546	284.38
686.954	363.95
687.363	324.16
687.771	305.44
688.179	263.31
688.588	258.63
688.996	378
689.404	312.46
689.812	331.19
690.22	282.03
690.628	260.97
691.036	338.21
691.444	286.72
691.852	342.89
692.26	314.8
692.667	326.5
693.075	300.76
693.483	284.38
693.89	303.1
694.298	354.59
694.705	293.74
695.112	291.4
695.52	324.16
695.927	328.85
696.334	284.38
696.741	300.76
697.148	291.4
697.555	260.97
697.962	253.95
698.369	258.63
698.776	272.67
699.183	314.8
699.59	340.55
699.996	267.99
700.403	293.74
700.81	342.89
701.216	312.46
701.623	277.35
702.029	275.01
702.435	253.95
702.842	331.19
703.248	291.4
703.654	289.06
704.06	267.99
704.466	258.63
704.872	324.16
705.278	342.89
705.684	303.1
706.09	326.5
706.496	293.74
706.901	345.23
707.307	359.27
707.712	225.86
708.118	246.93
708.523	319.48
708.929	237.56
709.334	300.76
709.74	244.59
710.145	253.95
710.55	300.76
710.955	338.21
711.36	277.35
711.765	253.95
712.17	296.08
712.575	338.21
712.98	843.76
713.385	340.55
713.789	305.44
714.194	326.5
714.599	310.12
715.003	361.61
715.408	328.85
715.812	312.46
716.217	293.74
716.621	277.35
717.025	228.2
717.429	305.44
717.833	305.44
718.238	267.99
718.642	335.87
719.046	314.8
719.449	289.06
719.853	335.87
720.257	359.27
720.661	242.25
721.065	312.46
721.468	312.46
721.872	317.14
722.275	328.85
722.679	312.46
723.082	300.76
723.485	333.53
723.889	307.78
724.292	244.59
724.695	258.63
725.098	310.12
725.501	331.19
725.904	251.61
726.307	253.95
726.71	260.97
727.113	272.67
727.516	286.72
727.918	270.33
728.321	314.8
728.724	326.5
729.126	319.48
729.529	270.33
729.931	265.65
730.333	270.33
730.736	298.42
731.138	277.35
731.54	298.42
731.942	375.66
732.344	275.01
732.746	237.56
733.148	270.33
733.55	279.69
733.952	253.95
734.354	286.72
734.756	333.53
735.157	270.33
735.559	293.74
735.96	319.48
736.362	340.55
736.763	289.06
737.165	256.29
737.566	239.9
737.967	319.48
738.368	296.08
738.77	284.38
739.171	300.76
739.572	326.5
739.973	300.76
740.374	326.5
740.774	310.12
741.175	356.93
741.576	275.01
741.977	291.4
742.377	256.29
742.778	267.99
743.178	277.35
743.579	305.44
743.979	300.76
744.379	263.31
744.78	284.38
745.18	359.27
745.58	331.19
745.98	305.44
746.38	338.21
746.78	272.67
747.18	338.21
747.58	338.21
747.98	251.61
748.38	277.35
748.779	249.27
749.179	291.4
749.578	385.02
749.978	289.06
750.377	349.91
750.777	298.42
751.176	305.44
751.575	310.12
751.975	396.72
752.374	319.48
752.773	265.65
753.172	331.19
753.571	328.85
753.97	324.16
754.369	286.72
754.768	263.31
755.166	267.99
755.565	286.72
755.964	359.27
756.362	298.42
756.761	328.85
757.159	312.46
757.558	303.1
757.956	385.02
758.354	321.82
758.753	239.9
759.151	286.72
759.549	291.4
759.947	277.35
760.345	361.61
760.743	312.46
761.141	275.01
761.539	333.53
761.936	307.78
762.334	279.69
762.732	291.4
763.129	319.48
763.527	298.42
763.924	279.69
764.322	354.59
764.719	267.99
765.117	286.72
765.514	237.56
765.911	317.14
