Data from Al_FLMS009871__321__12-25-45-739.txt Node

Date: Fri Mar 08 12:25:45 CST 2024
User: pe5414po
Spectrometer: FLMS00987
Trigger mode: 0
Integration Time (sec): 1.000000E-1
Scans to average: 1
Electric dark correction enabled: true
Nonlinearity correction enabled: false
Boxcar width: 0
XAxis mode: Wavelengths
Number of Pixels in Spectrum: 2048
>>>>>Begin Spectral Data<<<<<
188.938	-58.07
189.409	-58.07
189.879	-58.07
190.349	-154.04
190.819	-88.5
191.29	-116.59
191.76	-62.76
192.23	-76.8
192.7	-123.61
193.17	-67.44
193.64	12.14
194.109	-6.58
194.579	-22.97
195.049	14.48
195.519	14.48
195.988	26.18
196.458	91.72
196.927	44.91
197.397	63.63
197.866	110.44
198.336	98.74
198.805	178.32
199.274	183
199.744	154.91
200.213	220.45
200.682	199.38
201.151	197.04
201.62	194.7
202.089	232.15
202.558	264.92
203.027	283.64
203.495	248.54
203.964	314.07
204.433	295.35
204.902	246.2
205.37	269.6
205.839	278.96
206.307	339.82
206.776	321.09
207.244	236.83
207.712	309.39
208.181	290.67
208.649	339.82
209.117	297.69
209.585	264.92
210.053	309.39
210.521	267.26
210.989	269.6
211.457	239.17
211.925	293.01
212.393	276.62
212.861	321.09
213.328	304.71
213.796	293.01
214.264	260.24
214.731	232.15
215.199	241.51
215.666	321.09
216.133	274.28
216.601	271.94
217.068	304.71
217.535	276.62
218.003	246.2
218.47	358.54
218.937	215.77
219.404	241.51
219.871	274.28
220.338	274.28
220.805	293.01
221.271	201.72
221.738	257.9
222.205	269.6
222.671	264.92
223.138	297.69
223.605	278.96
224.071	250.88
224.538	257.9
225.004	264.92
225.47	285.98
225.937	229.81
226.403	239.17
226.869	241.51
227.335	166.62
227.801	222.79
228.267	264.92
228.733	297.69
229.199	239.17
229.665	192.36
230.131	328.11
230.597	199.38
231.062	360.88
231.528	297.69
231.994	241.51
232.459	332.79
232.925	278.96
233.39	246.2
233.856	225.13
234.321	295.35
234.786	330.45
235.252	267.26
235.717	218.11
236.182	271.94
236.647	260.24
237.112	283.64
237.577	293.01
238.042	293.01
238.507	248.54
238.972	262.58
239.436	236.83
239.901	288.32
240.366	194.7
240.83	297.69
241.295	290.67
241.76	297.69
242.224	332.79
242.688	206.41
243.153	262.58
243.617	276.62
244.081	276.62
244.545	264.92
245.01	337.48
245.474	285.98
245.938	250.88
246.402	255.56
246.866	302.37
247.33	281.3
247.793	274.28
248.257	285.98
248.721	344.5
249.185	264.92
249.648	262.58
250.112	339.82
250.575	316.41
251.039	323.43
251.502	232.15
251.965	262.58
252.429	311.73
252.892	262.58
253.355	316.41
253.818	309.39
254.281	304.71
254.744	293.01
255.207	257.9
255.67	309.39
256.133	304.71
256.596	293.01
257.059	316.41
257.522	297.69
257.984	253.22
258.447	353.86
258.909	307.05
259.372	318.75
259.834	276.62
260.297	360.88
260.759	295.35
261.221	276.62
261.684	267.26
262.146	278.96
262.608	316.41
263.07	288.32
263.532	316.41
263.994	264.92
264.456	285.98
264.918	257.9
265.38	332.79
265.842	257.9
266.303	260.24
266.765	288.32
267.227	278.96
267.688	321.09
268.15	274.28
268.611	262.58
269.072	225.13
269.534	271.94
269.995	302.37
270.456	293.01
270.918	295.35
271.379	346.84
271.84	318.75
272.301	293.01
272.762	311.73
273.223	321.09
273.684	243.85
274.144	276.62
274.605	236.83
275.066	321.09
275.527	269.6
275.987	300.03
276.448	302.37
276.908	321.09
277.369	227.47
277.829	314.07
278.289	267.26
278.75	250.88
279.21	311.73
279.67	302.37
280.13	293.01
280.59	293.01
281.05	342.16
281.51	321.09
281.97	264.92
282.43	278.96
282.89	293.01
283.35	264.92
283.809	283.64
284.269	232.15
284.729	328.11
285.188	283.64
285.648	283.64
286.107	321.09
286.567	234.49
287.026	257.9
287.485	339.82
287.944	344.5
288.404	353.86
288.863	295.35
289.322	335.14
289.781	325.77
290.24	342.16
290.699	365.56
291.158	269.6
291.616	300.03
292.075	262.58
292.534	218.11
292.992	328.11
293.451	281.3
293.91	323.43
294.368	314.07
294.827	246.2
295.285	309.39
295.743	342.16
296.202	274.28
296.66	349.18
297.118	316.41
297.576	309.39
298.034	297.69
298.492	274.28
298.95	278.96
299.408	346.84
299.866	281.3
300.324	318.75
300.781	278.96
301.239	300.03
301.697	257.9
302.154	281.3
302.612	314.07
303.069	271.94
303.527	318.75
303.984	297.69
304.441	248.54
304.899	311.73
305.356	332.79
305.813	300.03
306.27	290.67
306.727	321.09
307.184	274.28
307.641	283.64
308.098	351.52
308.555	220.45
309.012	278.96
309.468	297.69
309.925	321.09
310.382	335.14
310.838	269.6
311.295	281.3
311.751	304.71
312.208	325.77
312.664	267.26
313.12	304.71
313.577	365.56
314.033	349.18
314.489	295.35
314.945	321.09
315.401	246.2
315.857	239.17
316.313	236.83
316.769	269.6
317.225	274.28
317.681	255.56
318.136	260.24
318.592	297.69
319.048	332.79
319.503	349.18
319.959	260.24
320.414	356.2
320.869	309.39
321.325	293.01
321.78	321.09
322.235	253.22
322.691	360.88
323.146	290.67
323.601	335.14
324.056	325.77
324.511	328.11
324.966	302.37
325.421	309.39
325.875	290.67
326.33	328.11
326.785	295.35
327.24	288.32
327.694	281.3
328.149	271.94
328.603	398.33
329.058	307.05
329.512	314.07
329.966	337.48
330.421	276.62
330.875	283.64
331.329	351.52
331.783	293.01
332.237	290.67
332.691	288.32
333.145	358.54
333.599	297.69
334.053	255.56
334.507	309.39
334.96	285.98
335.414	307.05
335.868	300.03
336.321	330.45
336.775	379.61
337.228	297.69
337.682	253.22
338.135	211.09
338.588	283.64
339.042	297.69
339.495	295.35
339.948	295.35
340.401	302.37
340.854	269.6
341.307	351.52
341.76	297.69
342.213	358.54
342.666	283.64
343.119	290.67
343.571	260.24
344.024	285.98
344.477	264.92
344.929	358.54
345.382	342.16
345.834	300.03
346.287	307.05
346.739	358.54
347.191	288.32
347.644	330.45
348.096	365.56
348.548	257.9
349	288.32
349.452	318.75
349.904	288.32
350.356	323.43
350.808	367.9
351.26	234.49
351.711	276.62
352.163	285.98
352.615	288.32
353.066	307.05
353.518	351.52
353.969	297.69
354.421	255.56
354.872	304.71
355.324	281.3
355.775	293.01
356.226	267.26
356.677	344.5
357.128	325.77
357.579	323.43
358.03	283.64
358.481	293.01
358.932	332.79
359.383	356.2
359.834	302.37
360.285	358.54
360.735	311.73
361.186	278.96
361.637	328.11
362.087	250.88
362.538	307.05
362.988	358.54
363.438	356.2
363.889	290.67
364.339	229.81
364.789	365.56
365.239	288.32
365.689	337.48
366.139	290.67
366.589	278.96
367.039	332.79
367.489	328.11
367.939	360.88
368.389	351.52
368.839	290.67
369.288	311.73
369.738	290.67
370.187	288.32
370.637	358.54
371.086	314.07
371.536	283.64
371.985	304.71
372.434	384.29
372.884	274.28
373.333	307.05
373.782	307.05
374.231	400.67
374.68	309.39
375.129	297.69
375.578	276.62
376.027	328.11
376.475	374.92
376.924	314.07
377.373	309.39
377.822	339.82
378.27	309.39
378.719	253.22
379.167	335.14
379.616	351.52
380.064	344.5
380.512	290.67
380.961	360.88
381.409	295.35
381.857	269.6
382.305	304.71
382.753	374.92
383.201	264.92
383.649	335.14
384.097	285.98
384.545	335.14
384.992	328.11
385.44	377.27
385.888	281.3
386.335	335.14
386.783	318.75
387.231	290.67
387.678	330.45
388.125	295.35
388.573	365.56
389.02	332.79
389.467	276.62
389.914	353.86
390.362	260.24
390.809	356.2
391.256	339.82
391.703	316.41
392.15	300.03
392.596	323.43
393.043	342.16
393.49	246.2
393.937	314.07
394.383	248.54
394.83	344.5
395.276	344.5
395.723	232.15
396.169	353.86
396.616	367.9
397.062	384.29
397.508	342.16
397.954	332.79
398.401	328.11
398.847	316.41
399.293	328.11
399.739	288.32
400.185	302.37
400.631	276.62
401.076	351.52
401.522	328.11
401.968	346.84
402.414	335.14
402.859	283.64
403.305	293.01
403.75	337.48
404.196	337.48
404.641	295.35
405.086	321.09
405.532	367.9
405.977	281.3
406.422	304.71
406.867	353.86
407.312	264.92
407.757	381.95
408.202	271.94
408.647	358.54
409.092	285.98
409.537	278.96
409.982	342.16
410.426	276.62
410.871	377.27
411.316	358.54
411.76	388.97
412.205	311.73
412.649	293.01
413.093	293.01
413.538	307.05
413.982	283.64
414.426	241.51
414.87	321.09
415.314	302.37
415.758	351.52
416.202	372.58
416.646	370.24
417.09	293.01
417.534	293.01
417.978	344.5
418.421	337.48
418.865	349.18
419.309	307.05
419.752	325.77
420.196	346.84
420.639	285.98
421.083	269.6
421.526	328.11
421.969	384.29
422.412	365.56
422.856	316.41
423.299	370.24
423.742	309.39
424.185	370.24
424.628	351.52
425.071	262.58
425.513	367.9
425.956	370.24
426.399	372.58
426.842	325.77
427.284	351.52
427.727	395.99
428.169	395.99
428.612	346.84
429.054	318.75
429.497	372.58
429.939	395.99
430.381	424.08
430.823	374.92
431.265	449.82
431.707	342.16
432.149	419.39
432.591	372.58
433.033	379.61
433.475	412.37
433.917	461.52
434.359	459.18
434.8	515.36
435.242	475.57
435.684	487.27
436.125	428.76
436.567	491.95
437.008	477.91
437.449	435.78
437.891	463.86
438.332	417.05
438.773	480.25
439.214	454.5
439.656	470.89
440.097	470.89
440.538	428.76
440.978	452.16
441.419	522.38
441.86	447.48
442.301	428.76
442.742	524.72
443.182	513.02
443.623	529.4
444.063	473.23
444.504	505.99
444.944	510.68
445.385	477.91
445.825	531.74
446.265	498.97
446.706	440.46
447.146	489.61
447.586	496.63
448.026	510.68
448.466	494.29
448.906	496.63
449.346	550.46
449.786	449.82
450.225	527.06
450.665	515.36
451.105	501.31
451.544	515.36
451.984	510.68
452.424	466.21
452.863	496.63
453.302	405.35
453.742	463.86
454.181	475.57
454.62	449.82
455.059	435.78
455.499	438.12
455.938	456.84
456.377	496.63
456.816	407.69
457.254	414.71
457.693	445.14
458.132	435.78
458.571	421.74
459.01	442.8
459.448	410.03
459.887	414.71
460.325	372.58
460.764	370.24
461.202	452.16
461.641	426.42
462.079	414.71
462.517	403.01
462.955	484.93
463.393	395.99
463.832	447.48
464.27	424.08
464.708	393.65
465.145	384.29
465.583	391.31
466.021	454.5
466.459	349.18
466.897	360.88
467.334	445.14
467.772	421.74
468.209	377.27
468.647	410.03
469.084	395.99
469.522	433.44
469.959	435.78
470.396	414.71
470.833	431.1
471.271	349.18
471.708	381.95
472.145	349.18
472.582	433.44
473.019	374.92
473.456	400.67
473.892	370.24
474.329	377.27
474.766	353.86
475.202	360.88
475.639	426.42
476.076	414.71
476.512	349.18
476.949	356.2
477.385	339.82
477.821	410.03
478.258	367.9
478.694	386.63
479.13	356.2
479.566	377.27
480.002	403.01
480.438	442.8
480.874	391.31
481.31	351.52
481.746	349.18
482.181	374.92
482.617	381.95
483.053	407.69
483.488	391.31
483.924	395.99
484.36	393.65
484.795	431.1
485.23	438.12
485.666	398.33
486.101	447.48
486.536	435.78
486.971	449.82
487.407	435.78
487.842	489.61
488.277	384.29
488.712	400.67
489.146	477.91
489.581	395.99
490.016	395.99
490.451	417.05
490.885	407.69
491.32	459.18
491.755	353.86
492.189	470.89
492.624	410.03
493.058	466.21
493.492	398.33
493.927	379.61
494.361	419.39
494.795	379.61
495.229	417.05
495.663	381.95
496.097	386.63
496.531	351.52
496.965	452.16
497.399	428.76
497.833	328.11
498.266	358.54
498.7	461.52
499.134	367.9
499.567	473.23
500.001	398.33
500.434	363.22
500.868	349.18
501.301	433.44
501.734	381.95
502.168	372.58
502.601	440.46
503.034	372.58
503.467	367.9
503.9	412.37
504.333	403.01
504.766	449.82
505.199	412.37
505.632	372.58
506.064	337.48
506.497	398.33
506.93	445.14
507.362	417.05
507.795	468.55
508.227	417.05
508.66	349.18
509.092	428.76
509.524	428.76
509.956	360.88
510.389	419.39
510.821	447.48
511.253	477.91
511.685	388.97
512.117	424.08
512.549	468.55
512.981	454.5
513.412	449.82
513.844	410.03
514.276	470.89
514.707	440.46
515.139	391.31
515.571	403.01
516.002	473.23
516.433	498.97
516.865	417.05
517.296	417.05
517.727	459.18
518.159	428.76
518.59	410.03
519.021	414.71
519.452	428.76
519.883	384.29
520.314	403.01
520.744	454.5
521.175	461.52
521.606	473.23
522.037	440.46
522.467	449.82
522.898	414.71
523.328	428.76
523.759	494.29
524.189	403.01
524.62	421.74
525.05	442.8
525.48	370.24
525.91	398.33
526.341	388.97
526.771	393.65
527.201	433.44
527.631	405.35
528.061	433.44
528.49	442.8
528.92	412.37
529.35	447.48
529.78	470.89
530.209	433.44
530.639	442.8
531.068	407.69
531.498	435.78
531.927	480.25
532.357	484.93
532.786	438.12
533.215	381.95
533.644	452.16
534.074	428.76
534.503	360.88
534.932	463.86
535.361	426.42
535.79	428.76
536.218	417.05
536.647	410.03
537.076	400.67
537.505	452.16
537.933	449.82
538.362	442.8
538.79	473.23
539.219	440.46
539.647	452.16
540.076	510.68
540.504	569.19
540.932	541.1
541.36	627.7
541.788	639.41
542.217	742.39
542.645	688.56
543.073	679.19
543.5	740.05
543.928	704.94
544.356	690.9
544.784	658.13
545.211	751.75
545.639	702.6
546.067	667.49
546.494	590.25
546.922	616
547.349	587.91
547.776	576.21
548.204	522.38
548.631	505.99
549.058	505.99
549.485	515.36
549.912	475.57
550.339	520.04
550.766	538.76
551.193	510.68
551.62	548.12
552.047	501.31
552.474	391.31
552.9	433.44
553.327	419.39
553.754	452.16
554.18	470.89
554.607	440.46
555.033	466.21
555.459	534.08
555.886	442.8
556.312	466.21
556.738	426.42
557.164	360.88
557.59	393.65
558.016	447.48
558.442	501.31
558.868	410.03
559.294	456.84
559.72	417.05
560.145	388.97
560.571	424.08
560.997	459.18
561.422	459.18
561.848	395.99
562.273	419.39
562.699	424.08
563.124	491.95
563.549	459.18
563.974	484.93
564.4	407.69
564.825	461.52
565.25	414.71
565.675	449.82
566.1	379.61
566.525	428.76
566.95	475.57
567.374	461.52
567.799	421.74
568.224	419.39
568.648	412.37
569.073	487.27
569.497	442.8
569.922	454.5
570.346	454.5
570.771	417.05
571.195	374.92
571.619	410.03
572.043	358.54
572.467	372.58
572.891	372.58
573.315	426.42
573.739	459.18
574.163	367.9
574.587	407.69
575.011	398.33
575.435	428.76
575.858	426.42
576.282	513.02
576.705	466.21
577.129	428.76
577.552	477.91
577.976	395.99
578.399	477.91
578.822	370.24
579.245	445.14
579.669	435.78
580.092	428.76
580.515	445.14
580.938	480.25
581.361	456.84
581.784	400.67
582.206	412.37
582.629	372.58
583.052	503.65
583.474	482.59
583.897	449.82
584.32	473.23
584.742	426.42
585.165	440.46
585.587	489.61
586.009	440.46
586.431	489.61
586.854	438.12
587.276	426.42
587.698	475.57
588.12	445.14
588.542	456.84
588.964	398.33
589.386	508.34
589.807	449.82
590.229	428.76
590.651	440.46
591.073	498.97
591.494	405.35
591.916	403.01
592.337	440.46
592.759	482.59
593.18	372.58
593.601	424.08
594.022	421.74
594.444	384.29
594.865	335.14
595.286	407.69
595.707	414.71
596.128	360.88
596.549	360.88
596.97	417.05
597.39	424.08
597.811	358.54
598.232	405.35
598.652	428.76
599.073	400.67
599.494	414.71
599.914	395.99
600.334	367.9
600.755	407.69
601.175	403.01
601.595	442.8
602.015	344.5
602.436	400.67
602.856	517.7
603.276	379.61
603.696	391.31
604.115	388.97
604.535	351.52
604.955	377.27
605.375	358.54
605.794	337.48
606.214	428.76
606.634	381.95
607.053	372.58
607.473	447.48
607.892	379.61
608.311	454.5
608.731	449.82
609.15	538.76
609.569	548.12
609.988	606.64
610.407	723.66
610.826	740.05
611.245	807.92
611.664	756.43
612.083	740.05
612.501	648.77
612.92	608.98
613.339	569.19
613.757	562.17
614.176	520.04
614.594	456.84
615.013	501.31
615.431	454.5
615.85	426.42
616.268	475.57
616.686	459.18
617.104	442.8
617.522	424.08
617.94	363.22
618.358	403.01
618.776	459.18
619.194	335.14
619.612	400.67
620.03	435.78
620.447	445.14
620.865	360.88
621.282	468.55
621.7	403.01
622.117	344.5
622.535	400.67
622.952	424.08
623.369	398.33
623.787	412.37
624.204	417.05
624.621	421.74
625.038	414.71
625.455	395.99
625.872	417.05
626.289	353.86
626.706	360.88
627.123	353.86
627.539	414.71
627.956	433.44
628.373	365.56
628.789	353.86
629.206	388.97
629.622	395.99
630.038	339.82
630.455	342.16
630.871	388.97
631.287	386.63
631.703	419.39
632.12	349.18
632.536	367.9
632.952	363.22
633.368	335.14
633.783	351.52
634.199	358.54
634.615	353.86
635.031	370.24
635.446	360.88
635.862	353.86
636.277	330.45
636.693	342.16
637.108	353.86
637.524	335.14
637.939	248.54
638.354	353.86
638.77	386.63
639.185	304.71
639.6	365.56
640.015	372.58
640.43	384.29
640.845	414.71
641.259	316.41
641.674	346.84
642.089	356.2
642.504	314.07
642.918	363.22
643.333	351.52
643.747	281.3
644.162	300.03
644.576	372.58
644.991	384.29
645.405	316.41
645.819	309.39
646.233	337.48
646.647	304.71
647.061	346.84
647.475	337.48
647.889	323.43
648.303	309.39
648.717	372.58
649.131	351.52
649.545	370.24
649.958	377.27
650.372	328.11
650.785	328.11
651.199	367.9
651.612	311.73
652.026	335.14
652.439	351.52
652.852	370.24
653.266	325.77
653.679	367.9
654.092	337.48
654.505	278.96
654.918	316.41
655.331	309.39
655.744	367.9
656.156	365.56
656.569	374.92
656.982	309.39
657.394	365.56
657.807	316.41
658.22	281.3
658.632	295.35
659.044	332.79
659.457	332.79
659.869	342.16
660.281	337.48
660.693	321.09
661.106	316.41
661.518	410.03
661.93	325.77
662.342	337.48
662.754	344.5
663.165	304.71
663.577	318.75
663.989	351.52
664.401	309.39
664.812	360.88
665.224	353.86
665.635	356.2
666.047	339.82
666.458	365.56
666.869	325.77
667.281	318.75
667.692	332.79
668.103	358.54
668.514	332.79
668.925	346.84
669.336	388.97
669.747	316.41
670.158	321.09
670.569	353.86
670.979	342.16
671.39	335.14
671.801	253.22
672.211	311.73
672.622	318.75
673.032	330.45
673.443	398.33
673.853	332.79
674.263	255.56
674.674	365.56
675.084	316.41
675.494	307.05
675.904	288.32
676.314	339.82
676.724	360.88
677.134	370.24
677.544	360.88
677.953	276.62
678.363	344.5
678.773	414.71
679.182	311.73
679.592	339.82
680.001	311.73
680.411	398.33
680.82	307.05
681.23	335.14
681.639	353.86
682.048	236.83
682.457	269.6
682.866	332.79
683.275	262.58
683.684	332.79
684.093	302.37
684.502	370.24
684.911	372.58
685.32	360.88
685.728	339.82
686.137	395.99
686.546	372.58
686.954	365.56
687.363	293.01
687.771	353.86
688.179	297.69
688.588	323.43
688.996	356.2
689.404	316.41
689.812	314.07
690.22	379.61
690.628	358.54
691.036	314.07
691.444	365.56
691.852	321.09
692.26	405.35
692.667	349.18
693.075	363.22
693.483	314.07
693.89	395.99
694.298	363.22
694.705	335.14
695.112	351.52
695.52	358.54
695.927	321.09
696.334	309.39
696.741	300.03
697.148	335.14
697.555	344.5
697.962	381.95
698.369	318.75
698.776	300.03
699.183	388.97
699.59	332.79
699.996	281.3
700.403	323.43
700.81	318.75
701.216	278.96
701.623	311.73
702.029	304.71
702.435	353.86
702.842	337.48
703.248	337.48
703.654	274.28
704.06	335.14
704.466	295.35
704.872	276.62
705.278	435.78
705.684	367.9
706.09	342.16
706.496	391.31
706.901	297.69
707.307	297.69
707.712	363.22
708.118	358.54
708.523	342.16
708.929	346.84
709.334	300.03
709.74	351.52
710.145	288.32
710.55	316.41
710.955	398.33
711.36	374.92
711.765	358.54
712.17	351.52
712.575	332.79
712.98	934.31
713.385	398.33
713.789	297.69
714.194	246.2
714.599	335.14
715.003	337.48
715.408	302.37
715.812	323.43
716.217	302.37
716.621	281.3
717.025	323.43
717.429	349.18
717.833	288.32
718.238	302.37
718.642	328.11
719.046	260.24
719.449	269.6
719.853	290.67
720.257	278.96
720.661	342.16
721.065	328.11
721.468	276.62
721.872	267.26
722.275	271.94
722.679	293.01
723.082	342.16
723.485	255.56
723.889	316.41
724.292	309.39
724.695	302.37
725.098	349.18
725.501	349.18
725.904	300.03
726.307	318.75
726.71	297.69
727.113	335.14
727.516	283.64
727.918	328.11
728.321	295.35
728.724	346.84
729.126	337.48
729.529	283.64
729.931	337.48
730.333	386.63
730.736	374.92
731.138	243.85
731.54	316.41
731.942	384.29
732.344	321.09
732.746	342.16
733.148	351.52
733.55	328.11
733.952	295.35
734.354	255.56
734.756	283.64
735.157	311.73
735.559	360.88
735.96	372.58
736.362	321.09
736.763	325.77
737.165	358.54
737.566	330.45
737.967	328.11
738.368	269.6
738.77	309.39
739.171	283.64
739.572	311.73
739.973	403.01
740.374	351.52
740.774	290.67
741.175	367.9
741.576	302.37
741.977	314.07
742.377	330.45
742.778	281.3
743.178	335.14
743.579	358.54
743.979	278.96
744.379	297.69
744.78	342.16
745.18	281.3
745.58	367.9
745.98	351.52
746.38	328.11
746.78	353.86
747.18	304.71
747.58	405.35
747.98	367.9
748.38	314.07
748.779	309.39
749.179	316.41
749.578	321.09
749.978	274.28
750.377	363.22
750.777	295.35
751.176	356.2
751.575	274.28
751.975	274.28
752.374	281.3
752.773	316.41
753.172	271.94
753.571	344.5
753.97	260.24
754.369	285.98
754.768	309.39
755.166	281.3
755.565	323.43
755.964	281.3
756.362	293.01
756.761	314.07
757.159	318.75
757.558	274.28
757.956	407.69
758.354	325.77
758.753	339.82
759.151	346.84
759.549	325.77
759.947	293.01
760.345	295.35
760.743	325.77
761.141	356.2
761.539	323.43
761.936	311.73
762.334	325.77
762.732	271.94
763.129	314.07
763.527	307.05
763.924	297.69
764.322	271.94
764.719	300.03
