Data from Al_FLMS009871__335__12-25-47-139.txt Node

Date: Fri Mar 08 12:25:47 CST 2024
User: pe5414po
Spectrometer: FLMS00987
Trigger mode: 0
Integration Time (sec): 1.000000E-1
Scans to average: 1
Electric dark correction enabled: true
Nonlinearity correction enabled: false
Boxcar width: 0
XAxis mode: Wavelengths
Number of Pixels in Spectrum: 2048
>>>>>Begin Spectral Data<<<<<
188.938	-63.63
189.409	-63.63
189.879	-63.63
190.349	-122.15
190.819	-101.08
191.29	-37.89
191.76	-75.34
192.23	-152.57
192.7	-108.1
193.17	-47.25
193.64	-70.65
194.109	-56.61
194.579	29.99
195.049	76.8
195.519	13.6
195.988	58.07
196.458	22.97
196.927	74.46
197.397	60.42
197.866	118.93
198.336	93.18
198.805	123.61
199.274	149.36
199.744	90.84
200.213	147.01
200.682	238.3
201.151	228.93
201.62	280.43
202.089	259.36
202.558	264.04
203.027	245.32
203.495	352.98
203.964	285.11
204.433	273.4
204.902	275.74
205.37	308.51
205.839	282.77
206.307	324.9
206.776	289.79
207.244	273.4
207.712	271.06
208.181	294.47
208.649	287.45
209.117	420.86
209.585	280.43
210.053	355.32
210.521	292.13
210.989	338.94
211.457	238.3
211.925	345.96
212.393	331.92
212.861	280.43
213.328	303.83
213.796	278.08
214.264	280.43
214.731	278.08
215.199	266.38
215.666	292.13
216.133	268.72
216.601	322.56
217.068	231.27
217.535	296.81
218.003	280.43
218.47	235.96
218.937	301.49
219.404	240.64
219.871	282.77
220.338	299.15
220.805	257.02
221.271	313.19
221.738	245.32
222.205	266.38
222.671	280.43
223.138	273.4
223.605	235.96
224.071	228.93
224.538	287.45
225.004	200.85
225.47	294.47
225.937	285.11
226.403	268.72
226.869	315.53
227.335	282.77
227.801	296.81
228.267	301.49
228.733	254.68
229.199	264.04
229.665	327.24
230.131	231.27
230.597	257.02
231.062	331.92
231.528	345.96
231.994	341.28
232.459	268.72
232.925	301.49
233.39	259.36
233.856	280.43
234.321	329.58
234.786	292.13
235.252	289.79
235.717	306.17
236.182	275.74
236.647	331.92
237.112	313.19
237.577	224.25
238.042	240.64
238.507	273.4
238.972	315.53
239.436	310.85
239.901	275.74
240.366	264.04
240.83	261.7
241.295	301.49
241.76	289.79
242.224	296.81
242.688	285.11
243.153	285.11
243.617	360
244.081	242.98
244.545	315.53
245.01	338.94
245.474	259.36
245.938	282.77
246.402	299.15
246.866	367.03
247.33	303.83
247.793	310.85
248.257	285.11
248.721	252.34
249.185	271.06
249.648	367.03
250.112	317.87
250.575	301.49
251.039	266.38
251.502	327.24
251.965	257.02
252.429	299.15
252.892	261.7
253.355	273.4
253.818	313.19
254.281	254.68
254.744	257.02
255.207	289.79
255.67	383.41
256.133	301.49
256.596	294.47
257.059	338.94
257.522	252.34
257.984	331.92
258.447	224.25
258.909	273.4
259.372	285.11
259.834	392.77
260.297	306.17
260.759	331.92
261.221	317.87
261.684	296.81
262.146	355.32
262.608	338.94
263.07	278.08
263.532	233.61
263.994	320.21
264.456	313.19
264.918	271.06
265.38	320.21
265.842	247.66
266.303	261.7
266.765	320.21
267.227	285.11
267.688	266.38
268.15	324.9
268.611	303.83
269.072	322.56
269.534	306.17
269.995	240.64
270.456	273.4
270.918	343.62
271.379	324.9
271.84	343.62
272.301	357.66
272.762	331.92
273.223	306.17
273.684	362.34
274.144	268.72
274.605	275.74
275.066	296.81
275.527	268.72
275.987	315.53
276.448	306.17
276.908	306.17
277.369	268.72
277.829	282.77
278.289	310.85
278.75	268.72
279.21	334.26
279.67	324.9
280.13	238.3
280.59	242.98
281.05	352.98
281.51	259.36
281.97	301.49
282.43	273.4
282.89	303.83
283.35	287.45
283.809	357.66
284.269	313.19
284.729	322.56
285.188	250
285.648	296.81
286.107	322.56
286.567	334.26
287.026	278.08
287.485	306.17
287.944	282.77
288.404	273.4
288.863	334.26
289.322	254.68
289.781	320.21
290.24	219.57
290.699	280.43
291.158	324.9
291.616	303.83
292.075	350.64
292.534	282.77
292.992	331.92
293.451	338.94
293.91	306.17
294.368	306.17
294.827	322.56
295.285	338.94
295.743	294.47
296.202	278.08
296.66	334.26
297.118	231.27
297.576	285.11
298.034	235.96
298.492	198.51
298.95	250
299.408	287.45
299.866	315.53
300.324	303.83
300.781	313.19
301.239	338.94
301.697	296.81
302.154	310.85
302.612	292.13
303.069	296.81
303.527	336.6
303.984	320.21
304.441	294.47
304.899	289.79
305.356	310.85
305.813	331.92
306.27	275.74
306.727	320.21
307.184	369.37
307.641	294.47
308.098	329.58
308.555	320.21
309.012	322.56
309.468	264.04
309.925	282.77
310.382	322.56
310.838	266.38
311.295	292.13
311.751	303.83
312.208	299.15
312.664	296.81
313.12	343.62
313.577	266.38
314.033	315.53
314.489	322.56
314.945	278.08
315.401	296.81
315.857	278.08
316.313	292.13
316.769	334.26
317.225	306.17
317.681	296.81
318.136	287.45
318.592	336.6
319.048	334.26
319.503	343.62
319.959	287.45
320.414	324.9
320.869	289.79
321.325	362.34
321.78	362.34
322.235	310.85
322.691	292.13
323.146	341.28
323.601	329.58
324.056	259.36
324.511	266.38
324.966	341.28
325.421	324.9
325.875	247.66
326.33	301.49
326.785	296.81
327.24	362.34
327.694	254.68
328.149	352.98
328.603	345.96
329.058	343.62
329.512	334.26
329.966	308.51
330.421	278.08
330.875	252.34
331.329	334.26
331.783	315.53
332.237	285.11
332.691	282.77
333.145	275.74
333.599	250
334.053	301.49
334.507	287.45
334.96	271.06
335.414	352.98
335.868	259.36
336.321	280.43
336.775	324.9
337.228	238.3
337.682	324.9
338.135	324.9
338.588	280.43
339.042	320.21
339.495	296.81
339.948	324.9
340.401	259.36
340.854	317.87
341.307	345.96
341.76	250
342.213	338.94
342.666	320.21
343.119	294.47
343.571	341.28
344.024	343.62
344.477	303.83
344.929	317.87
345.382	310.85
345.834	381.07
346.287	334.26
346.739	352.98
347.191	275.74
347.644	289.79
348.096	315.53
348.548	329.58
349	292.13
349.452	362.34
349.904	242.98
350.356	338.94
350.808	364.68
351.26	289.79
351.711	315.53
352.163	303.83
352.615	247.66
353.066	350.64
353.518	327.24
353.969	395.11
354.421	324.9
354.872	310.85
355.324	264.04
355.775	294.47
356.226	308.51
356.677	385.75
357.128	257.02
357.579	355.32
358.03	306.17
358.481	308.51
358.932	322.56
359.383	371.71
359.834	322.56
360.285	324.9
360.735	336.6
361.186	315.53
361.637	310.85
362.087	282.77
362.538	367.03
362.988	303.83
363.438	310.85
363.889	345.96
364.339	322.56
364.789	331.92
365.239	306.17
365.689	322.56
366.139	294.47
366.589	334.26
367.039	324.9
367.489	287.45
367.939	329.58
368.389	338.94
368.839	357.66
369.288	315.53
369.738	376.39
370.187	322.56
370.637	299.15
371.086	331.92
371.536	301.49
371.985	266.38
372.434	301.49
372.884	252.34
373.333	306.17
373.782	360
374.231	296.81
374.68	355.32
375.129	345.96
375.578	352.98
376.027	231.27
376.475	315.53
376.924	303.83
377.373	303.83
377.822	292.13
378.27	310.85
378.719	329.58
379.167	310.85
379.616	343.62
380.064	327.24
380.512	374.05
380.961	345.96
381.409	345.96
381.857	404.47
382.305	327.24
382.753	247.66
383.201	313.19
383.649	308.51
384.097	327.24
384.545	280.43
384.992	301.49
385.44	362.34
385.888	280.43
386.335	299.15
386.783	331.92
387.231	369.37
387.678	264.04
388.125	299.15
388.573	327.24
389.02	334.26
389.467	348.3
389.914	294.47
390.362	341.28
390.809	299.15
391.256	268.72
391.703	378.73
392.15	240.64
392.596	301.49
393.043	289.79
393.49	334.26
393.937	404.47
394.383	282.77
394.83	331.92
395.276	355.32
395.723	352.98
396.169	294.47
396.616	369.37
397.062	320.21
397.508	369.37
397.954	329.58
398.401	320.21
398.847	301.49
399.293	341.28
399.739	348.3
400.185	341.28
400.631	350.64
401.076	331.92
401.522	296.81
401.968	289.79
402.414	348.3
402.859	329.58
403.305	315.53
403.75	371.71
404.196	341.28
404.641	341.28
405.086	313.19
405.532	310.85
405.977	296.81
406.422	320.21
406.867	292.13
407.312	334.26
407.757	280.43
408.202	334.26
408.647	345.96
409.092	345.96
409.537	362.34
409.982	308.51
410.426	306.17
410.871	317.87
411.316	313.19
411.76	310.85
412.205	355.32
412.649	310.85
413.093	374.05
413.538	367.03
413.982	345.96
414.426	331.92
414.87	303.83
415.314	355.32
415.758	294.47
416.202	402.13
416.646	343.62
417.09	315.53
417.534	341.28
417.978	338.94
418.421	327.24
418.865	362.34
419.309	324.9
419.752	352.98
420.196	280.43
420.639	327.24
421.083	329.58
421.526	310.85
421.969	324.9
422.412	327.24
422.856	406.81
423.299	360
423.742	416.18
424.185	348.3
424.628	374.05
425.071	381.07
425.513	343.62
425.956	338.94
426.399	374.05
426.842	378.73
427.284	385.75
427.727	432.56
428.169	327.24
428.612	462.99
429.054	385.75
429.497	383.41
429.939	392.77
430.381	345.96
430.823	320.21
431.265	350.64
431.707	467.67
432.149	360
432.591	383.41
433.033	425.54
433.475	423.2
433.917	402.13
434.359	460.65
434.8	500.44
435.242	582.35
435.684	556.61
436.125	486.39
436.567	444.26
437.008	455.97
437.449	397.45
437.891	470.01
438.332	505.12
438.773	455.97
439.214	521.5
439.656	488.73
440.097	416.18
440.538	425.54
440.978	516.82
441.419	465.33
441.86	551.93
442.301	507.46
442.742	423.2
443.182	486.39
443.623	465.33
444.063	505.12
444.504	580.01
444.944	481.71
445.385	495.75
445.825	507.46
446.265	514.48
446.706	500.44
447.146	544.91
447.586	533.2
448.026	458.31
448.466	481.71
448.906	507.46
449.346	491.07
449.786	528.52
450.225	491.07
450.665	540.22
451.105	509.8
451.544	563.63
451.984	484.05
452.424	432.56
452.863	474.69
453.302	451.28
453.742	500.44
454.181	530.86
454.62	444.26
455.059	484.05
455.499	556.61
455.938	526.18
456.377	479.37
456.816	474.69
457.254	418.52
457.693	470.01
458.132	402.13
458.571	444.26
459.01	554.27
459.448	446.6
459.887	411.5
460.325	444.26
460.764	399.79
461.202	345.96
461.641	437.24
462.079	430.22
462.517	404.47
462.955	395.11
463.393	402.13
463.832	409.15
464.27	336.6
464.708	388.09
465.145	397.45
465.583	430.22
466.021	367.03
466.459	434.9
466.897	357.66
467.334	362.34
467.772	345.96
468.209	313.19
468.647	399.79
469.084	439.58
469.522	395.11
469.959	374.05
470.396	437.24
470.833	352.98
471.271	388.09
471.708	374.05
472.145	388.09
472.582	329.58
473.019	455.97
473.456	385.75
473.892	397.45
474.329	376.39
474.766	322.56
475.202	390.43
475.639	383.41
476.076	409.15
476.512	397.45
476.949	385.75
477.385	338.94
477.821	439.58
478.258	352.98
478.694	371.71
479.13	336.6
479.566	374.05
480.002	355.32
480.438	376.39
480.874	329.58
481.31	355.32
481.746	369.37
482.181	411.5
482.617	402.13
483.053	411.5
483.488	402.13
483.924	310.85
484.36	420.86
484.795	406.81
485.23	472.35
485.666	425.54
486.101	491.07
486.536	491.07
486.971	470.01
487.407	451.28
487.842	498.1
488.277	432.56
488.712	409.15
489.146	467.67
489.581	477.03
490.016	425.54
490.451	462.99
490.885	474.69
491.32	467.67
491.755	406.81
492.189	437.24
492.624	385.75
493.058	418.52
493.492	388.09
493.927	409.15
494.361	432.56
494.795	411.5
495.229	357.66
495.663	455.97
496.097	484.05
496.531	439.58
496.965	420.86
497.399	402.13
497.833	399.79
498.266	376.39
498.7	462.99
499.134	388.09
499.567	406.81
500.001	432.56
500.434	383.41
500.868	470.01
501.301	371.71
501.734	399.79
502.168	322.56
502.601	397.45
503.034	388.09
503.467	441.92
503.9	376.39
504.333	441.92
504.766	441.92
505.199	348.3
505.632	430.22
506.064	416.18
506.497	467.67
506.93	439.58
507.362	439.58
507.795	406.81
508.227	385.75
508.66	406.81
509.092	430.22
509.524	411.5
509.956	432.56
510.389	439.58
510.821	423.2
511.253	467.67
511.685	495.75
512.117	388.09
512.549	434.9
512.981	402.13
513.412	505.12
513.844	336.6
514.276	437.24
514.707	418.52
515.139	453.63
515.571	467.67
516.002	425.54
516.433	474.69
516.865	395.11
517.296	460.65
517.727	397.45
518.159	385.75
518.59	395.11
519.021	369.37
519.452	402.13
519.883	455.97
520.314	378.73
520.744	472.35
521.175	465.33
521.606	392.77
522.037	460.65
522.467	474.69
522.898	441.92
523.328	451.28
523.759	467.67
524.189	439.58
524.62	479.37
525.05	448.94
525.48	397.45
525.91	388.09
526.341	491.07
526.771	411.5
527.201	397.45
527.631	484.05
528.061	427.88
528.49	418.52
528.92	406.81
529.35	404.47
529.78	465.33
530.209	441.92
530.639	455.97
531.068	479.37
531.498	448.94
531.927	474.69
532.357	388.09
532.786	427.88
533.215	448.94
533.644	481.71
534.074	427.88
534.503	427.88
534.932	498.1
535.361	420.86
535.79	423.2
536.218	460.65
536.647	437.24
537.076	453.63
537.505	486.39
537.933	481.71
538.362	425.54
538.79	451.28
539.219	512.14
539.647	542.57
540.076	535.54
540.504	572.99
540.932	612.78
541.36	587.04
541.788	626.82
542.217	748.53
542.645	683
543.073	755.55
543.5	736.83
543.928	645.55
544.356	739.17
544.784	664.27
545.211	722.79
545.639	774.28
546.067	673.64
546.494	617.46
546.922	603.42
547.349	537.88
547.776	605.76
548.204	519.16
548.631	528.52
549.058	451.28
549.485	540.22
549.912	498.1
550.339	554.27
550.766	432.56
551.193	528.52
551.62	526.18
552.047	505.12
552.474	495.75
552.9	505.12
553.327	437.24
553.754	448.94
554.18	514.48
554.607	425.54
555.033	420.86
555.459	427.88
555.886	500.44
556.312	472.35
556.738	479.37
557.164	392.77
557.59	409.15
558.016	474.69
558.442	367.03
558.868	406.81
559.294	345.96
559.72	465.33
560.145	451.28
560.571	439.58
560.997	427.88
561.422	444.26
561.848	441.92
562.273	444.26
562.699	439.58
563.124	427.88
563.549	446.6
563.974	434.9
564.4	465.33
564.825	458.31
565.25	474.69
565.675	376.39
566.1	357.66
566.525	441.92
566.95	425.54
567.374	441.92
567.799	331.92
568.224	416.18
568.648	411.5
569.073	432.56
569.497	402.13
569.922	455.97
570.346	418.52
570.771	448.94
571.195	406.81
571.619	462.99
572.043	488.73
572.467	413.84
572.891	406.81
573.315	338.94
573.739	381.07
574.163	392.77
574.587	434.9
575.011	385.75
575.435	416.18
575.858	441.92
576.282	392.77
576.705	437.24
577.129	467.67
577.552	446.6
577.976	481.71
578.399	420.86
578.822	413.84
579.245	439.58
579.669	413.84
580.092	502.78
580.515	500.44
580.938	360
581.361	416.18
581.784	467.67
582.206	446.6
582.629	399.79
583.052	385.75
583.474	385.75
583.897	486.39
584.32	479.37
584.742	479.37
585.165	458.31
585.587	434.9
586.009	509.8
586.431	425.54
586.854	477.03
587.276	416.18
587.698	530.86
588.12	516.82
588.542	441.92
588.964	491.07
589.386	385.75
589.807	423.2
590.229	448.94
590.651	425.54
591.073	451.28
591.494	481.71
591.916	434.9
592.337	472.35
592.759	404.47
593.18	374.05
593.601	455.97
594.022	465.33
594.444	455.97
594.865	355.32
595.286	402.13
595.707	376.39
596.128	432.56
596.549	437.24
596.97	406.81
597.39	425.54
597.811	383.41
598.232	378.73
598.652	390.43
599.073	465.33
599.494	432.56
599.914	402.13
600.334	381.07
600.755	451.28
601.175	381.07
601.595	374.05
602.015	402.13
602.436	451.28
602.856	537.88
603.276	395.11
603.696	430.22
604.115	402.13
604.535	355.32
604.955	348.3
605.375	369.37
605.794	420.86
606.214	420.86
606.634	383.41
607.053	392.77
607.473	418.52
607.892	350.64
608.311	467.67
608.731	458.31
609.15	458.31
609.569	512.14
609.988	615.12
610.407	776.62
610.826	757.89
611.245	818.75
611.664	788.32
612.083	788.32
612.501	687.68
612.92	650.23
613.339	629.17
613.757	612.78
614.176	528.52
614.594	535.54
615.013	521.5
615.431	509.8
615.85	451.28
616.268	352.98
616.686	523.84
617.104	404.47
617.522	399.79
617.94	430.22
618.358	441.92
618.776	383.41
619.194	467.67
619.612	390.43
620.03	505.12
620.447	397.45
620.865	472.35
621.282	425.54
621.7	437.24
622.117	392.77
622.535	409.15
622.952	427.88
623.369	446.6
623.787	446.6
624.204	313.19
624.621	418.52
625.038	352.98
625.455	343.62
625.872	301.49
626.289	371.71
626.706	399.79
627.123	343.62
627.539	399.79
627.956	383.41
628.373	437.24
628.789	441.92
629.206	399.79
629.622	385.75
630.038	313.19
630.455	367.03
630.871	406.81
631.287	385.75
631.703	462.99
632.12	446.6
632.536	383.41
632.952	371.71
633.368	360
633.783	390.43
634.199	399.79
634.615	331.92
635.031	310.85
635.446	334.26
635.862	399.79
636.277	348.3
636.693	371.71
637.108	327.24
637.524	427.88
637.939	348.3
638.354	308.51
638.77	264.04
639.185	317.87
639.6	376.39
640.015	345.96
640.43	364.68
640.845	402.13
641.259	397.45
641.674	397.45
642.089	388.09
642.504	341.28
642.918	383.41
643.333	352.98
643.747	315.53
644.162	376.39
644.576	399.79
644.991	350.64
645.405	334.26
645.819	399.79
646.233	336.6
646.647	329.58
647.061	376.39
647.475	324.9
647.889	320.21
648.303	341.28
648.717	313.19
649.131	275.74
649.545	334.26
649.958	303.83
650.372	404.47
650.785	357.66
651.199	348.3
651.612	371.71
652.026	376.39
652.439	322.56
652.852	369.37
653.266	388.09
653.679	343.62
654.092	397.45
654.505	367.03
654.918	362.34
655.331	338.94
655.744	423.2
656.156	376.39
656.569	364.68
656.982	362.34
657.394	374.05
657.807	294.47
658.22	327.24
658.632	360
659.044	371.71
659.457	402.13
659.869	282.77
660.281	336.6
660.693	376.39
661.106	381.07
661.518	271.06
661.93	425.54
662.342	345.96
662.754	294.47
663.165	352.98
663.577	299.15
663.989	278.08
664.401	280.43
664.812	334.26
665.224	413.84
665.635	369.37
666.047	329.58
666.458	360
666.869	348.3
667.281	411.5
667.692	329.58
668.103	341.28
668.514	315.53
668.925	280.43
669.336	345.96
669.747	388.09
670.158	385.75
670.569	371.71
670.979	374.05
671.39	336.6
671.801	338.94
672.211	341.28
672.622	334.26
673.032	275.74
673.443	299.15
673.853	336.6
674.263	423.2
674.674	357.66
675.084	282.77
675.494	317.87
675.904	327.24
676.314	369.37
676.724	364.68
677.134	364.68
677.544	299.15
677.953	294.47
678.363	348.3
678.773	406.81
679.182	369.37
679.592	364.68
680.001	348.3
680.411	388.09
680.82	404.47
681.23	348.3
681.639	383.41
682.048	327.24
682.457	329.58
682.866	355.32
683.275	242.98
683.684	341.28
684.093	294.47
684.502	303.83
684.911	369.37
685.32	336.6
685.728	324.9
686.137	390.43
686.546	367.03
686.954	338.94
687.363	322.56
687.771	376.39
688.179	381.07
688.588	247.66
688.996	308.51
689.404	259.36
689.812	322.56
690.22	381.07
690.628	357.66
691.036	303.83
691.444	390.43
691.852	390.43
692.26	315.53
692.667	327.24
693.075	301.49
693.483	273.4
693.89	390.43
694.298	329.58
694.705	294.47
695.112	331.92
695.52	360
695.927	376.39
696.334	285.11
696.741	287.45
697.148	348.3
697.555	306.17
697.962	322.56
698.369	334.26
698.776	315.53
699.183	327.24
699.59	357.66
699.996	315.53
700.403	399.79
700.81	301.49
701.216	360
701.623	317.87
702.029	338.94
702.435	273.4
702.842	345.96
703.248	343.62
703.654	271.06
704.06	378.73
704.466	327.24
704.872	299.15
705.278	352.98
705.684	369.37
706.09	268.72
706.496	360
706.901	397.45
707.307	376.39
707.712	343.62
708.118	367.03
708.523	348.3
708.929	399.79
709.334	336.6
709.74	343.62
710.145	303.83
710.55	374.05
710.955	399.79
711.36	411.5
711.765	278.08
712.17	310.85
712.575	388.09
712.98	919.39
713.385	383.41
713.789	324.9
714.194	303.83
714.599	264.04
715.003	327.24
715.408	285.11
715.812	343.62
716.217	338.94
716.621	360
717.025	374.05
717.429	343.62
717.833	334.26
718.238	341.28
718.642	376.39
719.046	275.74
719.449	352.98
719.853	343.62
720.257	320.21
720.661	308.51
721.065	338.94
721.468	348.3
721.872	273.4
722.275	397.45
722.679	369.37
723.082	392.77
723.485	341.28
723.889	261.7
724.292	315.53
724.695	282.77
725.098	378.73
725.501	334.26
725.904	308.51
726.307	329.58
726.71	275.74
727.113	310.85
727.516	338.94
727.918	322.56
728.321	294.47
728.724	189.14
729.126	345.96
729.529	345.96
729.931	310.85
730.333	418.52
730.736	360
731.138	336.6
731.54	402.13
731.942	275.74
732.344	315.53
732.746	376.39
733.148	336.6
733.55	308.51
733.952	338.94
734.354	315.53
734.756	350.64
735.157	374.05
735.559	341.28
735.96	341.28
736.362	315.53
736.763	278.08
737.165	289.79
737.566	296.81
737.967	320.21
738.368	254.68
738.77	324.9
739.171	402.13
739.572	282.77
739.973	341.28
740.374	355.32
740.774	278.08
741.175	261.7
741.576	360
741.977	329.58
742.377	327.24
742.778	287.45
743.178	317.87
743.579	367.03
743.979	331.92
744.379	275.74
744.78	296.81
745.18	299.15
745.58	322.56
745.98	348.3
746.38	352.98
746.78	348.3
747.18	313.19
747.58	343.62
747.98	294.47
748.38	324.9
748.779	331.92
749.179	306.17
749.578	338.94
749.978	301.49
750.377	357.66
750.777	301.49
751.176	296.81
751.575	322.56
751.975	266.38
752.374	303.83
752.773	341.28
753.172	338.94
753.571	329.58
753.97	310.85
754.369	343.62
754.768	329.58
755.166	299.15
755.565	336.6
755.964	299.15
756.362	324.9
756.761	345.96
757.159	341.28
757.558	313.19
757.956	322.56
758.354	357.66
758.753	345.96
759.151	329.58
759.549	324.9
759.947	357.66
760.345	289.79
760.743	355.32
761.141	369.37
761.539	343.62
761.936	355.32
762.334	345.96
762.732	271.06
763.129	329.58
763.527	352.98
763.924	378.73
764.322	280.43
764.719	350.64
765.117	327.24
765.514	352.98
765.911	301.49
766.308	313.19
