Data from Al_FLMS009871__326__12-25-46-239.txt Node

Date: Fri Mar 08 12:25:46 CST 2024
User: pe5414po
Spectrometer: FLMS00987
Trigger mode: 0
Integration Time (sec): 1.000000E-1
Scans to average: 1
Electric dark correction enabled: true
Nonlinearity correction enabled: false
Boxcar width: 0
XAxis mode: Wavelengths
Number of Pixels in Spectrum: 2048
>>>>>Begin Spectral Data<<<<<
188.938	-88.94
189.409	-88.94
189.879	-88.94
190.349	-126.39
190.819	-121.71
191.29	-88.94
191.76	-46.81
192.23	-74.9
192.7	-102.98
193.17	-72.56
193.64	-70.22
194.109	-44.47
194.579	2.34
195.049	-44.47
195.519	49.15
195.988	9.36
196.458	95.96
196.927	67.88
197.397	91.28
197.866	105.32
198.336	124.05
198.805	152.13
199.274	198.95
199.744	131.07
200.213	170.86
200.682	227.03
201.151	241.08
201.62	273.84
202.089	315.97
202.558	311.29
203.027	259.8
203.495	374.49
203.964	390.87
204.433	346.4
204.902	367.46
205.37	435.34
205.839	442.36
206.307	402.57
206.776	433
207.244	358.1
207.712	444.7
208.181	433
208.649	451.72
209.117	493.85
209.585	507.9
210.053	505.56
210.521	535.98
210.989	498.53
211.457	622.58
211.925	676.41
212.393	624.92
212.861	559.39
213.328	634.29
213.796	641.31
214.264	634.29
214.731	594.5
215.199	627.26
215.666	589.82
216.133	655.35
216.601	711.52
217.068	706.84
217.535	732.59
218.003	737.27
218.47	770.04
218.937	788.76
219.404	851.96
219.871	1004.09
220.338	1095.37
220.805	999.41
221.271	788.76
221.738	727.91
222.205	704.5
222.671	653.01
223.138	627.26
223.605	662.37
224.071	683.44
224.538	854.3
225.004	1048.56
225.47	1252.19
225.937	1249.85
226.403	1224.1
226.869	1022.81
227.335	887.06
227.801	758.33
228.267	809.83
228.733	884.72
229.199	760.67
229.665	753.65
230.131	788.76
230.597	692.8
231.062	809.83
231.528	807.48
231.994	631.94
232.459	709.18
232.925	784.08
233.39	828.55
233.856	840.25
234.321	884.72
234.786	1067.28
235.252	1540.07
235.717	2167.34
236.182	2738.43
236.647	2841.41
237.112	2253.94
237.577	1516.67
238.042	1071.97
238.507	875.36
238.972	833.23
239.436	870.68
239.901	826.21
240.366	800.46
240.83	777.06
241.295	760.67
241.76	713.86
242.224	793.44
242.688	870.68
243.153	924.51
243.617	807.48
244.081	788.76
244.545	692.8
245.01	793.44
245.474	767.7
245.938	854.3
246.402	821.53
246.866	891.74
247.33	973.66
247.793	887.06
248.257	882.38
248.721	1011.11
249.185	1041.54
249.648	1401.98
250.112	1802.21
250.575	2235.21
251.039	2689.28
251.502	2605.02
251.965	2054.99
252.429	1736.68
252.892	1310.7
253.355	1018.13
253.818	849.61
254.281	945.58
254.744	866
255.207	990.05
255.67	1301.34
256.133	1760.08
256.596	2071.37
257.059	1994.14
257.522	1722.63
257.984	1172.61
258.447	919.83
258.909	1050.9
259.372	1083.67
259.834	905.79
260.297	877.7
260.759	905.79
261.221	933.87
261.684	1100.05
262.146	1432.41
262.608	1465.18
263.07	1338.79
263.532	1160.91
263.994	1039.2
264.456	1107.07
264.918	1348.15
265.38	1247.51
265.842	1125.8
266.303	952.6
266.765	812.17
267.227	704.5
267.688	704.5
268.15	676.41
268.611	655.35
269.072	561.73
269.534	615.56
269.995	624.92
270.456	709.18
270.918	601.52
271.379	685.78
271.84	655.35
272.301	678.76
272.762	720.89
273.223	727.91
273.684	919.83
274.144	849.61
274.605	805.14
275.066	901.11
275.527	720.89
275.987	629.6
276.448	697.48
276.908	671.73
277.369	676.41
277.829	681.1
278.289	915.15
278.75	1039.2
279.21	1273.25
279.67	1252.19
280.13	1268.57
280.59	1418.36
281.05	1626.67
281.51	1645.4
281.97	1249.85
282.43	828.55
282.89	786.42
283.35	734.93
283.809	744.29
284.269	744.29
284.729	734.93
285.188	723.23
285.648	706.84
286.107	683.44
286.567	856.64
287.026	1249.85
287.485	1528.37
287.944	1413.68
288.404	1256.87
288.863	880.04
289.322	678.76
289.781	676.41
290.24	671.73
290.699	681.1
291.158	667.05
291.616	608.54
292.075	629.6
292.534	674.07
292.992	650.67
293.451	667.05
293.91	629.6
294.368	615.56
294.827	610.88
295.285	585.13
295.743	638.97
296.202	568.75
296.66	650.67
297.118	573.43
297.576	543
298.034	578.11
298.492	613.22
298.95	561.73
299.408	653.01
299.866	610.88
300.324	575.77
300.781	636.63
301.239	582.79
301.697	650.67
302.154	653.01
302.612	683.44
303.069	699.82
303.527	713.86
303.984	702.16
304.441	842.59
304.899	891.74
305.356	1109.41
305.813	1139.84
306.27	1177.29
306.727	1425.39
307.184	2230.53
307.641	3721.45
308.098	4924.49
308.555	6043.26
309.012	6050.28
309.468	4964.28
309.925	2579.27
310.382	1233.46
310.838	875.36
311.295	723.23
311.751	657.69
312.208	706.84
312.664	561.73
313.12	683.44
313.577	643.65
314.033	657.69
314.489	641.31
314.945	685.78
315.401	746.63
315.857	734.93
316.313	727.91
316.769	697.48
317.225	662.37
317.681	711.52
318.136	730.25
318.592	753.65
319.048	613.22
319.503	589.82
319.959	601.52
320.414	615.56
320.869	575.77
321.325	547.69
321.78	578.11
322.235	592.16
322.691	543
323.146	552.37
323.601	617.9
324.056	645.99
324.511	596.84
324.966	634.29
325.421	578.11
325.875	545.34
326.33	606.2
326.785	627.26
327.24	655.35
327.694	744.29
328.149	578.11
328.603	514.92
329.058	512.58
329.512	498.53
329.966	585.13
330.421	571.09
330.875	521.94
331.329	510.24
331.783	545.34
332.237	491.51
332.691	568.75
333.145	603.86
333.599	514.92
334.053	545.34
334.507	557.05
334.96	538.32
335.414	547.69
335.868	540.66
336.321	638.97
336.775	594.5
337.228	636.63
337.682	608.54
338.135	472.79
338.588	554.71
339.042	589.82
339.495	550.03
339.948	624.92
340.401	538.32
340.854	587.47
341.307	545.34
341.76	533.64
342.213	580.45
342.666	580.45
343.119	566.41
343.571	587.47
344.024	662.37
344.477	592.16
344.929	587.47
345.382	566.41
345.834	552.37
346.287	613.22
346.739	535.98
347.191	510.24
347.644	543
348.096	517.26
348.548	533.64
349	629.6
349.452	608.54
349.904	559.39
350.356	559.39
350.808	573.43
351.26	559.39
351.711	606.2
352.163	622.58
352.615	636.63
353.066	587.47
353.518	660.03
353.969	650.67
354.421	641.31
354.872	657.69
355.324	627.26
355.775	702.16
356.226	758.33
356.677	819.19
357.128	999.41
357.579	1242.82
358.03	1687.53
358.481	2188.4
358.932	2265.64
359.383	1891.15
359.834	1362.19
360.285	1252.19
360.735	1095.37
361.186	1088.35
361.637	1032.18
362.087	819.19
362.538	716.2
362.988	648.33
363.438	638.97
363.889	662.37
364.339	683.44
364.789	706.84
365.239	653.01
365.689	615.56
366.139	599.18
366.589	578.11
367.039	538.32
367.489	669.39
367.939	575.77
368.389	601.52
368.839	575.77
369.288	599.18
369.738	617.9
370.187	631.94
370.637	620.24
371.086	631.94
371.536	606.2
371.985	643.65
372.434	660.03
372.884	554.71
373.333	660.03
373.782	645.99
374.231	617.9
374.68	697.48
375.129	610.88
375.578	547.69
376.027	531.3
376.475	554.71
376.924	636.63
377.373	568.75
377.822	599.18
378.27	510.24
378.719	592.16
379.167	568.75
379.616	552.37
380.064	592.16
380.512	702.16
380.961	653.01
381.409	674.07
381.857	559.39
382.305	667.05
382.753	653.01
383.201	617.9
383.649	690.46
384.097	599.18
384.545	620.24
384.992	627.26
385.44	737.27
385.888	748.97
386.335	741.95
386.783	699.82
387.231	695.14
387.678	674.07
388.125	681.1
388.573	606.2
389.02	622.58
389.467	587.47
389.914	648.33
390.362	781.74
390.809	753.65
391.256	758.33
391.703	753.65
392.15	727.91
392.596	1043.88
393.043	1792.85
393.49	2684.59
393.937	3880.61
394.383	4924.49
394.83	5219.39
395.276	4049.13
395.723	4241.05
396.169	6328.81
396.616	6827.34
397.062	4428.29
397.508	2143.93
397.954	1153.88
398.401	746.63
398.847	681.1
399.293	657.69
399.739	550.03
400.185	554.71
400.631	561.73
401.076	580.45
401.522	517.26
401.968	608.54
402.414	559.39
402.859	629.6
403.305	573.43
403.75	564.07
404.196	624.92
404.641	655.35
405.086	620.24
405.532	620.24
405.977	550.03
406.422	594.5
406.867	592.16
407.312	573.43
407.757	667.05
408.202	660.03
408.647	547.69
409.092	648.33
409.537	535.98
409.982	550.03
410.426	608.54
410.871	641.31
411.316	601.52
411.76	582.79
412.205	650.67
412.649	695.14
413.093	758.33
413.538	699.82
413.982	746.63
414.426	702.16
414.87	564.07
415.314	624.92
415.758	622.58
416.202	547.69
416.646	517.26
417.09	568.75
417.534	631.94
417.978	603.86
418.421	566.41
418.865	592.16
419.309	594.5
419.752	524.28
420.196	571.09
420.639	557.05
421.083	531.3
421.526	599.18
421.969	610.88
422.412	667.05
422.856	730.25
423.299	739.61
423.742	624.92
424.185	564.07
424.628	559.39
425.071	582.79
425.513	559.39
425.956	613.22
426.399	606.2
426.842	552.37
427.284	610.88
427.727	641.31
428.169	627.26
428.612	575.77
429.054	620.24
429.497	521.94
429.939	627.26
430.381	638.97
430.823	641.31
431.265	620.24
431.707	547.69
432.149	531.3
432.591	620.24
433.033	589.82
433.475	624.92
433.917	627.26
434.359	669.39
434.8	737.27
435.242	849.61
435.684	711.52
436.125	746.63
436.567	763.01
437.008	650.67
437.449	692.8
437.891	601.52
438.332	585.13
438.773	603.86
439.214	622.58
439.656	690.46
440.097	723.23
440.538	683.44
440.978	636.63
441.419	763.01
441.86	786.42
442.301	732.59
442.742	690.46
443.182	770.04
443.623	786.42
444.063	746.63
444.504	732.59
444.944	791.1
445.385	821.53
445.825	713.86
446.265	805.14
446.706	793.44
447.146	791.1
447.586	912.81
448.026	835.57
448.466	812.17
448.906	800.46
449.346	786.42
449.786	781.74
450.225	727.91
450.665	809.83
451.105	847.27
451.544	826.21
451.984	805.14
452.424	889.4
452.863	880.04
453.302	880.04
453.742	863.66
454.181	882.38
454.62	755.99
455.059	816.85
455.499	798.12
455.938	774.72
456.377	741.95
456.816	706.84
457.254	709.18
457.693	681.1
458.132	655.35
458.571	620.24
459.01	683.44
459.448	702.16
459.887	561.73
460.325	624.92
460.764	695.14
461.202	653.01
461.641	634.29
462.079	615.56
462.517	599.18
462.955	620.24
463.393	580.45
463.832	533.64
464.27	650.67
464.708	610.88
465.145	638.97
465.583	695.14
466.021	741.95
466.459	772.38
466.897	807.48
467.334	802.8
467.772	727.91
468.209	643.65
468.647	678.76
469.084	610.88
469.522	617.9
469.959	631.94
470.396	636.63
470.833	650.67
471.271	676.41
471.708	624.92
472.145	538.32
472.582	568.75
473.019	585.13
473.456	554.71
473.892	622.58
474.329	608.54
474.766	561.73
475.202	603.86
475.639	610.88
476.076	603.86
476.512	638.97
476.949	550.03
477.385	627.26
477.821	606.2
478.258	599.18
478.694	578.11
479.13	585.13
479.566	564.07
480.002	533.64
480.438	596.84
480.874	641.31
481.31	669.39
481.746	629.6
482.181	653.01
482.617	627.26
483.053	585.13
483.488	599.18
483.924	624.92
484.36	674.07
484.795	751.31
485.23	702.16
485.666	784.08
486.101	819.19
486.536	784.08
486.971	840.25
487.407	812.17
487.842	716.2
488.277	800.46
488.712	702.16
489.146	702.16
489.581	734.93
490.016	720.89
490.451	641.31
490.885	671.73
491.32	662.37
491.755	730.25
492.189	681.1
492.624	650.67
493.058	660.03
493.492	688.12
493.927	662.37
494.361	674.07
494.795	613.22
495.229	622.58
495.663	706.84
496.097	641.31
496.531	629.6
496.965	617.9
497.399	627.26
497.833	664.71
498.266	603.86
498.7	681.1
499.134	648.33
499.567	704.5
500.001	690.46
500.434	645.99
500.868	660.03
501.301	615.56
501.734	704.5
502.168	730.25
502.601	634.29
503.034	655.35
503.467	683.44
503.9	709.18
504.333	695.14
504.766	683.44
505.199	802.8
505.632	863.66
506.064	847.27
506.497	868.34
506.93	830.89
507.362	805.14
507.795	746.63
508.227	697.48
508.66	730.25
509.092	678.76
509.524	638.97
509.956	711.52
510.389	697.48
510.821	779.4
511.253	674.07
511.685	746.63
512.117	713.86
512.549	739.61
512.981	741.95
513.412	770.04
513.844	730.25
514.276	676.41
514.707	723.23
515.139	704.5
515.571	643.65
516.002	732.59
516.433	727.91
516.865	709.18
517.296	770.04
517.727	758.33
518.159	695.14
518.59	833.23
519.021	697.48
519.452	685.78
519.883	816.85
520.314	826.21
520.744	798.12
521.175	814.51
521.606	741.95
522.037	798.12
522.467	821.53
522.898	854.3
523.328	760.67
523.759	835.57
524.189	919.83
524.62	823.87
525.05	840.25
525.48	882.38
525.91	924.51
526.341	994.73
526.771	1050.9
527.201	1100.05
527.631	1177.29
528.061	1226.44
528.49	1373.89
528.92	1575.18
529.35	1909.88
529.78	3393.78
530.209	15131.56
530.639	30782.73
531.068	43217.99
531.498	63117.23
531.927	63117.23
532.357	63117.23
532.786	63117.23
533.215	63117.23
533.644	63117.23
534.074	36708.96
534.503	9518.96
534.932	4814.48
535.361	2869.5
535.79	1907.54
536.218	1621.99
536.647	1413.68
537.076	1233.46
537.505	1086.01
537.933	1048.56
538.362	971.32
538.79	844.93
539.219	823.87
539.647	816.85
540.076	826.21
540.504	809.83
540.932	816.85
541.36	868.34
541.788	891.74
542.217	929.19
542.645	1020.47
543.073	1004.09
543.5	964.3
543.928	1013.45
544.356	994.73
544.784	971.32
545.211	1013.45
545.639	882.38
546.067	896.43
546.494	985.37
546.922	823.87
547.349	807.48
547.776	779.4
548.204	720.89
548.631	732.59
549.058	727.91
549.485	713.86
549.912	662.37
550.339	741.95
550.766	615.56
551.193	697.48
551.62	638.97
552.047	613.22
552.474	751.31
552.9	655.35
553.327	571.09
553.754	657.69
554.18	613.22
554.607	601.52
555.033	592.16
555.459	582.79
555.886	620.24
556.312	627.26
556.738	624.92
557.164	535.98
557.59	620.24
558.016	667.05
558.442	624.92
558.868	627.26
559.294	653.01
559.72	662.37
560.145	671.73
560.571	664.71
560.997	610.88
561.422	636.63
561.848	557.05
562.273	608.54
562.699	615.56
563.124	582.79
563.549	615.56
563.974	589.82
564.4	601.52
564.825	631.94
565.25	517.26
565.675	589.82
566.1	559.39
566.525	695.14
566.95	543
567.374	634.29
567.799	634.29
568.224	636.63
568.648	727.91
569.073	610.88
569.497	697.48
569.922	697.48
570.346	830.89
570.771	734.93
571.195	709.18
571.619	617.9
572.043	697.48
572.467	585.13
572.891	660.03
573.315	650.67
573.739	648.33
574.163	533.64
574.587	543
575.011	599.18
575.435	533.64
575.858	601.52
576.282	648.33
576.705	582.79
577.129	587.47
577.552	601.52
577.976	564.07
578.399	587.47
578.822	653.01
579.245	608.54
579.669	559.39
580.092	582.79
580.515	543
580.938	641.31
581.361	601.52
581.784	561.73
582.206	568.75
582.629	507.9
583.052	603.86
583.474	615.56
583.897	615.56
584.32	561.73
584.742	507.9
585.165	561.73
585.587	505.56
586.009	580.45
586.431	578.11
586.854	470.45
587.276	620.24
587.698	582.79
588.12	671.73
588.542	711.52
588.964	873.02
589.386	1186.65
589.807	1378.58
590.229	1263.89
590.651	891.74
591.073	704.5
591.494	580.45
591.916	564.07
592.337	568.75
592.759	564.07
593.18	521.94
593.601	578.11
594.022	521.94
594.444	557.05
594.865	507.9
595.286	533.64
595.707	519.6
596.128	543
596.549	496.19
596.97	447.04
597.39	531.3
597.811	477.47
598.232	489.17
598.652	526.62
599.073	533.64
599.494	514.92
599.914	512.58
600.334	479.81
600.755	535.98
601.175	564.07
601.595	512.58
602.015	543
602.436	456.4
602.856	629.6
603.276	568.75
603.696	486.83
604.115	465.77
604.535	528.96
604.955	451.72
605.375	486.83
605.794	526.62
606.214	477.47
606.634	491.51
607.053	489.17
607.473	578.11
607.892	531.3
608.311	554.71
608.731	514.92
609.15	615.56
609.569	608.54
609.988	795.78
610.407	943.24
610.826	961.96
611.245	880.04
611.664	905.79
612.083	802.8
612.501	791.1
612.92	716.2
613.339	718.54
613.757	674.07
614.176	608.54
614.594	622.58
615.013	613.22
615.431	617.9
615.85	587.47
616.268	517.26
616.686	594.5
617.104	599.18
617.522	573.43
617.94	510.24
618.358	545.34
618.776	543
619.194	573.43
619.612	526.62
620.03	575.77
620.447	517.26
620.865	489.17
621.282	554.71
621.7	559.39
622.117	524.28
622.535	517.26
622.952	540.66
623.369	596.84
623.787	674.07
624.204	681.1
624.621	610.88
625.038	664.71
625.455	697.48
625.872	643.65
626.289	641.31
626.706	517.26
627.123	535.98
627.539	533.64
627.956	533.64
628.373	491.51
628.789	433
629.206	493.85
629.622	545.34
630.038	489.17
630.455	454.06
630.871	447.04
631.287	486.83
631.703	470.45
632.12	442.36
632.536	472.79
632.952	486.83
633.368	470.45
633.783	484.49
634.199	423.64
634.615	477.47
635.031	521.94
635.446	484.49
635.862	388.53
636.277	484.49
636.693	456.4
637.108	449.38
637.524	472.79
637.939	440.02
638.354	463.43
638.77	407.25
639.185	451.72
639.6	458.75
640.015	409.59
640.43	421.3
640.845	379.17
641.259	362.78
641.674	418.96
642.089	496.19
642.504	470.45
642.918	402.57
643.333	383.85
643.747	421.3
644.162	404.91
644.576	447.04
644.991	428.32
645.405	423.64
645.819	414.27
646.233	400.23
646.647	449.38
647.061	444.7
647.475	390.87
647.889	433
648.303	346.4
648.717	372.15
649.131	402.57
649.545	458.75
649.958	418.96
650.372	423.64
650.785	351.08
651.199	475.13
651.612	418.96
652.026	379.17
652.439	414.27
652.852	421.3
653.266	486.83
653.679	435.34
654.092	454.06
654.505	470.45
654.918	465.77
655.331	442.36
655.744	514.92
656.156	482.15
656.569	601.52
656.982	674.07
657.394	690.46
657.807	592.16
658.22	533.64
658.632	461.09
659.044	442.36
659.457	411.93
659.869	409.59
660.281	442.36
660.693	484.49
661.106	433
661.518	465.77
661.93	369.8
662.342	390.87
662.754	454.06
663.165	400.23
663.577	411.93
663.989	411.93
664.401	379.17
664.812	411.93
665.224	411.93
665.635	414.27
666.047	358.1
666.458	337.04
666.869	423.64
667.281	386.19
667.692	409.59
668.103	414.27
668.514	348.74
668.925	390.87
669.336	451.72
669.747	332.36
670.158	381.51
670.569	475.13
670.979	552.37
671.39	381.51
671.801	402.57
672.211	393.21
672.622	341.72
673.032	400.23
673.443	299.59
673.853	423.64
674.263	404.91
674.674	425.98
675.084	430.66
675.494	358.1
675.904	348.74
676.314	320.65
676.724	369.8
677.134	320.65
677.544	395.55
677.953	358.1
678.363	376.83
678.773	416.62
679.182	376.83
679.592	409.59
680.001	390.87
680.411	330.02
680.82	435.34
681.23	386.19
681.639	318.31
682.048	397.89
682.457	320.65
682.866	360.44
683.275	344.06
683.684	381.51
684.093	337.04
684.502	386.19
684.911	416.62
685.32	402.57
685.728	369.8
686.137	330.02
686.546	358.1
686.954	388.53
687.363	376.83
687.771	322.99
688.179	395.55
688.588	390.87
688.996	365.12
689.404	358.1
689.812	327.68
690.22	344.06
690.628	383.85
691.036	395.55
691.444	386.19
691.852	306.61
692.26	327.68
692.667	344.06
693.075	400.23
693.483	334.7
693.89	411.93
694.298	339.38
694.705	341.72
695.112	416.62
695.52	421.3
695.927	320.65
696.334	358.1
696.741	341.72
697.148	304.27
697.555	334.7
697.962	325.33
698.369	404.91
698.776	425.98
699.183	313.63
699.59	421.3
699.996	308.95
700.403	390.87
700.81	341.72
701.216	346.4
701.623	428.32
702.029	339.38
702.435	341.72
702.842	360.44
703.248	400.23
703.654	383.85
704.06	390.87
704.466	514.92
704.872	463.43
705.278	519.6
705.684	475.13
706.09	463.43
706.496	418.96
706.901	421.3
707.307	407.25
707.712	337.04
708.118	458.75
708.523	355.76
708.929	418.96
709.334	402.57
709.74	362.78
710.145	404.91
710.55	395.55
710.955	332.36
711.36	381.51
711.765	421.3
712.17	400.23
712.575	409.59
712.98	945.58
713.385	341.72
713.789	372.15
714.194	318.31
714.599	294.91
715.003	320.65
715.408	346.4
715.812	257.46
716.217	395.55
716.621	322.99
717.025	386.19
717.429	381.51
717.833	285.55
718.238	358.1
718.642	332.36
719.046	372.15
719.449	374.49
719.853	346.4
720.257	353.42
720.661	252.78
721.065	383.85
721.468	292.57
721.872	376.83
722.275	374.49
722.679	301.93
723.082	358.1
723.485	376.83
723.889	456.4
724.292	358.1
724.695	311.29
725.098	395.55
725.501	306.61
725.904	351.08
726.307	400.23
726.71	376.83
727.113	330.02
727.516	318.31
727.918	374.49
728.321	346.4
728.724	353.42
729.126	301.93
729.529	348.74
729.931	339.38
730.333	297.25
730.736	318.31
731.138	330.02
731.54	376.83
731.942	301.93
732.344	271.5
732.746	344.06
733.148	311.29
733.55	358.1
733.952	344.06
734.354	297.25
734.756	313.63
735.157	297.25
735.559	306.61
735.96	322.99
736.362	322.99
736.763	402.57
737.165	346.4
737.566	322.99
737.967	355.76
738.368	374.49
738.77	325.33
739.171	381.51
739.572	327.68
739.973	358.1
740.374	334.7
740.774	327.68
741.175	299.59
741.576	287.89
741.977	367.46
742.377	280.86
742.778	292.57
743.178	297.25
743.579	285.55
743.979	301.93
744.379	320.65
744.78	311.29
745.18	374.49
745.58	341.72
745.98	315.97
746.38	367.46
746.78	358.1
747.18	330.02
747.58	355.76
747.98	313.63
748.38	320.65
748.779	269.16
749.179	358.1
749.578	330.02
749.978	355.76
750.377	283.2
750.777	365.12
751.176	301.93
751.575	353.42
751.975	344.06
752.374	353.42
752.773	330.02
753.172	287.89
753.571	257.46
753.97	346.4
754.369	304.27
754.768	344.06
755.166	383.85
755.565	341.72
755.964	297.25
756.362	365.12
756.761	322.99
757.159	320.65
757.558	351.08
757.956	369.8
758.354	330.02
758.753	248.1
759.151	358.1
759.549	327.68
759.947	308.95
760.345	353.42
760.743	416.62
761.141	315.97
761.539	287.89
761.936	348.74
762.334	290.23
762.732	271.5
