Data from Al_FLMS009871__328__12-25-46-439.txt Node

Date: Fri Mar 08 12:25:46 CST 2024
User: pe5414po
Spectrometer: FLMS00987
Trigger mode: 0
Integration Time (sec): 1.000000E-1
Scans to average: 1
Electric dark correction enabled: true
Nonlinearity correction enabled: false
Boxcar width: 0
XAxis mode: Wavelengths
Number of Pixels in Spectrum: 2048
>>>>>Begin Spectral Data<<<<<
188.938	-84.41
189.409	-84.41
189.879	-84.41
190.349	-152.28
190.819	-105.47
191.29	-84.41
191.76	-77.38
192.23	-91.43
192.7	-82.07
193.17	-91.43
193.64	13.9
194.109	-39.94
194.579	-9.51
195.049	-70.36
195.519	-18.87
195.988	6.88
196.458	-30.57
196.927	159.01
197.397	114.54
197.866	149.65
198.336	151.99
198.805	156.67
199.274	140.29
199.744	163.69
200.213	173.05
200.682	159.01
201.151	250.29
201.62	130.92
202.089	194.12
202.558	283.06
203.027	201.14
203.495	273.7
203.964	280.72
204.433	292.42
204.902	247.95
205.37	269.02
205.839	261.99
206.307	290.08
206.776	322.85
207.244	287.74
207.712	339.23
208.181	280.72
208.649	257.31
209.117	311.14
209.585	269.02
210.053	290.08
210.521	304.12
210.989	240.93
211.457	247.95
211.925	292.42
212.393	327.53
212.861	273.7
213.328	329.87
213.796	226.89
214.264	294.76
214.731	233.91
215.199	290.08
215.666	261.99
216.133	304.12
216.601	264.33
217.068	247.95
217.535	252.63
218.003	304.12
218.47	283.06
218.937	201.14
219.404	297.1
219.871	205.82
220.338	329.87
220.805	271.36
221.271	287.74
221.738	264.33
222.205	290.08
222.671	261.99
223.138	271.36
223.605	297.1
224.071	247.95
224.538	224.55
225.004	229.23
225.47	210.5
225.937	208.16
226.403	226.89
226.869	266.67
227.335	236.25
227.801	254.97
228.267	336.89
228.733	271.36
229.199	292.42
229.665	276.04
230.131	294.76
230.597	327.53
231.062	233.91
231.528	252.63
231.994	250.29
232.459	287.74
232.925	177.73
233.39	219.86
233.856	252.63
234.321	301.78
234.786	325.19
235.252	313.49
235.717	325.19
236.182	257.31
236.647	252.63
237.112	287.74
237.577	222.2
238.042	278.38
238.507	301.78
238.972	247.95
239.436	353.27
239.901	339.23
240.366	245.61
240.83	266.67
241.295	226.89
241.76	245.61
242.224	224.55
242.688	196.46
243.153	269.02
243.617	313.49
244.081	243.27
244.545	304.12
245.01	257.31
245.474	301.78
245.938	292.42
246.402	332.21
246.866	264.33
247.33	278.38
247.793	229.23
248.257	243.27
248.721	311.14
249.185	341.57
249.648	259.65
250.112	259.65
250.575	308.8
251.039	247.95
251.502	362.64
251.965	315.83
252.429	283.06
252.892	266.67
253.355	339.23
253.818	226.89
254.281	381.36
254.744	266.67
255.207	240.93
255.67	304.12
256.133	271.36
256.596	222.2
257.059	259.65
257.522	292.42
257.984	222.2
258.447	322.85
258.909	348.59
259.372	269.02
259.834	261.99
260.297	283.06
260.759	283.06
261.221	332.21
261.684	287.74
262.146	252.63
262.608	233.91
263.07	257.31
263.532	283.06
263.994	231.57
264.456	276.04
264.918	271.36
265.38	264.33
265.842	229.23
266.303	311.14
266.765	259.65
267.227	266.67
267.688	313.49
268.15	250.29
268.611	247.95
269.072	269.02
269.534	222.2
269.995	254.97
270.456	259.65
270.918	339.23
271.379	264.33
271.84	245.61
272.301	285.4
272.762	236.25
273.223	313.49
273.684	210.5
274.144	299.44
274.605	269.02
275.066	276.04
275.527	301.78
275.987	315.83
276.448	257.31
276.908	311.14
277.369	297.1
277.829	280.72
278.289	250.29
278.75	343.91
279.21	304.12
279.67	334.55
280.13	280.72
280.59	278.38
281.05	292.42
281.51	306.46
281.97	320.51
282.43	308.8
282.89	287.74
283.35	318.17
283.809	362.64
284.269	322.85
284.729	332.21
285.188	259.65
285.648	294.76
286.107	240.93
286.567	325.19
287.026	259.65
287.485	287.74
287.944	320.51
288.404	320.51
288.863	325.19
289.322	283.06
289.781	287.74
290.24	299.44
290.699	313.49
291.158	339.23
291.616	271.36
292.075	339.23
292.534	294.76
292.992	306.46
293.451	294.76
293.91	327.53
294.368	322.85
294.827	236.25
295.285	297.1
295.743	306.46
296.202	266.67
296.66	297.1
297.118	266.67
297.576	278.38
298.034	273.7
298.492	208.16
298.95	278.38
299.408	269.02
299.866	301.78
300.324	308.8
300.781	280.72
301.239	320.51
301.697	269.02
302.154	280.72
302.612	261.99
303.069	290.08
303.527	271.36
303.984	264.33
304.441	322.85
304.899	290.08
305.356	327.53
305.813	332.21
306.27	308.8
306.727	297.1
307.184	360.3
307.641	247.95
308.098	311.14
308.555	290.08
309.012	278.38
309.468	320.51
309.925	315.83
310.382	299.44
310.838	290.08
311.295	325.19
311.751	290.08
312.208	287.74
312.664	322.85
313.12	215.18
313.577	343.91
314.033	294.76
314.489	348.59
314.945	297.1
315.401	285.4
315.857	297.1
316.313	278.38
316.769	261.99
317.225	306.46
317.681	283.06
318.136	311.14
318.592	311.14
319.048	247.95
319.503	334.55
319.959	308.8
320.414	299.44
320.869	304.12
321.325	353.27
321.78	334.55
322.235	290.08
322.691	341.57
323.146	334.55
323.601	343.91
324.056	287.74
324.511	247.95
324.966	353.27
325.421	240.93
325.875	292.42
326.33	297.1
326.785	311.14
327.24	269.02
327.694	329.87
328.149	294.76
328.603	292.42
329.058	299.44
329.512	264.33
329.966	266.67
330.421	283.06
330.875	294.76
331.329	308.8
331.783	280.72
332.237	311.14
332.691	285.4
333.145	269.02
333.599	290.08
334.053	304.12
334.507	313.49
334.96	306.46
335.414	306.46
335.868	327.53
336.321	325.19
336.775	320.51
337.228	320.51
337.682	367.32
338.135	271.36
338.588	348.59
339.042	341.57
339.495	271.36
339.948	327.53
340.401	397.74
340.854	280.72
341.307	339.23
341.76	360.3
342.213	355.62
342.666	273.7
343.119	355.62
343.571	341.57
344.024	287.74
344.477	313.49
344.929	252.63
345.382	285.4
345.834	273.7
346.287	325.19
346.739	320.51
347.191	322.85
347.644	320.51
348.096	266.67
348.548	315.83
349	308.8
349.452	297.1
349.904	276.04
350.356	287.74
350.808	315.83
351.26	313.49
351.711	343.91
352.163	325.19
352.615	287.74
353.066	245.61
353.518	292.42
353.969	311.14
354.421	292.42
354.872	292.42
355.324	285.4
355.775	327.53
356.226	290.08
356.677	280.72
357.128	280.72
357.579	208.16
358.03	327.53
358.481	360.3
358.932	294.76
359.383	229.23
359.834	285.4
360.285	336.89
360.735	315.83
361.186	315.83
361.637	259.65
362.087	297.1
362.538	313.49
362.988	254.97
363.438	273.7
363.889	301.78
364.339	334.55
364.789	269.02
365.239	308.8
365.689	276.04
366.139	294.76
366.589	301.78
367.039	343.91
367.489	276.04
367.939	325.19
368.389	320.51
368.839	290.08
369.288	311.14
369.738	325.19
370.187	245.61
370.637	304.12
371.086	322.85
371.536	308.8
371.985	325.19
372.434	276.04
372.884	339.23
373.333	301.78
373.782	336.89
374.231	254.97
374.68	292.42
375.129	285.4
375.578	285.4
376.027	276.04
376.475	322.85
376.924	397.74
377.373	287.74
377.822	292.42
378.27	320.51
378.719	320.51
379.167	339.23
379.616	348.59
380.064	247.95
380.512	318.17
380.961	294.76
381.409	304.12
381.857	341.57
382.305	269.02
382.753	304.12
383.201	386.04
383.649	264.33
384.097	287.74
384.545	287.74
384.992	339.23
385.44	336.89
385.888	355.62
386.335	306.46
386.783	362.64
387.231	304.12
387.678	327.53
388.125	290.08
388.573	292.42
389.02	390.72
389.467	315.83
389.914	336.89
390.362	294.76
390.809	299.44
391.256	297.1
391.703	301.78
392.15	322.85
392.596	297.1
393.043	280.72
393.49	320.51
393.937	322.85
394.383	264.33
394.83	278.38
395.276	327.53
395.723	308.8
396.169	273.7
396.616	290.08
397.062	329.87
397.508	271.36
397.954	308.8
398.401	346.25
398.847	336.89
399.293	346.25
399.739	313.49
400.185	276.04
400.631	346.25
401.076	346.25
401.522	327.53
401.968	329.87
402.414	334.55
402.859	332.21
403.305	346.25
403.75	379.02
404.196	322.85
404.641	320.51
405.086	376.68
405.532	304.12
405.977	292.42
406.422	250.29
406.867	322.85
407.312	276.04
407.757	334.55
408.202	294.76
408.647	334.55
409.092	334.55
409.537	264.33
409.982	329.87
410.426	353.27
410.871	386.04
411.316	329.87
411.76	247.95
412.205	280.72
412.649	339.23
413.093	341.57
413.538	266.67
413.982	287.74
414.426	360.3
414.87	280.72
415.314	287.74
415.758	362.64
416.202	301.78
416.646	325.19
417.09	336.89
417.534	297.1
417.978	325.19
418.421	257.31
418.865	315.83
419.309	318.17
419.752	386.04
420.196	334.55
420.639	343.91
421.083	362.64
421.526	294.76
421.969	332.21
422.412	306.46
422.856	353.27
423.299	320.51
423.742	273.7
424.185	287.74
424.628	376.68
425.071	353.27
425.513	360.3
425.956	332.21
426.399	334.55
426.842	411.79
427.284	414.13
427.727	353.27
428.169	357.96
428.612	269.02
429.054	355.62
429.497	439.87
429.939	334.55
430.381	393.06
430.823	357.96
431.265	388.38
431.707	435.19
432.149	287.74
432.591	444.56
433.033	402.43
433.475	414.13
433.917	287.74
434.359	437.53
434.8	479.66
435.242	519.45
435.684	514.77
436.125	521.79
436.567	451.58
437.008	467.96
437.449	400.09
437.891	435.19
438.332	470.3
438.773	411.79
439.214	425.83
439.656	446.9
440.097	456.26
440.538	491.37
440.978	444.56
441.419	404.77
441.86	498.39
442.301	540.52
442.742	479.66
443.182	517.11
443.623	472.64
444.063	486.69
444.504	493.71
444.944	528.81
445.385	467.96
445.825	498.39
446.265	514.77
446.706	512.43
447.146	465.62
447.586	542.86
448.026	538.18
448.466	477.32
448.906	512.43
449.346	404.77
449.786	486.69
450.225	512.43
450.665	528.81
451.105	545.2
451.544	458.6
451.984	482
452.424	465.62
452.863	484.34
453.302	463.28
453.742	491.37
454.181	386.04
454.62	493.71
455.059	493.71
455.499	451.58
455.938	423.49
456.377	421.15
456.816	460.94
457.254	437.53
457.693	407.11
458.132	411.79
458.571	439.87
459.01	458.6
459.448	418.81
459.887	362.64
460.325	449.24
460.764	416.47
461.202	383.7
461.641	428.17
462.079	460.94
462.517	393.06
462.955	400.09
463.393	416.47
463.832	376.68
464.27	388.38
464.708	416.47
465.145	456.26
465.583	395.4
466.021	411.79
466.459	334.55
466.897	367.32
467.334	442.21
467.772	369.66
468.209	430.51
468.647	423.49
469.084	327.53
469.522	346.25
469.959	381.36
470.396	360.3
470.833	364.98
471.271	364.98
471.708	346.25
472.145	446.9
472.582	390.72
473.019	364.98
473.456	332.21
473.892	322.85
474.329	381.36
474.766	414.13
475.202	383.7
475.639	348.59
476.076	381.36
476.512	306.46
476.949	313.49
477.385	397.74
477.821	397.74
478.258	343.91
478.694	386.04
479.13	325.19
479.566	339.23
480.002	423.49
480.438	372
480.874	383.7
481.31	339.23
481.746	346.25
482.181	346.25
482.617	418.81
483.053	350.93
483.488	416.47
483.924	402.43
484.36	421.15
484.795	423.49
485.23	460.94
485.666	460.94
486.101	430.51
486.536	486.69
486.971	397.74
487.407	341.57
487.842	407.11
488.277	374.34
488.712	435.19
489.146	376.68
489.581	465.62
490.016	400.09
490.451	397.74
490.885	437.53
491.32	421.15
491.755	372
492.189	376.68
492.624	404.77
493.058	376.68
493.492	430.51
493.927	451.58
494.361	449.24
494.795	435.19
495.229	463.28
495.663	435.19
496.097	425.83
496.531	393.06
496.965	357.96
497.399	339.23
497.833	414.13
498.266	381.36
498.7	411.79
499.134	402.43
499.567	416.47
500.001	421.15
500.434	381.36
500.868	402.43
501.301	313.49
501.734	357.96
502.168	350.93
502.601	423.49
503.034	379.02
503.467	456.26
503.9	369.66
504.333	404.77
504.766	411.79
505.199	432.85
505.632	372
506.064	395.4
506.497	402.43
506.93	411.79
507.362	463.28
507.795	357.96
508.227	369.66
508.66	397.74
509.092	444.56
509.524	343.91
509.956	383.7
510.389	414.13
510.821	404.77
511.253	348.59
511.685	432.85
512.117	346.25
512.549	430.51
512.981	388.38
513.412	411.79
513.844	411.79
514.276	402.43
514.707	477.32
515.139	479.66
515.571	453.92
516.002	416.47
516.433	430.51
516.865	439.87
517.296	407.11
517.727	414.13
518.159	428.17
518.59	514.77
519.021	425.83
519.452	423.49
519.883	477.32
520.314	442.21
520.744	425.83
521.175	400.09
521.606	350.93
522.037	407.11
522.467	374.34
522.898	437.53
523.328	437.53
523.759	442.21
524.189	446.9
524.62	435.19
525.05	404.77
525.48	386.04
525.91	463.28
526.341	451.58
526.771	456.26
527.201	407.11
527.631	421.15
528.061	442.21
528.49	439.87
528.92	348.59
529.35	372
529.78	430.51
530.209	364.98
530.639	449.24
531.068	467.96
531.498	465.62
531.927	430.51
532.357	379.02
532.786	472.64
533.215	425.83
533.644	437.53
534.074	416.47
534.503	474.98
534.932	451.58
535.361	362.64
535.79	418.81
536.218	386.04
536.647	400.09
537.076	482
537.505	386.04
537.933	498.39
538.362	425.83
538.79	498.39
539.219	474.98
539.647	500.73
540.076	421.15
540.504	456.26
540.932	589.67
541.36	643.5
541.788	657.54
542.217	669.25
542.645	723.08
543.073	725.42
543.5	783.93
543.928	669.25
544.356	704.35
544.784	753.51
545.211	783.93
545.639	737.12
546.067	690.31
546.494	622.44
546.922	568.6
547.349	563.92
547.776	549.88
548.204	493.71
548.631	545.2
549.058	428.17
549.485	453.92
549.912	484.34
550.339	432.85
550.766	486.69
551.193	470.3
551.62	479.66
552.047	460.94
552.474	496.05
552.9	482
553.327	439.87
553.754	477.32
554.18	510.09
554.607	425.83
555.033	489.03
555.459	416.47
555.886	435.19
556.312	418.81
556.738	479.66
557.164	407.11
557.59	428.17
558.016	437.53
558.442	465.62
558.868	472.64
559.294	460.94
559.72	489.03
560.145	357.96
560.571	414.13
560.997	437.53
561.422	435.19
561.848	397.74
562.273	374.34
562.699	341.57
563.124	400.09
563.549	437.53
563.974	386.04
564.4	407.11
564.825	390.72
565.25	409.45
565.675	414.13
566.1	402.43
566.525	428.17
566.95	428.17
567.374	414.13
567.799	482
568.224	360.3
568.648	414.13
569.073	395.4
569.497	383.7
569.922	428.17
570.346	432.85
570.771	439.87
571.195	477.32
571.619	402.43
572.043	484.34
572.467	407.11
572.891	374.34
573.315	449.24
573.739	416.47
574.163	381.36
574.587	498.39
575.011	458.6
575.435	402.43
575.858	437.53
576.282	414.13
576.705	425.83
577.129	379.02
577.552	435.19
577.976	446.9
578.399	430.51
578.822	432.85
579.245	423.49
579.669	418.81
580.092	418.81
580.515	411.79
580.938	444.56
581.361	421.15
581.784	460.94
582.206	381.36
582.629	458.6
583.052	474.98
583.474	449.24
583.897	407.11
584.32	442.21
584.742	430.51
585.165	489.03
585.587	416.47
586.009	451.58
586.431	425.83
586.854	467.96
587.276	435.19
587.698	460.94
588.12	449.24
588.542	442.21
588.964	439.87
589.386	479.66
589.807	444.56
590.229	397.74
590.651	402.43
591.073	463.28
591.494	369.66
591.916	484.34
592.337	432.85
592.759	496.05
593.18	442.21
593.601	432.85
594.022	381.36
594.444	374.34
594.865	346.25
595.286	407.11
595.707	383.7
596.128	414.13
596.549	449.24
596.97	439.87
597.39	334.55
597.811	393.06
598.232	425.83
598.652	444.56
599.073	430.51
599.494	414.13
599.914	463.28
600.334	428.17
600.755	390.72
601.175	439.87
601.595	355.62
602.015	423.49
602.436	339.23
602.856	559.24
603.276	355.62
603.696	416.47
604.115	322.85
604.535	482
604.955	353.27
605.375	425.83
605.794	404.77
606.214	437.53
606.634	367.32
607.053	362.64
607.473	339.23
607.892	407.11
608.311	353.27
608.731	430.51
609.15	418.81
609.569	599.03
609.988	713.72
610.407	779.25
610.826	758.19
611.245	788.61
611.664	753.51
612.083	720.74
612.501	650.52
612.92	655.2
613.339	622.44
613.757	526.47
614.176	463.28
614.594	549.88
615.013	477.32
615.431	493.71
615.85	430.51
616.268	386.04
616.686	451.58
617.104	439.87
617.522	456.26
617.94	388.38
618.358	444.56
618.776	439.87
619.194	407.11
619.612	423.49
620.03	381.36
620.447	390.72
620.865	477.32
621.282	437.53
621.7	402.43
622.117	376.68
622.535	376.68
622.952	393.06
623.369	320.51
623.787	397.74
624.204	407.11
624.621	388.38
625.038	383.7
625.455	416.47
625.872	311.14
626.289	334.55
626.706	386.04
627.123	336.89
627.539	348.59
627.956	383.7
628.373	362.64
628.789	318.17
629.206	327.53
629.622	341.57
630.038	388.38
630.455	353.27
630.871	421.15
631.287	388.38
631.703	395.4
632.12	334.55
632.536	334.55
632.952	393.06
633.368	395.4
633.783	346.25
634.199	320.51
634.615	306.46
635.031	346.25
635.446	318.17
635.862	346.25
636.277	360.3
636.693	367.32
637.108	332.21
637.524	327.53
637.939	360.3
638.354	325.19
638.77	332.21
639.185	357.96
639.6	308.8
640.015	320.51
640.43	372
640.845	348.59
641.259	299.44
641.674	341.57
642.089	341.57
642.504	339.23
642.918	374.34
643.333	341.57
643.747	386.04
644.162	297.1
644.576	369.66
644.991	252.63
645.405	367.32
645.819	332.21
646.233	320.51
646.647	320.51
647.061	346.25
647.475	304.12
647.889	395.4
648.303	374.34
648.717	318.17
649.131	318.17
649.545	292.42
649.958	341.57
650.372	360.3
650.785	341.57
651.199	364.98
651.612	332.21
652.026	311.14
652.439	325.19
652.852	287.74
653.266	402.43
653.679	362.64
654.092	369.66
654.505	386.04
654.918	325.19
655.331	304.12
655.744	343.91
656.156	357.96
656.569	318.17
656.982	315.83
657.394	343.91
657.807	320.51
658.22	313.49
658.632	276.04
659.044	339.23
659.457	320.51
659.869	346.25
660.281	217.52
660.693	362.64
661.106	346.25
661.518	393.06
661.93	341.57
662.342	276.04
662.754	372
663.165	341.57
663.577	322.85
663.989	334.55
664.401	334.55
664.812	311.14
665.224	367.32
665.635	348.59
666.047	353.27
666.458	301.78
666.869	341.57
667.281	313.49
667.692	341.57
668.103	325.19
668.514	393.06
668.925	386.04
669.336	381.36
669.747	301.78
670.158	306.46
670.569	369.66
670.979	332.21
671.39	320.51
671.801	327.53
672.211	334.55
672.622	287.74
673.032	362.64
673.443	341.57
673.853	318.17
674.263	376.68
674.674	367.32
675.084	301.78
675.494	315.83
675.904	355.62
676.314	294.76
676.724	327.53
677.134	294.76
677.544	292.42
677.953	318.17
678.363	325.19
678.773	369.66
679.182	339.23
679.592	304.12
680.001	261.99
680.411	273.7
680.82	329.87
681.23	313.49
681.639	311.14
682.048	336.89
682.457	266.67
682.866	318.17
683.275	311.14
683.684	383.7
684.093	341.57
684.502	311.14
684.911	369.66
685.32	346.25
685.728	346.25
686.137	357.96
686.546	327.53
686.954	287.74
687.363	332.21
687.771	355.62
688.179	369.66
688.588	276.04
688.996	339.23
689.404	315.83
689.812	336.89
690.22	348.59
690.628	287.74
691.036	304.12
691.444	250.29
691.852	322.85
692.26	388.38
692.667	311.14
693.075	320.51
693.483	306.46
693.89	339.23
694.298	367.32
694.705	285.4
695.112	346.25
695.52	297.1
695.927	336.89
696.334	261.99
696.741	231.57
697.148	313.49
697.555	297.1
697.962	350.93
698.369	360.3
698.776	301.78
699.183	353.27
699.59	278.38
699.996	301.78
700.403	348.59
700.81	341.57
701.216	334.55
701.623	311.14
702.029	355.62
702.435	294.76
702.842	306.46
703.248	278.38
703.654	350.93
704.06	369.66
704.466	254.97
704.872	376.68
705.278	400.09
705.684	325.19
706.09	386.04
706.496	336.89
706.901	266.67
707.307	325.19
707.712	357.96
708.118	304.12
708.523	332.21
708.929	297.1
709.334	301.78
709.74	379.02
710.145	283.06
710.55	278.38
710.955	320.51
711.36	322.85
711.765	386.04
712.17	374.34
712.575	372
712.98	959.47
713.385	357.96
713.789	271.36
714.194	294.76
714.599	226.89
715.003	287.74
715.408	290.08
715.812	294.76
716.217	395.4
716.621	332.21
717.025	325.19
717.429	341.57
717.833	301.78
718.238	327.53
718.642	278.38
719.046	357.96
719.449	339.23
719.853	290.08
720.257	290.08
720.661	339.23
721.065	266.67
721.468	360.3
721.872	364.98
722.275	313.49
722.679	336.89
723.082	343.91
723.485	343.91
723.889	308.8
724.292	320.51
724.695	374.34
725.098	292.42
725.501	329.87
725.904	276.04
726.307	364.98
726.71	290.08
727.113	299.44
727.516	313.49
727.918	259.65
728.321	332.21
728.724	336.89
729.126	294.76
729.529	306.46
729.931	311.14
730.333	329.87
730.736	369.66
731.138	259.65
731.54	264.33
731.942	280.72
732.344	332.21
732.746	297.1
733.148	320.51
733.55	299.44
733.952	285.4
734.354	334.55
734.756	348.59
735.157	285.4
735.559	294.76
735.96	273.7
736.362	348.59
736.763	327.53
737.165	320.51
737.566	283.06
737.967	304.12
738.368	257.31
738.77	304.12
739.171	318.17
739.572	247.95
739.973	339.23
740.374	278.38
740.774	329.87
741.175	379.02
741.576	226.89
741.977	257.31
742.377	301.78
742.778	332.21
743.178	339.23
743.579	322.85
743.979	269.02
744.379	294.76
744.78	287.74
745.18	280.72
745.58	301.78
745.98	362.64
746.38	287.74
746.78	357.96
747.18	308.8
747.58	271.36
747.98	311.14
748.38	297.1
748.779	355.62
749.179	336.89
749.578	336.89
749.978	364.98
750.377	329.87
750.777	318.17
751.176	327.53
751.575	290.08
751.975	346.25
752.374	308.8
752.773	341.57
753.172	271.36
753.571	304.12
753.97	318.17
754.369	308.8
754.768	287.74
755.166	327.53
755.565	297.1
755.964	308.8
756.362	299.44
756.761	315.83
757.159	308.8
757.558	334.55
757.956	266.67
758.354	299.44
758.753	325.19
759.151	313.49
759.549	315.83
759.947	325.19
760.345	322.85
760.743	315.83
761.141	315.83
761.539	292.42
761.936	325.19
762.334	339.23
762.732	329.87
763.129	269.02
763.527	294.76
763.924	343.91
764.322	336.89
764.719	355.62
765.117	315.83
765.514	372
