Data from Al_FLMS009871__323__12-25-45-939.txt Node

Date: Fri Mar 08 12:25:45 CST 2024
User: pe5414po
Spectrometer: FLMS00987
Trigger mode: 0
Integration Time (sec): 1.000000E-1
Scans to average: 1
Electric dark correction enabled: true
Nonlinearity correction enabled: false
Boxcar width: 0
XAxis mode: Wavelengths
Number of Pixels in Spectrum: 2048
>>>>>Begin Spectral Data<<<<<
188.938	-77.53
189.409	-77.53
189.879	-77.53
190.349	-119.66
190.819	-136.04
191.29	-72.85
191.76	-100.94
192.23	-131.36
192.7	-122
193.17	-91.57
193.64	-47.1
194.109	-14.34
194.579	-9.65
195.049	-9.65
195.519	41.84
195.988	60.56
196.458	62.9
196.927	79.29
197.397	130.78
197.866	123.76
198.336	100.35
198.805	151.84
199.274	137.8
199.744	135.46
200.213	172.91
200.682	151.84
201.151	238.44
201.62	184.61
202.089	250.14
202.558	282.91
203.027	266.53
203.495	203.33
203.964	315.68
204.433	189.29
204.902	322.7
205.37	278.23
205.839	315.68
206.307	301.64
206.776	261.85
207.244	278.23
207.712	301.64
208.181	226.74
208.649	294.61
209.117	247.8
209.585	329.72
210.053	275.89
210.521	271.21
210.989	282.91
211.457	296.96
211.925	294.61
212.393	301.64
212.861	308.66
213.328	303.98
213.796	231.42
214.264	254.83
214.731	261.85
215.199	247.8
215.666	250.14
216.133	273.55
216.601	299.3
217.068	205.67
217.535	240.78
218.003	296.96
218.47	294.61
218.937	257.17
219.404	318.02
219.871	259.51
220.338	203.33
220.805	329.72
221.271	212.7
221.738	257.17
222.205	273.55
222.671	250.14
223.138	215.04
223.605	212.7
224.071	264.19
224.538	247.8
225.004	254.83
225.47	247.8
225.937	236.1
226.403	285.25
226.869	208.02
227.335	252.49
227.801	254.83
228.267	289.93
228.733	217.38
229.199	294.61
229.665	196.31
230.131	257.17
230.597	238.44
231.062	257.17
231.528	259.51
231.994	210.36
232.459	343.77
232.925	231.42
233.39	329.72
233.856	236.1
234.321	282.91
234.786	198.65
235.252	226.74
235.717	243.12
236.182	215.04
236.647	233.76
237.112	233.76
237.577	247.8
238.042	243.12
238.507	266.53
238.972	229.08
239.436	215.04
239.901	231.42
240.366	271.21
240.83	278.23
241.295	292.27
241.76	266.53
242.224	250.14
242.688	219.72
243.153	259.51
243.617	205.67
244.081	273.55
244.545	254.83
245.01	175.25
245.474	287.59
245.938	275.89
246.402	275.89
246.866	247.8
247.33	259.51
247.793	264.19
248.257	250.14
248.721	320.36
249.185	306.32
249.648	268.87
250.112	294.61
250.575	264.19
251.039	233.76
251.502	254.83
251.965	292.27
252.429	212.7
252.892	233.76
253.355	332.06
253.818	336.74
254.281	346.11
254.744	282.91
255.207	308.66
255.67	273.55
256.133	233.76
256.596	238.44
257.059	303.98
257.522	238.44
257.984	243.12
258.447	313.34
258.909	273.55
259.372	226.74
259.834	203.33
260.297	280.57
260.759	245.46
261.221	271.21
261.684	215.04
262.146	306.32
262.608	215.04
263.07	247.8
263.532	289.93
263.994	271.21
264.456	259.51
264.918	271.21
265.38	222.06
265.842	285.25
266.303	294.61
266.765	282.91
267.227	224.4
267.688	320.36
268.15	367.17
268.611	259.51
269.072	299.3
269.534	266.53
269.995	257.17
270.456	275.89
270.918	306.32
271.379	308.66
271.84	287.59
272.301	254.83
272.762	240.78
273.223	264.19
273.684	243.12
274.144	278.23
274.605	275.89
275.066	268.87
275.527	289.93
275.987	247.8
276.448	245.46
276.908	273.55
277.369	282.91
277.829	280.57
278.289	296.96
278.75	271.21
279.21	275.89
279.67	280.57
280.13	266.53
280.59	254.83
281.05	332.06
281.51	245.46
281.97	303.98
282.43	320.36
282.89	346.11
283.35	226.74
283.809	275.89
284.269	296.96
284.729	355.47
285.188	299.3
285.648	280.57
286.107	268.87
286.567	236.1
287.026	257.17
287.485	261.85
287.944	294.61
288.404	273.55
288.863	285.25
289.322	329.72
289.781	289.93
290.24	254.83
290.699	318.02
291.158	348.45
291.616	271.21
292.075	318.02
292.534	233.76
292.992	303.98
293.451	346.11
293.91	280.57
294.368	308.66
294.827	275.89
295.285	339.09
295.743	327.38
296.202	261.85
296.66	294.61
297.118	292.27
297.576	308.66
298.034	280.57
298.492	308.66
298.95	329.72
299.408	252.49
299.866	350.79
300.324	261.85
300.781	247.8
301.239	275.89
301.697	275.89
302.154	334.4
302.612	275.89
303.069	245.46
303.527	296.96
303.984	296.96
304.441	236.1
304.899	254.83
305.356	294.61
305.813	193.97
306.27	292.27
306.727	289.93
307.184	303.98
307.641	343.77
308.098	273.55
308.555	285.25
309.012	294.61
309.468	287.59
309.925	226.74
310.382	350.79
310.838	329.72
311.295	259.51
311.751	282.91
312.208	247.8
312.664	306.32
313.12	280.57
313.577	315.68
314.033	266.53
314.489	334.4
314.945	245.46
315.401	313.34
315.857	292.27
316.313	343.77
316.769	273.55
317.225	313.34
317.681	273.55
318.136	285.25
318.592	287.59
319.048	266.53
319.503	311
319.959	224.4
320.414	278.23
320.869	292.27
321.325	301.64
321.78	364.83
322.235	327.38
322.691	268.87
323.146	303.98
323.601	303.98
324.056	322.7
324.511	299.3
324.966	264.19
325.421	362.49
325.875	264.19
326.33	301.64
326.785	336.74
327.24	289.93
327.694	254.83
328.149	308.66
328.603	350.79
329.058	327.38
329.512	289.93
329.966	271.21
330.421	303.98
330.875	287.59
331.329	275.89
331.783	280.57
332.237	257.17
332.691	320.36
333.145	273.55
333.599	282.91
334.053	303.98
334.507	236.1
334.96	261.85
335.414	341.43
335.868	266.53
336.321	325.04
336.775	299.3
337.228	360.15
337.682	334.4
338.135	306.32
338.588	282.91
339.042	341.43
339.495	334.4
339.948	320.36
340.401	301.64
340.854	308.66
341.307	292.27
341.76	273.55
342.213	322.7
342.666	308.66
343.119	332.06
343.571	327.38
344.024	233.76
344.477	278.23
344.929	285.25
345.382	306.32
345.834	289.93
346.287	280.57
346.739	348.45
347.191	268.87
347.644	315.68
348.096	289.93
348.548	289.93
349	275.89
349.452	268.87
349.904	287.59
350.356	252.49
350.808	261.85
351.26	315.68
351.711	306.32
352.163	339.09
352.615	285.25
353.066	374.19
353.518	282.91
353.969	296.96
354.421	369.51
354.872	329.72
355.324	318.02
355.775	336.74
356.226	329.72
356.677	301.64
357.128	336.74
357.579	299.3
358.03	313.34
358.481	271.21
358.932	303.98
359.383	261.85
359.834	327.38
360.285	264.19
360.735	280.57
361.186	287.59
361.637	243.12
362.087	332.06
362.538	247.8
362.988	327.38
363.438	334.4
363.889	266.53
364.339	311
364.789	287.59
365.239	327.38
365.689	311
366.139	315.68
366.589	266.53
367.039	325.04
367.489	341.43
367.939	280.57
368.389	315.68
368.839	329.72
369.288	329.72
369.738	343.77
370.187	355.47
370.637	268.87
371.086	289.93
371.536	294.61
371.985	292.27
372.434	294.61
372.884	268.87
373.333	332.06
373.782	278.23
374.231	303.98
374.68	306.32
375.129	282.91
375.578	296.96
376.027	371.85
376.475	339.09
376.924	311
377.373	285.25
377.822	376.53
378.27	296.96
378.719	299.3
379.167	369.51
379.616	287.59
380.064	266.53
380.512	329.72
380.961	308.66
381.409	311
381.857	292.27
382.305	329.72
382.753	369.51
383.201	374.19
383.649	332.06
384.097	285.25
384.545	332.06
384.992	282.91
385.44	341.43
385.888	315.68
386.335	306.32
386.783	301.64
387.231	313.34
387.678	362.49
388.125	254.83
388.573	357.81
389.02	252.49
389.467	353.13
389.914	339.09
390.362	280.57
390.809	280.57
391.256	308.66
391.703	268.87
392.15	303.98
392.596	346.11
393.043	313.34
393.49	318.02
393.937	296.96
394.383	311
394.83	355.47
395.276	334.4
395.723	294.61
396.169	348.45
396.616	374.19
397.062	322.7
397.508	334.4
397.954	268.87
398.401	336.74
398.847	271.21
399.293	264.19
399.739	259.51
400.185	287.59
400.631	318.02
401.076	247.8
401.522	289.93
401.968	339.09
402.414	306.32
402.859	332.06
403.305	320.36
403.75	280.57
404.196	289.93
404.641	371.85
405.086	334.4
405.532	299.3
405.977	341.43
406.422	289.93
406.867	287.59
407.312	301.64
407.757	336.74
408.202	273.55
408.647	374.19
409.092	311
409.537	261.85
409.982	336.74
410.426	303.98
410.871	322.7
411.316	299.3
411.76	360.15
412.205	360.15
412.649	339.09
413.093	325.04
413.538	364.83
413.982	292.27
414.426	367.17
414.87	318.02
415.314	343.77
415.758	303.98
416.202	327.38
416.646	327.38
417.09	280.57
417.534	306.32
417.978	329.72
418.421	275.89
418.865	350.79
419.309	350.79
419.752	287.59
420.196	327.38
420.639	329.72
421.083	287.59
421.526	334.4
421.969	325.04
422.412	303.98
422.856	303.98
423.299	357.81
423.742	353.13
424.185	404.62
424.628	325.04
425.071	329.72
425.513	383.56
425.956	268.87
426.399	299.3
426.842	376.53
427.284	355.47
427.727	369.51
428.169	301.64
428.612	341.43
429.054	364.83
429.497	388.24
429.939	395.26
430.381	346.11
430.823	418.66
431.265	458.45
431.707	395.26
432.149	369.51
432.591	360.15
433.033	404.62
433.475	416.32
433.917	449.09
434.359	516.97
434.8	535.69
435.242	556.75
435.684	521.65
436.125	463.13
436.567	444.41
437.008	402.28
437.449	451.43
437.891	409.3
438.332	451.43
438.773	498.24
439.214	505.26
439.656	439.73
440.097	409.3
440.538	425.68
440.978	444.41
441.419	453.77
441.86	416.32
442.301	367.17
442.742	465.47
443.182	465.47
443.623	413.98
444.063	493.56
444.504	533.35
444.944	498.24
445.385	498.24
445.825	542.71
446.265	540.37
446.706	580.16
447.146	486.54
447.586	509.94
448.026	453.77
448.466	493.56
448.906	486.54
449.346	435.05
449.786	470.16
450.225	563.78
450.665	479.52
451.105	566.12
451.544	484.2
451.984	514.63
452.424	519.31
452.863	435.05
453.302	446.75
453.742	465.47
454.181	514.63
454.62	502.92
455.059	395.26
455.499	409.3
455.938	413.98
456.377	388.24
456.816	437.39
457.254	406.96
457.693	432.71
458.132	458.45
458.571	385.9
459.01	428.03
459.448	413.98
459.887	388.24
460.325	421
460.764	439.73
461.202	460.79
461.641	369.51
462.079	371.85
462.517	369.51
462.955	355.47
463.393	406.96
463.832	348.45
464.27	353.13
464.708	395.26
465.145	411.64
465.583	385.9
466.021	392.92
466.459	418.66
466.897	374.19
467.334	374.19
467.772	421
468.209	411.64
468.647	385.9
469.084	303.98
469.522	346.11
469.959	383.56
470.396	350.79
470.833	374.19
471.271	404.62
471.708	346.11
472.145	346.11
472.582	301.64
473.019	360.15
473.456	383.56
473.892	458.45
474.329	411.64
474.766	341.43
475.202	329.72
475.639	397.6
476.076	336.74
476.512	341.43
476.949	353.13
477.385	402.28
477.821	456.11
478.258	322.7
478.694	282.91
479.13	381.21
479.566	397.6
480.002	325.04
480.438	390.58
480.874	360.15
481.31	404.62
481.746	343.77
482.181	343.77
482.617	357.81
483.053	409.3
483.488	406.96
483.924	311
484.36	367.17
484.795	388.24
485.23	470.16
485.666	367.17
486.101	430.37
486.536	332.06
486.971	446.75
487.407	472.5
487.842	369.51
488.277	463.13
488.712	437.39
489.146	409.3
489.581	432.71
490.016	428.03
490.451	343.77
490.885	442.07
491.32	437.39
491.755	406.96
492.189	418.66
492.624	371.85
493.058	435.05
493.492	381.21
493.927	357.81
494.361	325.04
494.795	390.58
495.229	409.3
495.663	404.62
496.097	477.18
496.531	385.9
496.965	404.62
497.399	399.94
497.833	463.13
498.266	378.87
498.7	416.32
499.134	346.11
499.567	343.77
500.001	334.4
500.434	409.3
500.868	409.3
501.301	369.51
501.734	376.53
502.168	362.49
502.601	343.77
503.034	474.84
503.467	376.53
503.9	397.6
504.333	362.49
504.766	395.26
505.199	385.9
505.632	346.11
506.064	348.45
506.497	437.39
506.93	430.37
507.362	383.56
507.795	411.64
508.227	416.32
508.66	432.71
509.092	444.41
509.524	369.51
509.956	374.19
510.389	381.21
510.821	425.68
511.253	404.62
511.685	362.49
512.117	388.24
512.549	432.71
512.981	451.43
513.412	444.41
513.844	437.39
514.276	409.3
514.707	477.18
515.139	383.56
515.571	390.58
516.002	413.98
516.433	409.3
516.865	416.32
517.296	439.73
517.727	404.62
518.159	463.13
518.59	376.53
519.021	409.3
519.452	378.87
519.883	500.58
520.314	418.66
520.744	416.32
521.175	428.03
521.606	428.03
522.037	428.03
522.467	385.9
522.898	493.56
523.328	404.62
523.759	357.81
524.189	404.62
524.62	449.09
525.05	390.58
525.48	491.22
525.91	336.74
526.341	425.68
526.771	322.7
527.201	395.26
527.631	418.66
528.061	406.96
528.49	460.79
528.92	381.21
529.35	336.74
529.78	371.85
530.209	437.39
530.639	416.32
531.068	381.21
531.498	388.24
531.927	413.98
532.357	446.75
532.786	526.33
533.215	428.03
533.644	404.62
534.074	463.13
534.503	460.79
534.932	402.28
535.361	381.21
535.79	416.32
536.218	399.94
536.647	444.41
537.076	416.32
537.505	428.03
537.933	399.94
538.362	493.56
538.79	404.62
539.219	451.43
539.647	484.2
540.076	507.6
540.504	502.92
540.932	575.48
541.36	608.25
541.788	690.17
542.217	655.06
542.645	713.57
543.073	704.21
543.5	748.68
543.928	657.4
544.356	678.46
544.784	744
545.211	683.14
545.639	758.04
546.067	697.19
546.494	671.44
546.922	587.18
547.349	594.2
547.776	575.48
548.204	516.97
548.631	488.88
549.058	474.84
549.485	484.2
549.912	432.71
550.339	491.22
550.766	425.68
551.193	446.75
551.62	545.05
552.047	491.22
552.474	432.71
552.9	456.11
553.327	531.01
553.754	411.64
554.18	376.53
554.607	397.6
555.033	404.62
555.459	409.3
555.886	449.09
556.312	449.09
556.738	493.56
557.164	444.41
557.59	432.71
558.016	374.19
558.442	397.6
558.868	442.07
559.294	456.11
559.72	369.51
560.145	416.32
560.571	413.98
560.997	411.64
561.422	381.21
561.848	470.16
562.273	432.71
562.699	397.6
563.124	453.77
563.549	404.62
563.974	360.15
564.4	416.32
564.825	432.71
565.25	376.53
565.675	453.77
566.1	409.3
566.525	357.81
566.95	378.87
567.374	458.45
567.799	437.39
568.224	446.75
568.648	458.45
569.073	399.94
569.497	439.73
569.922	423.34
570.346	432.71
570.771	416.32
571.195	418.66
571.619	350.79
572.043	425.68
572.467	458.45
572.891	343.77
573.315	446.75
573.739	409.3
574.163	502.92
574.587	458.45
575.011	381.21
575.435	423.34
575.858	381.21
576.282	362.49
576.705	430.37
577.129	395.26
577.552	416.32
577.976	456.11
578.399	428.03
578.822	486.54
579.245	481.86
579.669	404.62
580.092	348.45
580.515	423.34
580.938	430.37
581.361	409.3
581.784	430.37
582.206	425.68
582.629	453.77
583.052	364.83
583.474	484.2
583.897	477.18
584.32	409.3
584.742	404.62
585.165	477.18
585.587	484.2
586.009	453.77
586.431	404.62
586.854	519.31
587.276	430.37
587.698	479.52
588.12	432.71
588.542	481.86
588.964	442.07
589.386	425.68
589.807	439.73
590.229	444.41
590.651	385.9
591.073	360.15
591.494	385.9
591.916	406.96
592.337	428.03
592.759	463.13
593.18	367.17
593.601	430.37
594.022	413.98
594.444	437.39
594.865	428.03
595.286	336.74
595.707	406.96
596.128	435.05
596.549	376.53
596.97	428.03
597.39	364.83
597.811	357.81
598.232	371.85
598.652	421
599.073	385.9
599.494	364.83
599.914	355.47
600.334	395.26
600.755	402.28
601.175	439.73
601.595	350.79
602.015	336.74
602.436	374.19
602.856	439.73
603.276	327.38
603.696	348.45
604.115	364.83
604.535	378.87
604.955	341.43
605.375	350.79
605.794	416.32
606.214	360.15
606.634	385.9
607.053	315.68
607.473	399.94
607.892	409.3
608.311	437.39
608.731	383.56
609.15	446.75
609.569	559.1
609.988	652.72
610.407	793.15
610.826	767.4
611.245	699.53
611.664	783.79
612.083	732.3
612.501	680.8
612.92	622.29
613.339	587.18
613.757	563.78
614.176	533.35
614.594	507.6
615.013	465.47
615.431	428.03
615.85	467.81
616.268	425.68
616.686	425.68
617.104	376.53
617.522	353.13
617.94	383.56
618.358	409.3
618.776	399.94
619.194	383.56
619.612	399.94
620.03	383.56
620.447	371.85
620.865	418.66
621.282	481.86
621.7	418.66
622.117	444.41
622.535	385.9
622.952	329.72
623.369	367.17
623.787	395.26
624.204	395.26
624.621	299.3
625.038	332.06
625.455	378.87
625.872	360.15
626.289	341.43
626.706	332.06
627.123	348.45
627.539	329.72
627.956	399.94
628.373	371.85
628.789	353.13
629.206	374.19
629.622	308.66
630.038	343.77
630.455	395.26
630.871	343.77
631.287	313.34
631.703	402.28
632.12	282.91
632.536	364.83
632.952	381.21
633.368	353.13
633.783	322.7
634.199	280.57
634.615	289.93
635.031	339.09
635.446	325.04
635.862	296.96
636.277	364.83
636.693	364.83
637.108	369.51
637.524	357.81
637.939	413.98
638.354	289.93
638.77	374.19
639.185	399.94
639.6	322.7
640.015	355.47
640.43	406.96
640.845	322.7
641.259	320.36
641.674	376.53
642.089	289.93
642.504	348.45
642.918	329.72
643.333	327.38
643.747	318.02
644.162	355.47
644.576	318.02
644.991	299.3
645.405	322.7
645.819	271.21
646.233	388.24
646.647	360.15
647.061	360.15
647.475	348.45
647.889	350.79
648.303	311
648.717	395.26
649.131	362.49
649.545	285.25
649.958	287.59
650.372	350.79
650.785	355.47
651.199	311
651.612	306.32
652.026	334.4
652.439	325.04
652.852	360.15
653.266	322.7
653.679	306.32
654.092	259.51
654.505	311
654.918	250.14
655.331	329.72
655.744	287.59
656.156	339.09
656.569	280.57
656.982	315.68
657.394	318.02
657.807	334.4
658.22	332.06
658.632	271.21
659.044	282.91
659.457	360.15
659.869	339.09
660.281	357.81
660.693	303.98
661.106	299.3
661.518	395.26
661.93	322.7
662.342	266.53
662.754	296.96
663.165	303.98
663.577	318.02
663.989	353.13
664.401	357.81
664.812	301.64
665.224	367.17
665.635	266.53
666.047	343.77
666.458	350.79
666.869	289.93
667.281	369.51
667.692	325.04
668.103	385.9
668.514	343.77
668.925	322.7
669.336	296.96
669.747	334.4
670.158	332.06
670.569	334.4
670.979	296.96
671.39	320.36
671.801	357.81
672.211	325.04
672.622	282.91
673.032	268.87
673.443	336.74
673.853	360.15
674.263	282.91
674.674	289.93
675.084	301.64
675.494	355.47
675.904	311
676.314	416.32
676.724	322.7
677.134	341.43
677.544	350.79
677.953	360.15
678.363	348.45
678.773	296.96
679.182	287.59
679.592	353.13
680.001	306.32
680.411	327.38
680.82	357.81
681.23	296.96
681.639	334.4
682.048	311
682.457	308.66
682.866	271.21
683.275	264.19
683.684	343.77
684.093	289.93
684.502	294.61
684.911	313.34
685.32	392.92
685.728	301.64
686.137	346.11
686.546	362.49
686.954	287.59
687.363	346.11
687.771	257.17
688.179	303.98
688.588	301.64
688.996	278.23
689.404	280.57
689.812	320.36
690.22	296.96
690.628	280.57
691.036	334.4
691.444	280.57
691.852	308.66
692.26	343.77
692.667	346.11
693.075	353.13
693.483	318.02
693.89	303.98
694.298	371.85
694.705	308.66
695.112	292.27
695.52	346.11
695.927	339.09
696.334	259.51
696.741	350.79
697.148	294.61
697.555	313.34
697.962	332.06
698.369	348.45
698.776	353.13
699.183	362.49
699.59	334.4
699.996	329.72
700.403	299.3
700.81	315.68
701.216	334.4
701.623	287.59
702.029	346.11
702.435	299.3
702.842	339.09
703.248	259.51
703.654	296.96
704.06	336.74
704.466	271.21
704.872	350.79
705.278	282.91
705.684	320.36
706.09	308.66
706.496	332.06
706.901	343.77
707.307	374.19
707.712	341.43
708.118	313.34
708.523	357.81
708.929	264.19
709.334	364.83
709.74	353.13
710.145	329.72
710.55	364.83
710.955	289.93
711.36	355.47
711.765	367.17
712.17	346.11
712.575	271.21
712.98	940.6
713.385	383.56
713.789	341.43
714.194	285.25
714.599	285.25
715.003	282.91
715.408	308.66
715.812	292.27
716.217	362.49
716.621	306.32
717.025	303.98
717.429	322.7
717.833	308.66
718.238	329.72
718.642	282.91
719.046	287.59
719.449	259.51
719.853	299.3
720.257	275.89
720.661	257.17
721.065	259.51
721.468	296.96
721.872	261.85
722.275	362.49
722.679	395.26
723.082	343.77
723.485	357.81
723.889	308.66
724.292	282.91
724.695	261.85
725.098	367.17
725.501	308.66
725.904	280.57
726.307	285.25
726.71	299.3
727.113	327.38
727.516	308.66
727.918	289.93
728.321	254.83
728.724	247.8
729.126	275.89
729.529	285.25
729.931	336.74
730.333	266.53
730.736	208.02
731.138	296.96
731.54	292.27
731.942	280.57
732.344	329.72
732.746	303.98
733.148	301.64
733.55	303.98
733.952	332.06
734.354	266.53
734.756	250.14
735.157	261.85
735.559	296.96
735.96	296.96
736.362	292.27
736.763	278.23
737.165	275.89
737.566	348.45
737.967	357.81
738.368	289.93
738.77	320.36
739.171	250.14
739.572	318.02
739.973	308.66
740.374	336.74
740.774	285.25
741.175	301.64
741.576	318.02
741.977	275.89
742.377	346.11
742.778	315.68
743.178	346.11
743.579	247.8
743.979	339.09
744.379	341.43
744.78	362.49
745.18	303.98
745.58	306.32
745.98	294.61
746.38	296.96
746.78	273.55
747.18	311
747.58	353.13
747.98	282.91
748.38	334.4
748.779	275.89
749.179	308.66
749.578	311
749.978	303.98
750.377	315.68
750.777	268.87
751.176	266.53
751.575	336.74
751.975	273.55
752.374	301.64
752.773	301.64
753.172	292.27
753.571	285.25
753.97	243.12
754.369	266.53
754.768	257.17
755.166	303.98
755.565	273.55
755.964	289.93
756.362	325.04
756.761	231.42
757.159	301.64
757.558	275.89
757.956	350.79
758.354	311
758.753	306.32
759.151	280.57
759.549	292.27
759.947	306.32
760.345	327.38
760.743	292.27
761.141	299.3
761.539	341.43
761.936	343.77
762.334	252.49
762.732	313.34
763.129	252.49
763.527	278.23
763.924	339.09
764.322	308.66
764.719	264.19
765.117	294.61
765.514	320.36
765.911	369.51
766.308	313.34
766.705	313.34
