Data from Al_FLMS009871__1254__16-46-16-372.txt Node

Date: Fri Mar 08 16:46:16 CST 2024
User: pe5414po
Spectrometer: FLMS00987
Trigger mode: 0
Integration Time (sec): 1.000000E-1
Scans to average: 1
Electric dark correction enabled: true
Nonlinearity correction enabled: false
Boxcar width: 0
XAxis mode: Wavelengths
Number of Pixels in Spectrum: 2048
>>>>>Begin Spectral Data<<<<<
188.938	-80.89
189.409	-80.89
189.879	-80.89
190.349	-87.92
190.819	-101.96
191.29	-99.62
191.76	-132.39
192.23	-38.77
192.7	-113.66
193.17	-22.38
193.64	-29.4
194.109	-27.06
194.579	-22.38
195.049	-78.55
195.519	64.22
195.988	15.07
196.458	24.43
196.927	101.67
197.397	96.99
197.866	146.14
198.336	115.71
198.805	134.43
199.274	141.46
199.744	125.07
200.213	256.14
200.682	195.29
201.151	237.42
201.62	291.25
202.089	237.42
202.558	260.82
203.027	277.21
203.495	256.14
203.964	235.08
204.433	260.82
204.902	291.25
205.37	246.78
205.839	279.55
206.307	300.61
206.776	309.97
207.244	328.7
207.712	270.19
208.181	300.61
208.649	361.47
209.117	309.97
209.585	333.38
210.053	319.34
210.521	300.61
210.989	317
211.457	253.8
211.925	274.87
212.393	295.93
212.861	370.83
213.328	305.29
213.796	309.97
214.264	326.36
214.731	312.32
215.199	312.32
215.666	312.32
216.133	263.16
216.601	272.53
217.068	284.23
217.535	317
218.003	298.27
218.47	263.16
218.937	286.57
219.404	335.72
219.871	249.12
220.338	211.67
220.805	300.61
221.271	331.04
221.738	281.89
222.205	228.06
222.671	274.87
223.138	249.12
223.605	298.27
224.071	277.21
224.538	237.42
225.004	251.46
225.47	312.32
225.937	221.03
226.403	265.5
226.869	256.14
227.335	263.16
227.801	298.27
228.267	307.63
228.733	302.95
229.199	312.32
229.665	272.53
230.131	286.57
230.597	300.61
231.062	270.19
231.528	298.27
231.994	277.21
232.459	246.78
232.925	291.25
233.39	239.76
233.856	295.93
234.321	335.72
234.786	298.27
235.252	309.97
235.717	270.19
236.182	260.82
236.647	295.93
237.112	300.61
237.577	295.93
238.042	305.29
238.507	305.29
238.972	274.87
239.436	286.57
239.901	354.44
240.366	326.36
240.83	312.32
241.295	288.91
241.76	284.23
242.224	324.02
242.688	295.93
243.153	345.08
243.617	347.42
244.081	279.55
244.545	260.82
245.01	284.23
245.474	286.57
245.938	309.97
246.402	253.8
246.866	295.93
247.33	242.1
247.793	265.5
248.257	300.61
248.721	249.12
249.185	307.63
249.648	300.61
250.112	284.23
250.575	267.85
251.039	317
251.502	244.44
251.965	295.93
252.429	335.72
252.892	293.59
253.355	295.93
253.818	277.21
254.281	331.04
254.744	206.99
255.207	302.95
255.67	293.59
256.133	223.37
256.596	284.23
257.059	281.89
257.522	242.1
257.984	284.23
258.447	267.85
258.909	293.59
259.372	249.12
259.834	375.51
260.297	326.36
260.759	293.59
261.221	326.36
261.684	349.76
262.146	328.7
262.608	338.06
263.07	293.59
263.532	197.63
263.994	340.4
264.456	347.42
264.918	277.21
265.38	270.19
265.842	263.16
266.303	260.82
266.765	319.34
267.227	340.4
267.688	338.06
268.15	328.7
268.611	370.83
269.072	277.21
269.534	317
269.995	324.02
270.456	249.12
270.918	288.91
271.379	373.17
271.84	324.02
272.301	312.32
272.762	251.46
273.223	253.8
273.684	263.16
274.144	312.32
274.605	331.04
275.066	267.85
275.527	286.57
275.987	291.25
276.448	256.14
276.908	307.63
277.369	302.95
277.829	326.36
278.289	272.53
278.75	298.27
279.21	230.4
279.67	317
280.13	309.97
280.59	263.16
281.05	309.97
281.51	293.59
281.97	272.53
282.43	352.1
282.89	281.89
283.35	277.21
283.809	237.42
284.269	277.21
284.729	312.32
285.188	295.93
285.648	270.19
286.107	284.23
286.567	288.91
287.026	321.68
287.485	256.14
287.944	333.38
288.404	345.08
288.863	324.02
289.322	331.04
289.781	317
290.24	242.1
290.699	277.21
291.158	335.72
291.616	331.04
292.075	281.89
292.534	324.02
292.992	293.59
293.451	314.66
293.91	298.27
294.368	333.38
294.827	363.81
295.285	373.17
295.743	274.87
296.202	319.34
296.66	349.76
297.118	305.29
297.576	366.15
298.034	321.68
298.492	324.02
298.95	363.81
299.408	298.27
299.866	244.44
300.324	368.49
300.781	288.91
301.239	338.06
301.697	333.38
302.154	314.66
302.612	387.21
303.069	338.06
303.527	249.12
303.984	293.59
304.441	345.08
304.899	265.5
305.356	384.87
305.813	307.63
306.27	298.27
306.727	295.93
307.184	326.36
307.641	356.79
308.098	272.53
308.555	319.34
309.012	317
309.468	324.02
309.925	342.74
310.382	314.66
310.838	300.61
311.295	300.61
311.751	279.55
312.208	284.23
312.664	265.5
313.12	286.57
313.577	347.42
314.033	319.34
314.489	317
314.945	354.44
315.401	368.49
315.857	356.79
316.313	314.66
316.769	370.83
317.225	281.89
317.681	354.44
318.136	324.02
318.592	298.27
319.048	326.36
319.503	305.29
319.959	314.66
320.414	312.32
320.869	314.66
321.325	342.74
321.78	312.32
322.235	312.32
322.691	321.68
323.146	302.95
323.601	293.59
324.056	340.4
324.511	312.32
324.966	298.27
325.421	274.87
325.875	251.46
326.33	293.59
326.785	288.91
327.24	309.97
327.694	284.23
328.149	338.06
328.603	214.01
329.058	281.89
329.512	338.06
329.966	302.95
330.421	342.74
330.875	375.51
331.329	338.06
331.783	328.7
332.237	345.08
332.691	354.44
333.145	328.7
333.599	281.89
334.053	300.61
334.507	328.7
334.96	361.47
335.414	347.42
335.868	324.02
336.321	361.47
336.775	333.38
337.228	279.55
337.682	394.23
338.135	307.63
338.588	345.08
339.042	312.32
339.495	319.34
339.948	305.29
340.401	295.93
340.854	319.34
341.307	284.23
341.76	333.38
342.213	307.63
342.666	270.19
343.119	319.34
343.571	270.19
344.024	373.17
344.477	347.42
344.929	324.02
345.382	347.42
345.834	324.02
346.287	300.61
346.739	267.85
347.191	265.5
347.644	324.02
348.096	340.4
348.548	309.97
349	340.4
349.452	335.72
349.904	293.59
350.356	251.46
350.808	328.7
351.26	345.08
351.711	338.06
352.163	307.63
352.615	342.74
353.066	352.1
353.518	281.89
353.969	309.97
354.421	309.97
354.872	293.59
355.324	307.63
355.775	324.02
356.226	324.02
356.677	324.02
357.128	354.44
357.579	286.57
358.03	260.82
358.481	321.68
358.932	307.63
359.383	277.21
359.834	377.85
360.285	361.47
360.735	307.63
361.186	342.74
361.637	335.72
362.087	326.36
362.538	331.04
362.988	370.83
363.438	335.72
363.889	258.48
364.339	324.02
364.789	293.59
365.239	373.17
365.689	324.02
366.139	298.27
366.589	293.59
367.039	331.04
367.489	309.97
367.939	331.04
368.389	295.93
368.839	265.5
369.288	359.13
369.738	281.89
370.187	368.49
370.637	284.23
371.086	307.63
371.536	321.68
371.985	366.15
372.434	335.72
372.884	274.87
373.333	338.06
373.782	317
374.231	300.61
374.68	370.83
375.129	321.68
375.578	291.25
376.027	314.66
376.475	295.93
376.924	326.36
377.373	288.91
377.822	253.8
378.27	335.72
378.719	359.13
379.167	347.42
379.616	267.85
380.064	309.97
380.512	272.53
380.961	335.72
381.409	253.8
381.857	340.4
382.305	338.06
382.753	338.06
383.201	347.42
383.649	300.61
384.097	331.04
384.545	324.02
384.992	295.93
385.44	347.42
385.888	356.79
386.335	326.36
386.783	307.63
387.231	302.95
387.678	258.48
388.125	366.15
388.573	324.02
389.02	272.53
389.467	302.95
389.914	331.04
390.362	319.34
390.809	359.13
391.256	347.42
391.703	340.4
392.15	317
392.596	309.97
393.043	359.13
393.49	244.44
393.937	293.59
394.383	342.74
394.83	427
395.276	312.32
395.723	361.47
396.169	321.68
396.616	345.08
397.062	293.59
397.508	349.76
397.954	326.36
398.401	345.08
398.847	380.19
399.293	293.59
399.739	326.36
400.185	281.89
400.631	338.06
401.076	387.21
401.522	284.23
401.968	295.93
402.414	300.61
402.859	328.7
403.305	335.72
403.75	265.5
404.196	288.91
404.641	352.1
405.086	366.15
405.532	300.61
405.977	317
406.422	277.21
406.867	345.08
407.312	263.16
407.757	338.06
408.202	305.29
408.647	363.81
409.092	417.64
409.537	356.79
409.982	352.1
410.426	331.04
410.871	324.02
411.316	312.32
411.76	389.55
412.205	340.4
412.649	302.95
413.093	274.87
413.538	321.68
413.982	288.91
414.426	302.95
414.87	331.04
415.314	363.81
415.758	284.23
416.202	361.47
416.646	345.08
417.09	326.36
417.534	333.38
417.978	302.95
418.421	279.55
418.865	352.1
419.309	333.38
419.752	302.95
420.196	288.91
420.639	295.93
421.083	345.08
421.526	335.72
421.969	298.27
422.412	347.42
422.856	345.08
423.299	319.34
423.742	352.1
424.185	338.06
424.628	384.87
425.071	328.7
425.513	384.87
425.956	326.36
426.399	309.97
426.842	333.38
427.284	356.79
427.727	370.83
428.169	356.79
428.612	253.8
429.054	335.72
429.497	342.74
429.939	265.5
430.381	291.25
430.823	361.47
431.265	319.34
431.707	312.32
432.149	317
432.591	356.79
433.033	354.44
433.475	342.74
433.917	345.08
434.359	338.06
434.8	305.29
435.242	328.7
435.684	335.72
436.125	272.53
436.567	305.29
437.008	279.55
437.449	305.29
437.891	324.02
438.332	291.25
438.773	349.76
439.214	370.83
439.656	321.68
440.097	335.72
440.538	366.15
440.978	265.5
441.419	331.04
441.86	312.32
442.301	300.61
442.742	305.29
443.182	340.4
443.623	335.72
444.063	288.91
444.504	300.61
444.944	363.81
445.385	317
445.825	370.83
446.265	342.74
446.706	328.7
447.146	342.74
447.586	319.34
448.026	335.72
448.466	326.36
448.906	300.61
449.346	293.59
449.786	380.19
450.225	286.57
450.665	347.42
451.105	295.93
451.544	302.95
451.984	293.59
452.424	373.17
452.863	309.97
453.302	335.72
453.742	293.59
454.181	284.23
454.62	319.34
455.059	347.42
455.499	361.47
455.938	312.32
456.377	307.63
456.816	356.79
457.254	370.83
457.693	298.27
458.132	321.68
458.571	366.15
459.01	342.74
459.448	302.95
459.887	286.57
460.325	331.04
460.764	356.79
461.202	260.82
461.641	387.21
462.079	331.04
462.517	387.21
462.955	361.47
463.393	314.66
463.832	340.4
464.27	335.72
464.708	331.04
465.145	354.44
465.583	340.4
466.021	382.53
466.459	333.38
466.897	288.91
467.334	319.34
467.772	312.32
468.209	324.02
468.647	331.04
469.084	309.97
469.522	352.1
469.959	382.53
470.396	331.04
470.833	302.95
471.271	309.97
471.708	312.32
472.145	267.85
472.582	410.62
473.019	354.44
473.456	384.87
473.892	312.32
474.329	298.27
474.766	398.92
475.202	286.57
475.639	249.12
476.076	340.4
476.512	389.55
476.949	279.55
477.385	345.08
477.821	359.13
478.258	331.04
478.694	368.49
479.13	309.97
479.566	370.83
480.002	302.95
480.438	363.81
480.874	317
481.31	291.25
481.746	382.53
482.181	288.91
482.617	324.02
483.053	333.38
483.488	305.29
483.924	338.06
484.36	333.38
484.795	279.55
485.23	377.85
485.666	335.72
486.101	291.25
486.536	331.04
486.971	324.02
487.407	307.63
487.842	305.29
488.277	361.47
488.712	340.4
489.146	298.27
489.581	319.34
490.016	288.91
490.451	340.4
490.885	331.04
491.32	319.34
491.755	319.34
492.189	305.29
492.624	293.59
493.058	368.49
493.492	295.93
493.927	347.42
494.361	312.32
494.795	340.4
495.229	340.4
495.663	279.55
496.097	309.97
496.531	312.32
496.965	279.55
497.399	335.72
497.833	328.7
498.266	295.93
498.7	331.04
499.134	295.93
499.567	324.02
500.001	324.02
500.434	349.76
500.868	354.44
501.301	274.87
501.734	335.72
502.168	321.68
502.601	312.32
503.034	272.53
503.467	246.78
503.9	291.25
504.333	345.08
504.766	331.04
505.199	361.47
505.632	321.68
506.064	338.06
506.497	309.97
506.93	335.72
507.362	302.95
507.795	377.85
508.227	314.66
508.66	314.66
509.092	309.97
509.524	326.36
509.956	363.81
510.389	265.5
510.821	354.44
511.253	352.1
511.685	305.29
512.117	356.79
512.549	317
512.981	338.06
513.412	377.85
513.844	345.08
514.276	328.7
514.707	352.1
515.139	277.21
515.571	302.95
516.002	324.02
516.433	342.74
516.865	321.68
517.296	312.32
517.727	256.14
518.159	354.44
518.59	396.57
519.021	302.95
519.452	293.59
519.883	331.04
520.314	328.7
520.744	387.21
521.175	326.36
521.606	317
522.037	265.5
522.467	305.29
522.898	293.59
523.328	328.7
523.759	347.42
524.189	279.55
524.62	340.4
525.05	331.04
525.48	347.42
525.91	328.7
526.341	366.15
526.771	317
527.201	317
527.631	314.66
528.061	366.15
528.49	319.34
528.92	295.93
529.35	375.51
529.78	331.04
530.209	328.7
530.639	305.29
531.068	260.82
531.498	319.34
531.927	340.4
532.357	361.47
532.786	340.4
533.215	352.1
533.644	295.93
534.074	368.49
534.503	284.23
534.932	326.36
535.361	349.76
535.79	284.23
536.218	279.55
536.647	298.27
537.076	380.19
537.505	345.08
537.933	317
538.362	338.06
538.79	328.7
539.219	349.76
539.647	324.02
540.076	305.29
540.504	286.57
540.932	263.16
541.36	270.19
541.788	312.32
542.217	246.78
542.645	288.91
543.073	356.79
543.5	338.06
543.928	317
544.356	340.4
544.784	328.7
545.211	338.06
545.639	328.7
546.067	380.19
546.494	326.36
546.922	338.06
547.349	375.51
547.776	352.1
548.204	307.63
548.631	380.19
549.058	361.47
549.485	249.12
549.912	345.08
550.339	295.93
550.766	293.59
551.193	270.19
551.62	256.14
552.047	347.42
552.474	340.4
552.9	321.68
553.327	338.06
553.754	349.76
554.18	375.51
554.607	335.72
555.033	359.13
555.459	408.28
555.886	363.81
556.312	384.87
556.738	370.83
557.164	265.5
557.59	335.72
558.016	286.57
558.442	384.87
558.868	302.95
559.294	349.76
559.72	347.42
560.145	354.44
560.571	328.7
560.997	326.36
561.422	302.95
561.848	286.57
562.273	281.89
562.699	347.42
563.124	375.51
563.549	368.49
563.974	298.27
564.4	281.89
564.825	324.02
565.25	300.61
565.675	349.76
566.1	338.06
566.525	286.57
566.95	298.27
567.374	281.89
567.799	349.76
568.224	295.93
568.648	288.91
569.073	375.51
569.497	352.1
569.922	284.23
570.346	354.44
570.771	324.02
571.195	258.48
571.619	335.72
572.043	331.04
572.467	333.38
572.891	302.95
573.315	307.63
573.739	356.79
574.163	279.55
574.587	317
575.011	284.23
575.435	267.85
575.858	258.48
576.282	333.38
576.705	412.96
577.129	307.63
577.552	321.68
577.976	335.72
578.399	359.13
578.822	375.51
579.245	295.93
579.669	288.91
580.092	338.06
580.515	317
580.938	366.15
581.361	363.81
581.784	253.8
582.206	249.12
582.629	286.57
583.052	305.29
583.474	324.02
583.897	319.34
584.32	256.14
584.742	302.95
585.165	312.32
585.587	260.82
586.009	286.57
586.431	265.5
586.854	317
587.276	326.36
587.698	277.21
588.12	265.5
588.542	302.95
588.964	361.47
589.386	338.06
589.807	331.04
590.229	326.36
590.651	270.19
591.073	279.55
591.494	324.02
591.916	359.13
592.337	267.85
592.759	347.42
593.18	314.66
593.601	354.44
594.022	317
594.444	359.13
594.865	295.93
595.286	354.44
595.707	394.23
596.128	263.16
596.549	321.68
596.97	335.72
597.39	295.93
597.811	398.92
598.232	338.06
598.652	312.32
599.073	291.25
599.494	302.95
599.914	326.36
600.334	239.76
600.755	293.59
601.175	352.1
601.595	331.04
602.015	314.66
602.436	363.81
602.856	405.94
603.276	363.81
603.696	335.72
604.115	312.32
604.535	347.42
604.955	331.04
605.375	305.29
605.794	333.38
606.214	363.81
606.634	286.57
607.053	317
607.473	363.81
607.892	335.72
608.311	314.66
608.731	340.4
609.15	370.83
609.569	333.38
609.988	394.23
610.407	321.68
610.826	307.63
611.245	317
611.664	340.4
612.083	347.42
612.501	377.85
612.92	347.42
613.339	253.8
613.757	317
614.176	324.02
614.594	354.44
615.013	267.85
615.431	305.29
615.85	328.7
616.268	368.49
616.686	347.42
617.104	274.87
617.522	256.14
617.94	333.38
618.358	284.23
618.776	281.89
619.194	349.76
619.612	317
620.03	340.4
620.447	242.1
620.865	328.7
621.282	317
621.7	333.38
622.117	312.32
622.535	309.97
622.952	333.38
623.369	295.93
623.787	410.62
624.204	312.32
624.621	263.16
625.038	307.63
625.455	298.27
625.872	333.38
626.289	359.13
626.706	300.61
627.123	370.83
627.539	300.61
627.956	368.49
628.373	363.81
628.789	352.1
629.206	331.04
629.622	295.93
630.038	335.72
630.455	398.92
630.871	340.4
631.287	293.59
631.703	335.72
632.12	347.42
632.536	307.63
632.952	298.27
633.368	335.72
633.783	305.29
634.199	356.79
634.615	305.29
635.031	314.66
635.446	324.02
635.862	288.91
636.277	319.34
636.693	274.87
637.108	302.95
637.524	331.04
637.939	333.38
638.354	291.25
638.77	368.49
639.185	312.32
639.6	288.91
640.015	382.53
640.43	342.74
640.845	340.4
641.259	274.87
641.674	370.83
642.089	384.87
642.504	335.72
642.918	293.59
643.333	335.72
643.747	321.68
644.162	328.7
644.576	342.74
644.991	331.04
645.405	389.55
645.819	307.63
646.233	295.93
646.647	396.57
647.061	373.17
647.475	284.23
647.889	338.06
648.303	288.91
648.717	317
649.131	314.66
649.545	326.36
649.958	324.02
650.372	352.1
650.785	319.34
651.199	349.76
651.612	305.29
652.026	345.08
652.439	335.72
652.852	314.66
653.266	246.78
653.679	331.04
654.092	347.42
654.505	324.02
654.918	340.4
655.331	326.36
655.744	363.81
656.156	347.42
656.569	354.44
656.982	274.87
657.394	291.25
657.807	277.21
658.22	333.38
658.632	319.34
659.044	265.5
659.457	328.7
659.869	307.63
660.281	363.81
660.693	338.06
661.106	354.44
661.518	324.02
661.93	356.79
662.342	258.48
662.754	305.29
663.165	258.48
663.577	270.19
663.989	309.97
664.401	326.36
664.812	359.13
665.224	377.85
665.635	366.15
666.047	352.1
666.458	366.15
666.869	377.85
667.281	391.89
667.692	328.7
668.103	288.91
668.514	380.19
668.925	288.91
669.336	295.93
669.747	300.61
670.158	319.34
670.569	340.4
670.979	347.42
671.39	312.32
671.801	338.06
672.211	333.38
672.622	340.4
673.032	352.1
673.443	293.59
673.853	305.29
674.263	349.76
674.674	345.08
675.084	326.36
675.494	265.5
675.904	321.68
676.314	340.4
676.724	347.42
677.134	417.64
677.544	302.95
677.953	317
678.363	293.59
678.773	370.83
679.182	363.81
679.592	317
680.001	319.34
680.411	265.5
680.82	293.59
681.23	286.57
681.639	356.79
682.048	324.02
682.457	298.27
682.866	326.36
683.275	345.08
683.684	277.21
684.093	293.59
684.502	263.16
684.911	324.02
685.32	361.47
685.728	331.04
686.137	326.36
686.546	300.61
686.954	345.08
687.363	288.91
687.771	270.19
688.179	319.34
688.588	305.29
688.996	295.93
689.404	295.93
689.812	352.1
690.22	380.19
690.628	340.4
691.036	373.17
691.444	321.68
691.852	270.19
692.26	284.23
692.667	359.13
693.075	324.02
693.483	317
693.89	309.97
694.298	270.19
694.705	274.87
695.112	377.85
695.52	324.02
695.927	277.21
696.334	338.06
696.741	382.53
697.148	298.27
697.555	265.5
697.962	349.76
698.369	249.12
698.776	309.97
699.183	319.34
699.59	251.46
699.996	312.32
700.403	307.63
700.81	324.02
701.216	361.47
701.623	244.44
702.029	246.78
702.435	333.38
702.842	284.23
703.248	284.23
703.654	361.47
704.06	274.87
704.466	274.87
704.872	335.72
705.278	293.59
705.684	340.4
706.09	359.13
706.496	387.21
706.901	352.1
707.307	265.5
707.712	265.5
708.118	368.49
708.523	321.68
708.929	331.04
709.334	317
709.74	359.13
710.145	326.36
710.55	279.55
710.955	382.53
711.36	366.15
711.765	256.14
712.17	356.79
712.575	309.97
712.98	843.62
713.385	375.51
713.789	377.85
714.194	375.51
714.599	319.34
715.003	342.74
715.408	319.34
715.812	279.55
716.217	356.79
716.621	300.61
717.025	354.44
717.429	309.97
717.833	272.53
718.238	295.93
718.642	319.34
719.046	361.47
719.449	338.06
719.853	314.66
720.257	288.91
720.661	380.19
721.065	317
721.468	272.53
721.872	359.13
722.275	291.25
722.679	302.95
723.082	291.25
723.485	300.61
723.889	326.36
724.292	281.89
724.695	335.72
725.098	333.38
725.501	328.7
725.904	281.89
726.307	309.97
726.71	328.7
727.113	312.32
727.516	366.15
727.918	305.29
728.321	342.74
728.724	333.38
729.126	368.49
729.529	324.02
729.931	284.23
730.333	288.91
730.736	307.63
731.138	298.27
731.54	331.04
731.942	340.4
732.344	347.42
732.746	342.74
733.148	281.89
733.55	354.44
733.952	265.5
734.354	263.16
734.756	363.81
735.157	267.85
735.559	328.7
735.96	312.32
736.362	356.79
736.763	295.93
737.165	345.08
737.566	314.66
737.967	298.27
738.368	300.61
738.77	307.63
739.171	361.47
739.572	349.76
739.973	277.21
740.374	305.29
740.774	314.66
741.175	288.91
741.576	326.36
741.977	312.32
742.377	363.81
742.778	307.63
743.178	338.06
743.579	281.89
743.979	298.27
744.379	356.79
744.78	267.85
745.18	352.1
745.58	305.29
745.98	324.02
746.38	352.1
746.78	331.04
747.18	279.55
747.58	274.87
747.98	302.95
748.38	349.76
748.779	377.85
749.179	375.51
749.578	298.27
749.978	321.68
750.377	396.57
750.777	317
751.176	253.8
751.575	319.34
751.975	377.85
752.374	391.89
752.773	309.97
753.172	263.16
753.571	333.38
753.97	302.95
754.369	286.57
754.768	328.7
755.166	281.89
755.565	279.55
755.964	368.49
756.362	232.74
756.761	263.16
757.159	333.38
757.558	375.51
757.956	340.4
758.354	295.93
758.753	319.34
759.151	359.13
759.549	281.89
759.947	368.49
760.345	340.4
760.743	333.38
761.141	363.81
761.539	309.97
761.936	331.04
762.334	349.76
762.732	293.59
763.129	342.74
763.527	267.85
763.924	246.78
764.322	349.76
764.719	331.04
765.117	270.19
765.514	326.36
765.911	326.36
766.308	317
766.705	284.23
767.102	394.23
767.499	328.7
767.896	338.06
