Data from Al_FLMS009871__1246__16-46-15-572.txt Node

Date: Fri Mar 08 16:46:15 CST 2024
User: pe5414po
Spectrometer: FLMS00987
Trigger mode: 0
Integration Time (sec): 1.000000E-1
Scans to average: 1
Electric dark correction enabled: true
Nonlinearity correction enabled: false
Boxcar width: 0
XAxis mode: Wavelengths
Number of Pixels in Spectrum: 2048
>>>>>Begin Spectral Data<<<<<
188.938	-57.2
189.409	-57.2
189.879	-57.2
190.349	-153.16
190.819	-104.01
191.29	-96.99
191.76	-120.39
192.23	-139.12
192.7	-115.71
193.17	-87.62
193.64	-40.81
194.109	-52.52
194.579	41.11
195.049	-17.41
195.519	15.36
195.988	43.45
196.458	69.19
196.927	83.24
197.397	125.36
197.866	118.34
198.336	174.52
198.805	148.77
199.274	160.47
199.744	172.18
200.213	193.24
200.682	188.56
201.151	235.37
201.62	162.81
202.089	242.39
202.558	211.96
203.027	200.26
203.495	289.2
203.964	261.12
204.433	277.5
204.902	221.33
205.37	326.65
205.839	258.78
206.307	286.86
206.776	282.18
207.244	319.63
207.712	230.69
208.181	268.14
208.649	254.09
209.117	298.56
209.585	307.93
210.053	258.78
210.521	291.54
210.989	331.33
211.457	254.09
211.925	258.78
212.393	221.33
212.861	242.39
213.328	218.99
213.796	321.97
214.264	263.46
214.731	277.5
215.199	254.09
215.666	237.71
216.133	293.88
216.601	247.07
217.068	193.24
217.535	298.56
218.003	237.71
218.47	214.31
218.937	218.99
219.404	254.09
219.871	310.27
220.338	251.75
220.805	277.5
221.271	298.56
221.738	242.39
222.205	242.39
222.671	305.59
223.138	230.69
223.605	165.15
224.071	296.22
224.538	277.5
225.004	230.69
225.47	226.01
225.937	235.37
226.403	296.22
226.869	282.18
227.335	249.41
227.801	270.48
228.267	218.99
228.733	310.27
229.199	233.03
229.665	282.18
230.131	249.41
230.597	251.75
231.062	270.48
231.528	286.86
231.994	275.16
232.459	235.37
232.925	207.28
233.39	235.37
233.856	254.09
234.321	256.43
234.786	256.43
235.252	331.33
235.717	251.75
236.182	158.13
236.647	275.16
237.112	284.52
237.577	307.93
238.042	282.18
238.507	263.46
238.972	298.56
239.436	275.16
239.901	235.37
240.366	251.75
240.83	247.07
241.295	277.5
241.76	350.06
242.224	289.2
242.688	240.05
243.153	298.56
243.617	216.65
244.081	284.52
244.545	272.82
245.01	216.65
245.474	254.09
245.938	326.65
246.402	289.2
246.866	247.07
247.33	298.56
247.793	284.52
248.257	272.82
248.721	226.01
249.185	265.8
249.648	254.09
250.112	237.71
250.575	247.07
251.039	275.16
251.502	317.29
251.965	261.12
252.429	270.48
252.892	321.97
253.355	289.2
253.818	268.14
254.281	286.86
254.744	258.78
255.207	312.61
255.67	207.28
256.133	268.14
256.596	193.24
257.059	300.91
257.522	256.43
257.984	317.29
258.447	272.82
258.909	240.05
259.372	237.71
259.834	293.88
260.297	291.54
260.759	340.69
261.221	347.72
261.684	251.75
262.146	307.93
262.608	251.75
263.07	186.22
263.532	293.88
263.994	282.18
264.456	324.31
264.918	263.46
265.38	277.5
265.842	251.75
266.303	218.99
266.765	314.95
267.227	228.35
267.688	286.86
268.15	272.82
268.611	265.8
269.072	286.86
269.534	270.48
269.995	216.65
270.456	279.84
270.918	247.07
271.379	263.46
271.84	305.59
272.301	279.84
272.762	296.22
273.223	275.16
273.684	298.56
274.144	230.69
274.605	328.99
275.066	244.73
275.527	270.48
275.987	235.37
276.448	235.37
276.908	247.07
277.369	279.84
277.829	268.14
278.289	289.2
278.75	312.61
279.21	265.8
279.67	296.22
280.13	244.73
280.59	254.09
281.05	298.56
281.51	321.97
281.97	347.72
282.43	270.48
282.89	279.84
283.35	352.4
283.809	209.62
284.269	303.25
284.729	291.54
285.188	240.05
285.648	197.92
286.107	312.61
286.567	293.88
287.026	326.65
287.485	286.86
287.944	345.38
288.404	261.12
288.863	336.01
289.322	333.67
289.781	310.27
290.24	263.46
290.699	310.27
291.158	263.46
291.616	300.91
292.075	256.43
292.534	265.8
292.992	270.48
293.451	251.75
293.91	270.48
294.368	317.29
294.827	242.39
295.285	286.86
295.743	282.18
296.202	291.54
296.66	286.86
297.118	230.69
297.576	296.22
298.034	298.56
298.492	293.88
298.95	310.27
299.408	300.91
299.866	324.31
300.324	305.59
300.781	307.93
301.239	303.25
301.697	275.16
302.154	328.99
302.612	272.82
303.069	277.5
303.527	279.84
303.984	289.2
304.441	275.16
304.899	321.97
305.356	254.09
305.813	286.86
306.27	277.5
306.727	293.88
307.184	307.93
307.641	251.75
308.098	282.18
308.555	296.22
309.012	251.75
309.468	296.22
309.925	305.59
310.382	251.75
310.838	296.22
311.295	314.95
311.751	324.31
312.208	268.14
312.664	319.63
313.12	249.41
313.577	230.69
314.033	296.22
314.489	268.14
314.945	270.48
315.401	277.5
315.857	277.5
316.313	230.69
316.769	282.18
317.225	244.73
317.681	263.46
318.136	263.46
318.592	254.09
319.048	350.06
319.503	298.56
319.959	237.71
320.414	275.16
320.869	247.07
321.325	321.97
321.78	310.27
322.235	265.8
322.691	270.48
323.146	237.71
323.601	275.16
324.056	307.93
324.511	321.97
324.966	244.73
325.421	368.78
325.875	284.52
326.33	319.63
326.785	233.03
327.24	317.29
327.694	298.56
328.149	321.97
328.603	265.8
329.058	291.54
329.512	268.14
329.966	244.73
330.421	340.69
330.875	364.1
331.329	312.61
331.783	272.82
332.237	218.99
332.691	289.2
333.145	272.82
333.599	293.88
334.053	312.61
334.507	312.61
334.96	263.46
335.414	336.01
335.868	237.71
336.321	265.8
336.775	261.12
337.228	289.2
337.682	286.86
338.135	326.65
338.588	307.93
339.042	305.59
339.495	286.86
339.948	357.08
340.401	300.91
340.854	338.35
341.307	272.82
341.76	291.54
342.213	270.48
342.666	307.93
343.119	275.16
343.571	312.61
344.024	317.29
344.477	254.09
344.929	291.54
345.382	307.93
345.834	312.61
346.287	319.63
346.739	228.35
347.191	251.75
347.644	268.14
348.096	275.16
348.548	275.16
349	321.97
349.452	291.54
349.904	296.22
350.356	289.2
350.808	307.93
351.26	284.52
351.711	284.52
352.163	314.95
352.615	277.5
353.066	319.63
353.518	345.38
353.969	275.16
354.421	254.09
354.872	282.18
355.324	340.69
355.775	282.18
356.226	275.16
356.677	289.2
357.128	279.84
357.579	233.03
358.03	265.8
358.481	345.38
358.932	352.4
359.383	282.18
359.834	324.31
360.285	317.29
360.735	296.22
361.186	221.33
361.637	289.2
362.087	282.18
362.538	324.31
362.988	254.09
363.438	272.82
363.889	314.95
364.339	321.97
364.789	258.78
365.239	321.97
365.689	359.42
366.139	310.27
366.589	289.2
367.039	305.59
367.489	298.56
367.939	261.12
368.389	321.97
368.839	310.27
369.288	328.99
369.738	310.27
370.187	291.54
370.637	279.84
371.086	228.35
371.536	321.97
371.985	326.65
372.434	293.88
372.884	277.5
373.333	303.25
373.782	312.61
374.231	347.72
374.68	251.75
375.129	343.03
375.578	247.07
376.027	298.56
376.475	298.56
376.924	314.95
377.373	324.31
377.822	284.52
378.27	305.59
378.719	258.78
379.167	333.67
379.616	310.27
380.064	350.06
380.512	314.95
380.961	282.18
381.409	300.91
381.857	275.16
382.305	284.52
382.753	305.59
383.201	298.56
383.649	350.06
384.097	336.01
384.545	354.74
384.992	361.76
385.44	226.01
385.888	303.25
386.335	272.82
386.783	324.31
387.231	300.91
387.678	336.01
388.125	331.33
388.573	331.33
389.02	296.22
389.467	298.56
389.914	380.48
390.362	265.8
390.809	247.07
391.256	328.99
391.703	324.31
392.15	291.54
392.596	345.38
393.043	242.39
393.49	293.88
393.937	272.82
394.383	312.61
394.83	343.03
395.276	324.31
395.723	317.29
396.169	289.2
396.616	298.56
397.062	328.99
397.508	324.31
397.954	324.31
398.401	338.35
398.847	338.35
399.293	307.93
399.739	324.31
400.185	361.76
400.631	336.01
401.076	317.29
401.522	371.12
401.968	310.27
402.414	314.95
402.859	310.27
403.305	347.72
403.75	268.14
404.196	317.29
404.641	249.41
405.086	307.93
405.532	307.93
405.977	328.99
406.422	310.27
406.867	296.22
407.312	254.09
407.757	263.46
408.202	247.07
408.647	326.65
409.092	385.16
409.537	279.84
409.982	336.01
410.426	265.8
410.871	300.91
411.316	303.25
411.76	258.78
412.205	338.35
412.649	289.2
413.093	293.88
413.538	303.25
413.982	305.59
414.426	326.65
414.87	282.18
415.314	340.69
415.758	251.75
416.202	305.59
416.646	375.8
417.09	247.07
417.534	312.61
417.978	333.67
418.421	240.05
418.865	265.8
419.309	326.65
419.752	303.25
420.196	291.54
420.639	352.4
421.083	336.01
421.526	286.86
421.969	321.97
422.412	270.48
422.856	324.31
423.299	310.27
423.742	338.35
424.185	298.56
424.628	366.44
425.071	343.03
425.513	312.61
425.956	270.48
426.399	338.35
426.842	289.2
427.284	277.5
427.727	298.56
428.169	352.4
428.612	312.61
429.054	366.44
429.497	343.03
429.939	235.37
430.381	291.54
430.823	298.56
431.265	326.65
431.707	314.95
432.149	303.25
432.591	293.88
433.033	328.99
433.475	352.4
433.917	328.99
434.359	265.8
434.8	214.31
435.242	270.48
435.684	277.5
436.125	317.29
436.567	279.84
437.008	291.54
437.449	333.67
437.891	310.27
438.332	333.67
438.773	305.59
439.214	331.33
439.656	310.27
440.097	321.97
440.538	328.99
440.978	343.03
441.419	298.56
441.86	307.93
442.301	270.48
442.742	251.75
443.182	324.31
443.623	338.35
444.063	338.35
444.504	310.27
444.944	221.33
445.385	296.22
445.825	312.61
446.265	237.71
446.706	279.84
447.146	357.08
447.586	305.59
448.026	345.38
448.466	396.87
448.906	328.99
449.346	289.2
449.786	258.78
450.225	310.27
450.665	354.74
451.105	289.2
451.544	352.4
451.984	263.46
452.424	340.69
452.863	291.54
453.302	305.59
453.742	361.76
454.181	326.65
454.62	289.2
455.059	382.82
455.499	282.18
455.938	324.31
456.377	272.82
456.816	357.08
457.254	343.03
457.693	293.88
458.132	310.27
458.571	317.29
459.01	368.78
459.448	314.95
459.887	293.88
460.325	387.5
460.764	300.91
461.202	298.56
461.641	343.03
462.079	326.65
462.517	298.56
462.955	261.12
463.393	277.5
463.832	324.31
464.27	235.37
464.708	310.27
465.145	286.86
465.583	328.99
466.021	343.03
466.459	312.61
466.897	321.97
467.334	282.18
467.772	312.61
468.209	310.27
468.647	284.52
469.084	261.12
469.522	326.65
469.959	340.69
470.396	270.48
470.833	317.29
471.271	314.95
471.708	324.31
472.145	275.16
472.582	338.35
473.019	300.91
473.456	310.27
473.892	361.76
474.329	289.2
474.766	237.71
475.202	321.97
475.639	279.84
476.076	268.14
476.512	291.54
476.949	336.01
477.385	312.61
477.821	272.82
478.258	357.08
478.694	326.65
479.13	314.95
479.566	340.69
480.002	350.06
480.438	190.9
480.874	324.31
481.31	319.63
481.746	307.93
482.181	298.56
482.617	270.48
483.053	375.8
483.488	373.46
483.924	230.69
484.36	254.09
484.795	343.03
485.23	359.42
485.666	296.22
486.101	338.35
486.536	368.78
486.971	296.22
487.407	359.42
487.842	324.31
488.277	289.2
488.712	233.03
489.146	347.72
489.581	289.2
490.016	296.22
490.451	268.14
490.885	291.54
491.32	317.29
491.755	291.54
492.189	324.31
492.624	333.67
493.058	284.52
493.492	328.99
493.927	340.69
494.361	366.44
494.795	277.5
495.229	298.56
495.663	429.63
496.097	265.8
496.531	284.52
496.965	357.08
497.399	333.67
497.833	338.35
498.266	279.84
498.7	364.1
499.134	378.14
499.567	366.44
500.001	307.93
500.434	296.22
500.868	263.46
501.301	298.56
501.734	289.2
502.168	375.8
502.601	272.82
503.034	317.29
503.467	268.14
503.9	338.35
504.333	289.2
504.766	345.38
505.199	371.12
505.632	333.67
506.064	317.29
506.497	314.95
506.93	352.4
507.362	347.72
507.795	305.59
508.227	319.63
508.66	338.35
509.092	296.22
509.524	303.25
509.956	352.4
510.389	321.97
510.821	284.52
511.253	319.63
511.685	350.06
512.117	361.76
512.549	284.52
512.981	223.67
513.412	321.97
513.844	331.33
514.276	235.37
514.707	354.74
515.139	328.99
515.571	331.33
516.002	321.97
516.433	247.07
516.865	286.86
517.296	368.78
517.727	251.75
518.159	331.33
518.59	359.42
519.021	328.99
519.452	345.38
519.883	286.86
520.314	350.06
520.744	364.1
521.175	359.42
521.606	268.14
522.037	300.91
522.467	261.12
522.898	277.5
523.328	275.16
523.759	314.95
524.189	242.39
524.62	282.18
525.05	310.27
525.48	279.84
525.91	254.09
526.341	286.86
526.771	321.97
527.201	298.56
527.631	296.22
528.061	293.88
528.49	333.67
528.92	326.65
529.35	305.59
529.78	254.09
530.209	368.78
530.639	305.59
531.068	296.22
531.498	324.31
531.927	336.01
532.357	368.78
532.786	300.91
533.215	338.35
533.644	254.09
534.074	319.63
534.503	317.29
534.932	303.25
535.361	312.61
535.79	307.93
536.218	401.55
536.647	258.78
537.076	312.61
537.505	265.8
537.933	254.09
538.362	310.27
538.79	277.5
539.219	336.01
539.647	307.93
540.076	237.71
540.504	307.93
540.932	268.14
541.36	310.27
541.788	296.22
542.217	298.56
542.645	305.59
543.073	328.99
543.5	303.25
543.928	296.22
544.356	282.18
544.784	272.82
545.211	303.25
545.639	298.56
546.067	258.78
546.494	354.74
546.922	298.56
547.349	298.56
547.776	272.82
548.204	286.86
548.631	296.22
549.058	296.22
549.485	268.14
549.912	237.71
550.339	300.91
550.766	319.63
551.193	300.91
551.62	319.63
552.047	336.01
552.474	289.2
552.9	336.01
553.327	265.8
553.754	321.97
554.18	328.99
554.607	249.41
555.033	324.31
555.459	298.56
555.886	279.84
556.312	303.25
556.738	319.63
557.164	277.5
557.59	375.8
558.016	254.09
558.442	373.46
558.868	293.88
559.294	361.76
559.72	223.67
560.145	326.65
560.571	357.08
560.997	303.25
561.422	305.59
561.848	314.95
562.273	324.31
562.699	298.56
563.124	307.93
563.549	277.5
563.974	305.59
564.4	268.14
564.825	296.22
565.25	300.91
565.675	343.03
566.1	230.69
566.525	282.18
566.95	272.82
567.374	340.69
567.799	282.18
568.224	310.27
568.648	307.93
569.073	293.88
569.497	298.56
569.922	326.65
570.346	336.01
570.771	328.99
571.195	298.56
571.619	277.5
572.043	319.63
572.467	338.35
572.891	312.61
573.315	235.37
573.739	272.82
574.163	331.33
574.587	326.65
575.011	247.07
575.435	331.33
575.858	350.06
576.282	336.01
576.705	408.57
577.129	340.69
577.552	321.97
577.976	307.93
578.399	403.89
578.822	305.59
579.245	256.43
579.669	326.65
580.092	333.67
580.515	293.88
580.938	319.63
581.361	387.5
581.784	305.59
582.206	258.78
582.629	340.69
583.052	303.25
583.474	284.52
583.897	296.22
584.32	319.63
584.742	303.25
585.165	336.01
585.587	345.38
586.009	286.86
586.431	321.97
586.854	289.2
587.276	338.35
587.698	291.54
588.12	333.67
588.542	261.12
588.964	371.12
589.386	303.25
589.807	350.06
590.229	277.5
590.651	277.5
591.073	296.22
591.494	223.67
591.916	247.07
592.337	324.31
592.759	305.59
593.18	277.5
593.601	300.91
594.022	247.07
594.444	338.35
594.865	314.95
595.286	296.22
595.707	345.38
596.128	340.69
596.549	261.12
596.97	347.72
597.39	291.54
597.811	296.22
598.232	289.2
598.652	296.22
599.073	373.46
599.494	350.06
599.914	277.5
600.334	305.59
600.755	263.46
601.175	305.59
601.595	321.97
602.015	300.91
602.436	314.95
602.856	429.63
603.276	296.22
603.696	261.12
604.115	307.93
604.535	343.03
604.955	352.4
605.375	296.22
605.794	291.54
606.214	296.22
606.634	310.27
607.053	300.91
607.473	371.12
607.892	298.56
608.311	272.82
608.731	326.65
609.15	321.97
609.569	291.54
609.988	328.99
610.407	265.8
610.826	389.85
611.245	312.61
611.664	312.61
612.083	279.84
612.501	326.65
612.92	328.99
613.339	340.69
613.757	256.43
614.176	300.91
614.594	319.63
615.013	279.84
615.431	284.52
615.85	298.56
616.268	256.43
616.686	275.16
617.104	268.14
617.522	275.16
617.94	291.54
618.358	289.2
618.776	321.97
619.194	305.59
619.612	368.78
620.03	373.46
620.447	357.08
620.865	303.25
621.282	328.99
621.7	364.1
622.117	338.35
622.535	317.29
622.952	307.93
623.369	284.52
623.787	328.99
624.204	251.75
624.621	319.63
625.038	286.86
625.455	289.2
625.872	321.97
626.289	375.8
626.706	303.25
627.123	291.54
627.539	310.27
627.956	293.88
628.373	233.03
628.789	289.2
629.206	289.2
629.622	336.01
630.038	265.8
630.455	268.14
630.871	333.67
631.287	319.63
631.703	324.31
632.12	275.16
632.536	319.63
632.952	305.59
633.368	321.97
633.783	282.18
634.199	261.12
634.615	368.78
635.031	310.27
635.446	345.38
635.862	289.2
636.277	375.8
636.693	331.33
637.108	256.43
637.524	408.57
637.939	324.31
638.354	345.38
638.77	303.25
639.185	307.93
639.6	328.99
640.015	282.18
640.43	254.09
640.845	368.78
641.259	249.41
641.674	312.61
642.089	321.97
642.504	237.71
642.918	256.43
643.333	291.54
643.747	350.06
644.162	368.78
644.576	312.61
644.991	336.01
645.405	293.88
645.819	242.39
646.233	279.84
646.647	336.01
647.061	333.67
647.475	317.29
647.889	230.69
648.303	291.54
648.717	286.86
649.131	235.37
649.545	305.59
649.958	338.35
650.372	317.29
650.785	254.09
651.199	256.43
651.612	202.6
652.026	303.25
652.439	254.09
652.852	312.61
653.266	303.25
653.679	357.08
654.092	279.84
654.505	331.33
654.918	336.01
655.331	321.97
655.744	298.56
656.156	291.54
656.569	331.33
656.982	263.46
657.394	326.65
657.807	272.82
658.22	261.12
658.632	261.12
659.044	336.01
659.457	286.86
659.869	298.56
660.281	291.54
660.693	282.18
661.106	272.82
661.518	272.82
661.93	333.67
662.342	359.42
662.754	293.88
663.165	345.38
663.577	359.42
663.989	296.22
664.401	279.84
664.812	317.29
665.224	314.95
665.635	293.88
666.047	305.59
666.458	305.59
666.869	300.91
667.281	221.33
667.692	284.52
668.103	314.95
668.514	310.27
668.925	265.8
669.336	249.41
669.747	279.84
670.158	352.4
670.569	350.06
670.979	298.56
671.39	338.35
671.801	319.63
672.211	272.82
672.622	265.8
673.032	268.14
673.443	340.69
673.853	317.29
674.263	312.61
674.674	298.56
675.084	310.27
675.494	350.06
675.904	263.46
676.314	265.8
676.724	221.33
677.134	317.29
677.544	317.29
677.953	275.16
678.363	312.61
678.773	324.31
679.182	258.78
679.592	324.31
680.001	321.97
680.411	233.03
680.82	338.35
681.23	286.86
681.639	310.27
682.048	307.93
682.457	310.27
682.866	289.2
683.275	286.86
683.684	298.56
684.093	361.76
684.502	275.16
684.911	343.03
685.32	282.18
685.728	314.95
686.137	286.86
686.546	307.93
686.954	333.67
687.363	326.65
687.771	328.99
688.179	314.95
688.588	333.67
688.996	305.59
689.404	338.35
689.812	354.74
690.22	361.76
690.628	305.59
691.036	305.59
691.444	279.84
691.852	286.86
692.26	338.35
692.667	296.22
693.075	254.09
693.483	305.59
693.89	319.63
694.298	345.38
694.705	286.86
695.112	312.61
695.52	258.78
695.927	265.8
696.334	254.09
696.741	314.95
697.148	237.71
697.555	300.91
697.962	326.65
698.369	336.01
698.776	272.82
699.183	293.88
699.59	298.56
699.996	319.63
700.403	244.73
700.81	303.25
701.216	336.01
701.623	319.63
702.029	242.39
702.435	317.29
702.842	326.65
703.248	277.5
703.654	256.43
704.06	207.28
704.466	338.35
704.872	286.86
705.278	310.27
705.684	312.61
706.09	293.88
706.496	284.52
706.901	300.91
707.307	298.56
707.712	247.07
708.118	307.93
708.523	331.33
708.929	275.16
709.334	310.27
709.74	336.01
710.145	314.95
710.55	359.42
710.955	214.31
711.36	331.33
711.765	277.5
712.17	310.27
712.575	307.93
712.98	792.42
713.385	354.74
713.789	277.5
714.194	350.06
714.599	375.8
715.003	305.59
715.408	263.46
715.812	291.54
716.217	289.2
716.621	275.16
717.025	343.03
717.429	298.56
717.833	312.61
718.238	277.5
718.642	345.38
719.046	314.95
719.449	319.63
719.853	265.8
720.257	268.14
720.661	305.59
721.065	296.22
721.468	336.01
721.872	331.33
722.275	305.59
722.679	328.99
723.082	314.95
723.485	277.5
723.889	284.52
724.292	263.46
724.695	303.25
725.098	338.35
725.501	282.18
725.904	261.12
726.307	312.61
726.71	312.61
727.113	321.97
727.516	284.52
727.918	268.14
728.321	336.01
728.724	279.84
729.126	312.61
729.529	326.65
729.931	305.59
730.333	319.63
730.736	277.5
731.138	275.16
731.54	371.12
731.942	296.22
732.344	303.25
732.746	263.46
733.148	270.48
733.55	324.31
733.952	282.18
734.354	303.25
734.756	336.01
735.157	291.54
735.559	328.99
735.96	242.39
736.362	275.16
736.763	324.31
737.165	298.56
737.566	289.2
737.967	314.95
738.368	331.33
738.77	338.35
739.171	291.54
739.572	216.65
739.973	324.31
740.374	289.2
740.774	359.42
741.175	303.25
741.576	289.2
741.977	282.18
742.377	314.95
742.778	312.61
743.178	279.84
743.579	328.99
743.979	275.16
744.379	319.63
744.78	303.25
745.18	310.27
745.58	317.29
745.98	340.69
746.38	373.46
746.78	321.97
747.18	373.46
747.58	286.86
747.98	317.29
748.38	254.09
748.779	317.29
749.179	277.5
749.578	263.46
749.978	324.31
750.377	331.33
750.777	328.99
751.176	296.22
751.575	326.65
751.975	221.33
752.374	298.56
752.773	303.25
753.172	258.78
753.571	272.82
753.97	244.73
754.369	240.05
754.768	284.52
755.166	371.12
755.565	233.03
755.964	317.29
756.362	347.72
756.761	279.84
757.159	324.31
757.558	319.63
757.956	375.8
758.354	340.69
758.753	254.09
759.151	324.31
759.549	293.88
759.947	303.25
760.345	326.65
760.743	345.38
761.141	282.18
761.539	298.56
761.936	396.87
762.334	268.14
762.732	357.08
763.129	265.8
763.527	254.09
763.924	298.56
764.322	310.27
764.719	307.93
