Data from Al_FLMS009871__1243__16-46-15-272.txt Node

Date: Fri Mar 08 16:46:15 CST 2024
User: pe5414po
Spectrometer: FLMS00987
Trigger mode: 0
Integration Time (sec): 1.000000E-1
Scans to average: 1
Electric dark correction enabled: true
Nonlinearity correction enabled: false
Boxcar width: 0
XAxis mode: Wavelengths
Number of Pixels in Spectrum: 2048
>>>>>Begin Spectral Data<<<<<
188.938	4.24
189.409	4.24
189.879	4.24
190.349	-108.1
190.819	-77.68
191.29	-63.63
191.76	-96.4
192.23	-51.93
192.7	-82.36
193.17	-126.83
193.64	-40.23
194.109	-70.65
194.579	-54.27
195.049	11.26
195.519	86.16
195.988	-0.44
196.458	81.48
196.927	114.25
197.397	72.12
197.866	109.57
198.336	111.91
198.805	186.8
199.274	217.23
199.744	275.74
200.213	275.74
200.682	205.53
201.151	238.3
201.62	301.49
202.089	282.77
202.558	217.23
203.027	289.79
203.495	245.32
203.964	273.4
204.433	259.36
204.902	343.62
205.37	285.11
205.839	381.07
206.307	385.75
206.776	331.92
207.244	355.32
207.712	306.17
208.181	345.96
208.649	357.66
209.117	278.08
209.585	266.38
210.053	275.74
210.521	285.11
210.989	310.85
211.457	289.79
211.925	287.45
212.393	254.68
212.861	324.9
213.328	282.77
213.796	280.43
214.264	336.6
214.731	259.36
215.199	275.74
215.666	296.81
216.133	280.43
216.601	341.28
217.068	289.79
217.535	315.53
218.003	360
218.47	275.74
218.937	282.77
219.404	252.34
219.871	322.56
220.338	343.62
220.805	320.21
221.271	296.81
221.738	210.21
222.205	235.96
222.671	308.51
223.138	231.27
223.605	266.38
224.071	292.13
224.538	296.81
225.004	303.83
225.47	294.47
225.937	352.98
226.403	184.46
226.869	271.06
227.335	250
227.801	352.98
228.267	271.06
228.733	266.38
229.199	285.11
229.665	294.47
230.131	299.15
230.597	275.74
231.062	226.59
231.528	273.4
231.994	273.4
232.459	327.24
232.925	334.26
233.39	264.04
233.856	306.17
234.321	301.49
234.786	271.06
235.252	299.15
235.717	287.45
236.182	280.43
236.647	320.21
237.112	275.74
237.577	327.24
238.042	308.51
238.507	299.15
238.972	235.96
239.436	292.13
239.901	350.64
240.366	247.66
240.83	308.51
241.295	287.45
241.76	282.77
242.224	343.62
242.688	254.68
243.153	247.66
243.617	289.79
244.081	334.26
244.545	294.47
245.01	282.77
245.474	287.45
245.938	313.19
246.402	261.7
246.866	320.21
247.33	282.77
247.793	261.7
248.257	273.4
248.721	360
249.185	348.3
249.648	348.3
250.112	275.74
250.575	315.53
251.039	329.58
251.502	310.85
251.965	315.53
252.429	296.81
252.892	313.19
253.355	287.45
253.818	315.53
254.281	313.19
254.744	289.79
255.207	320.21
255.67	327.24
256.133	280.43
256.596	301.49
257.059	350.64
257.522	324.9
257.984	299.15
258.447	252.34
258.909	287.45
259.372	282.77
259.834	355.32
260.297	299.15
260.759	275.74
261.221	271.06
261.684	259.36
262.146	308.51
262.608	285.11
263.07	324.9
263.532	308.51
263.994	392.77
264.456	308.51
264.918	287.45
265.38	294.47
265.842	331.92
266.303	280.43
266.765	280.43
267.227	350.64
267.688	324.9
268.15	348.3
268.611	294.47
269.072	261.7
269.534	320.21
269.995	327.24
270.456	381.07
270.918	352.98
271.379	355.32
271.84	362.34
272.301	313.19
272.762	341.28
273.223	364.68
273.684	317.87
274.144	275.74
274.605	315.53
275.066	287.45
275.527	397.45
275.987	322.56
276.448	334.26
276.908	294.47
277.369	308.51
277.829	296.81
278.289	320.21
278.75	308.51
279.21	381.07
279.67	383.41
280.13	360
280.59	259.36
281.05	313.19
281.51	327.24
281.97	308.51
282.43	367.03
282.89	322.56
283.35	362.34
283.809	369.37
284.269	289.79
284.729	381.07
285.188	352.98
285.648	364.68
286.107	348.3
286.567	336.6
287.026	327.24
287.485	360
287.944	271.06
288.404	343.62
288.863	299.15
289.322	280.43
289.781	282.77
290.24	369.37
290.699	289.79
291.158	369.37
291.616	313.19
292.075	306.17
292.534	352.98
292.992	322.56
293.451	278.08
293.91	371.71
294.368	369.37
294.827	317.87
295.285	310.85
295.743	289.79
296.202	331.92
296.66	324.9
297.118	299.15
297.576	390.43
298.034	289.79
298.492	259.36
298.95	294.47
299.408	299.15
299.866	266.38
300.324	360
300.781	308.51
301.239	352.98
301.697	261.7
302.154	315.53
302.612	329.58
303.069	327.24
303.527	308.51
303.984	327.24
304.441	355.32
304.899	362.34
305.356	257.02
305.813	341.28
306.27	322.56
306.727	341.28
307.184	308.51
307.641	320.21
308.098	296.81
308.555	362.34
309.012	301.49
309.468	327.24
309.925	348.3
310.382	327.24
310.838	336.6
311.295	301.49
311.751	360
312.208	306.17
312.664	369.37
313.12	392.77
313.577	334.26
314.033	357.66
314.489	345.96
314.945	324.9
315.401	303.83
315.857	341.28
316.313	301.49
316.769	355.32
317.225	294.47
317.681	334.26
318.136	320.21
318.592	324.9
319.048	355.32
319.503	296.81
319.959	350.64
320.414	348.3
320.869	327.24
321.325	280.43
321.78	313.19
322.235	352.98
322.691	278.08
323.146	360
323.601	280.43
324.056	315.53
324.511	289.79
324.966	355.32
325.421	315.53
325.875	369.37
326.33	331.92
326.785	341.28
327.24	374.05
327.694	313.19
328.149	320.21
328.603	264.04
329.058	343.62
329.512	285.11
329.966	254.68
330.421	320.21
330.875	381.07
331.329	247.66
331.783	259.36
332.237	343.62
332.691	371.71
333.145	345.96
333.599	315.53
334.053	364.68
334.507	303.83
334.96	345.96
335.414	355.32
335.868	360
336.321	285.11
336.775	367.03
337.228	313.19
337.682	383.41
338.135	315.53
338.588	348.3
339.042	329.58
339.495	306.17
339.948	280.43
340.401	350.64
340.854	329.58
341.307	296.81
341.76	331.92
342.213	289.79
342.666	338.94
343.119	296.81
343.571	364.68
344.024	315.53
344.477	322.56
344.929	352.98
345.382	308.51
345.834	299.15
346.287	360
346.739	320.21
347.191	317.87
347.644	313.19
348.096	322.56
348.548	409.15
349	367.03
349.452	299.15
349.904	357.66
350.356	352.98
350.808	322.56
351.26	315.53
351.711	345.96
352.163	282.77
352.615	369.37
353.066	348.3
353.518	355.32
353.969	322.56
354.421	310.85
354.872	306.17
355.324	315.53
355.775	285.11
356.226	376.39
356.677	320.21
357.128	327.24
357.579	336.6
358.03	315.53
358.481	315.53
358.932	334.26
359.383	341.28
359.834	378.73
360.285	266.38
360.735	360
361.186	313.19
361.637	306.17
362.087	334.26
362.538	329.58
362.988	338.94
363.438	395.11
363.889	392.77
364.339	345.96
364.789	296.81
365.239	329.58
365.689	343.62
366.139	341.28
366.589	322.56
367.039	341.28
367.489	376.39
367.939	285.11
368.389	343.62
368.839	278.08
369.288	338.94
369.738	310.85
370.187	329.58
370.637	364.68
371.086	317.87
371.536	348.3
371.985	329.58
372.434	334.26
372.884	322.56
373.333	331.92
373.782	301.49
374.231	348.3
374.68	322.56
375.129	367.03
375.578	343.62
376.027	310.85
376.475	334.26
376.924	273.4
377.373	390.43
377.822	289.79
378.27	348.3
378.719	341.28
379.167	381.07
379.616	331.92
380.064	322.56
380.512	282.77
380.961	348.3
381.409	317.87
381.857	329.58
382.305	287.45
382.753	334.26
383.201	343.62
383.649	360
384.097	334.26
384.545	336.6
384.992	345.96
385.44	238.3
385.888	306.17
386.335	360
386.783	360
387.231	331.92
387.678	390.43
388.125	355.32
388.573	357.66
389.02	362.34
389.467	334.26
389.914	336.6
390.362	388.09
390.809	315.53
391.256	369.37
391.703	374.05
392.15	322.56
392.596	315.53
393.043	322.56
393.49	320.21
393.937	308.51
394.383	381.07
394.83	341.28
395.276	357.66
395.723	315.53
396.169	341.28
396.616	242.98
397.062	367.03
397.508	367.03
397.954	350.64
398.401	362.34
398.847	345.96
399.293	315.53
399.739	320.21
400.185	348.3
400.631	336.6
401.076	331.92
401.522	369.37
401.968	282.77
402.414	357.66
402.859	322.56
403.305	381.07
403.75	324.9
404.196	320.21
404.641	352.98
405.086	329.58
405.532	364.68
405.977	355.32
406.422	376.39
406.867	331.92
407.312	259.36
407.757	388.09
408.202	331.92
408.647	338.94
409.092	301.49
409.537	285.11
409.982	348.3
410.426	324.9
410.871	324.9
411.316	352.98
411.76	320.21
412.205	371.71
412.649	261.7
413.093	341.28
413.538	360
413.982	296.81
414.426	364.68
414.87	397.45
415.314	329.58
415.758	324.9
416.202	355.32
416.646	350.64
417.09	352.98
417.534	278.08
417.978	355.32
418.421	303.83
418.865	381.07
419.309	345.96
419.752	355.32
420.196	322.56
420.639	310.85
421.083	369.37
421.526	285.11
421.969	439.58
422.412	343.62
422.856	334.26
423.299	357.66
423.742	343.62
424.185	350.64
424.628	336.6
425.071	331.92
425.513	296.81
425.956	350.64
426.399	334.26
426.842	327.24
427.284	324.9
427.727	369.37
428.169	423.2
428.612	364.68
429.054	355.32
429.497	322.56
429.939	357.66
430.381	348.3
430.823	388.09
431.265	336.6
431.707	329.58
432.149	338.94
432.591	376.39
433.033	404.47
433.475	289.79
433.917	320.21
434.359	282.77
434.8	423.2
435.242	357.66
435.684	322.56
436.125	367.03
436.567	240.64
437.008	282.77
437.449	348.3
437.891	348.3
438.332	343.62
438.773	341.28
439.214	362.34
439.656	367.03
440.097	385.75
440.538	364.68
440.978	348.3
441.419	392.77
441.86	381.07
442.301	348.3
442.742	383.41
443.182	338.94
443.623	252.34
444.063	327.24
444.504	367.03
444.944	345.96
445.385	371.71
445.825	345.96
446.265	360
446.706	259.36
447.146	374.05
447.586	350.64
448.026	388.09
448.466	381.07
448.906	369.37
449.346	331.92
449.786	381.07
450.225	324.9
450.665	355.32
451.105	376.39
451.544	352.98
451.984	355.32
452.424	327.24
452.863	360
453.302	367.03
453.742	289.79
454.181	345.96
454.62	317.87
455.059	315.53
455.499	338.94
455.938	350.64
456.377	364.68
456.816	308.51
457.254	317.87
457.693	348.3
458.132	352.98
458.571	383.41
459.01	336.6
459.448	355.32
459.887	367.03
460.325	378.73
460.764	331.92
461.202	345.96
461.641	289.79
462.079	301.49
462.517	320.21
462.955	423.2
463.393	308.51
463.832	257.02
464.27	395.11
464.708	334.26
465.145	292.13
465.583	369.37
466.021	409.15
466.459	348.3
466.897	369.37
467.334	254.68
467.772	362.34
468.209	317.87
468.647	367.03
469.084	352.98
469.522	413.84
469.959	397.45
470.396	257.02
470.833	329.58
471.271	444.26
471.708	352.98
472.145	329.58
472.582	338.94
473.019	376.39
473.456	362.34
473.892	327.24
474.329	381.07
474.766	334.26
475.202	343.62
475.639	327.24
476.076	374.05
476.512	317.87
476.949	341.28
477.385	350.64
477.821	350.64
478.258	289.79
478.694	327.24
479.13	320.21
479.566	315.53
480.002	367.03
480.438	392.77
480.874	374.05
481.31	338.94
481.746	374.05
482.181	324.9
482.617	238.3
483.053	425.54
483.488	357.66
483.924	360
484.36	364.68
484.795	371.71
485.23	343.62
485.666	343.62
486.101	390.43
486.536	341.28
486.971	350.64
487.407	341.28
487.842	378.73
488.277	331.92
488.712	343.62
489.146	315.53
489.581	320.21
490.016	301.49
490.451	418.52
490.885	336.6
491.32	383.41
491.755	334.26
492.189	362.34
492.624	350.64
493.058	331.92
493.492	355.32
493.927	341.28
494.361	341.28
494.795	357.66
495.229	343.62
495.663	364.68
496.097	404.47
496.531	320.21
496.965	357.66
497.399	336.6
497.833	280.43
498.266	348.3
498.7	292.13
499.134	362.34
499.567	369.37
500.001	327.24
500.434	338.94
500.868	376.39
501.301	392.77
501.734	306.17
502.168	285.11
502.601	320.21
503.034	381.07
503.467	336.6
503.9	308.51
504.333	338.94
504.766	376.39
505.199	360
505.632	355.32
506.064	294.47
506.497	320.21
506.93	357.66
507.362	320.21
507.795	336.6
508.227	404.47
508.66	343.62
509.092	287.45
509.524	310.85
509.956	331.92
510.389	381.07
510.821	374.05
511.253	322.56
511.685	343.62
512.117	338.94
512.549	383.41
512.981	303.83
513.412	320.21
513.844	341.28
514.276	320.21
514.707	322.56
515.139	432.56
515.571	306.17
516.002	315.53
516.433	301.49
516.865	334.26
517.296	376.39
517.727	289.79
518.159	331.92
518.59	381.07
519.021	327.24
519.452	320.21
519.883	345.96
520.314	367.03
520.744	392.77
521.175	420.86
521.606	320.21
522.037	369.37
522.467	338.94
522.898	345.96
523.328	341.28
523.759	352.98
524.189	399.79
524.62	343.62
525.05	275.74
525.48	292.13
525.91	308.51
526.341	392.77
526.771	360
527.201	376.39
527.631	395.11
528.061	303.83
528.49	383.41
528.92	334.26
529.35	362.34
529.78	385.75
530.209	338.94
530.639	336.6
531.068	364.68
531.498	397.45
531.927	367.03
532.357	367.03
532.786	280.43
533.215	303.83
533.644	324.9
534.074	376.39
534.503	376.39
534.932	331.92
535.361	399.79
535.79	350.64
536.218	296.81
536.647	357.66
537.076	385.75
537.505	355.32
537.933	273.4
538.362	341.28
538.79	367.03
539.219	404.47
539.647	350.64
540.076	409.15
540.504	348.3
540.932	315.53
541.36	329.58
541.788	292.13
542.217	360
542.645	315.53
543.073	313.19
543.5	348.3
543.928	268.72
544.356	348.3
544.784	341.28
545.211	343.62
545.639	320.21
546.067	350.64
546.494	324.9
546.922	324.9
547.349	345.96
547.776	399.79
548.204	338.94
548.631	327.24
549.058	336.6
549.485	303.83
549.912	327.24
550.339	310.85
550.766	275.74
551.193	364.68
551.62	367.03
552.047	378.73
552.474	371.71
552.9	399.79
553.327	299.15
553.754	334.26
554.18	352.98
554.607	308.51
555.033	364.68
555.459	383.41
555.886	364.68
556.312	388.09
556.738	303.83
557.164	345.96
557.59	369.37
558.016	327.24
558.442	296.81
558.868	362.34
559.294	336.6
559.72	348.3
560.145	336.6
560.571	317.87
560.997	364.68
561.422	374.05
561.848	287.45
562.273	303.83
562.699	360
563.124	392.77
563.549	289.79
563.974	327.24
564.4	315.53
564.825	381.07
565.25	336.6
565.675	331.92
566.1	313.19
566.525	392.77
566.95	308.51
567.374	360
567.799	324.9
568.224	329.58
568.648	345.96
569.073	360
569.497	362.34
569.922	383.41
570.346	338.94
570.771	336.6
571.195	334.26
571.619	360
572.043	341.28
572.467	362.34
572.891	331.92
573.315	360
573.739	315.53
574.163	306.17
574.587	345.96
575.011	385.75
575.435	329.58
575.858	336.6
576.282	331.92
576.705	345.96
577.129	268.72
577.552	348.3
577.976	322.56
578.399	320.21
578.822	388.09
579.245	355.32
579.669	334.26
580.092	343.62
580.515	371.71
580.938	343.62
581.361	341.28
581.784	364.68
582.206	383.41
582.629	345.96
583.052	364.68
583.474	264.04
583.897	388.09
584.32	313.19
584.742	322.56
585.165	383.41
585.587	381.07
586.009	310.85
586.431	409.15
586.854	362.34
587.276	341.28
587.698	303.83
588.12	334.26
588.542	360
588.964	369.37
589.386	282.77
589.807	352.98
590.229	261.7
590.651	376.39
591.073	409.15
591.494	287.45
591.916	322.56
592.337	299.15
592.759	376.39
593.18	331.92
593.601	360
594.022	381.07
594.444	331.92
594.865	357.66
595.286	334.26
595.707	315.53
596.128	355.32
596.549	334.26
596.97	367.03
597.39	345.96
597.811	374.05
598.232	317.87
598.652	360
599.073	310.85
599.494	247.66
599.914	336.6
600.334	383.41
600.755	427.88
601.175	334.26
601.595	324.9
602.015	266.38
602.436	336.6
602.856	406.81
603.276	341.28
603.696	327.24
604.115	268.72
604.535	420.86
604.955	254.68
605.375	367.03
605.794	327.24
606.214	294.47
606.634	280.43
607.053	418.52
607.473	367.03
607.892	378.73
608.311	348.3
608.731	313.19
609.15	303.83
609.569	357.66
609.988	320.21
610.407	409.15
610.826	371.71
611.245	301.49
611.664	296.81
612.083	338.94
612.501	308.51
612.92	317.87
613.339	301.49
613.757	331.92
614.176	292.13
614.594	378.73
615.013	374.05
615.431	315.53
615.85	348.3
616.268	334.26
616.686	315.53
617.104	378.73
617.522	303.83
617.94	409.15
618.358	355.32
618.776	299.15
619.194	352.98
619.612	348.3
620.03	341.28
620.447	364.68
620.865	308.51
621.282	331.92
621.7	385.75
622.117	324.9
622.535	345.96
622.952	257.02
623.369	310.85
623.787	399.79
624.204	257.02
624.621	331.92
625.038	362.34
625.455	296.81
625.872	299.15
626.289	306.17
626.706	264.04
627.123	336.6
627.539	303.83
627.956	313.19
628.373	327.24
628.789	292.13
629.206	369.37
629.622	362.34
630.038	329.58
630.455	327.24
630.871	320.21
631.287	324.9
631.703	341.28
632.12	381.07
632.536	303.83
632.952	362.34
633.368	374.05
633.783	399.79
634.199	317.87
634.615	320.21
635.031	369.37
635.446	355.32
635.862	322.56
636.277	355.32
636.693	348.3
637.108	334.26
637.524	280.43
637.939	352.98
638.354	242.98
638.77	324.9
639.185	364.68
639.6	313.19
640.015	341.28
640.43	369.37
640.845	266.38
641.259	360
641.674	357.66
642.089	329.58
642.504	371.71
642.918	432.56
643.333	250
643.747	320.21
644.162	367.03
644.576	261.7
644.991	306.17
645.405	388.09
645.819	310.85
646.233	338.94
646.647	336.6
647.061	266.38
647.475	399.79
647.889	306.17
648.303	315.53
648.717	303.83
649.131	301.49
649.545	266.38
649.958	327.24
650.372	383.41
650.785	306.17
651.199	381.07
651.612	367.03
652.026	299.15
652.439	350.64
652.852	294.47
653.266	364.68
653.679	334.26
654.092	388.09
654.505	399.79
654.918	348.3
655.331	350.64
655.744	228.93
656.156	352.98
656.569	331.92
656.982	371.71
657.394	292.13
657.807	385.75
658.22	378.73
658.632	376.39
659.044	378.73
659.457	292.13
659.869	310.85
660.281	343.62
660.693	329.58
661.106	381.07
661.518	376.39
661.93	352.98
662.342	327.24
662.754	376.39
663.165	374.05
663.577	390.43
663.989	378.73
664.401	336.6
664.812	310.85
665.224	378.73
665.635	383.41
666.047	367.03
666.458	360
666.869	287.45
667.281	385.75
667.692	392.77
668.103	306.17
668.514	362.34
668.925	402.13
669.336	348.3
669.747	327.24
670.158	275.74
670.569	388.09
670.979	247.66
671.39	362.34
671.801	364.68
672.211	278.08
672.622	306.17
673.032	268.72
673.443	336.6
673.853	350.64
674.263	420.86
674.674	355.32
675.084	402.13
675.494	345.96
675.904	352.98
676.314	392.77
676.724	360
677.134	327.24
677.544	369.37
677.953	317.87
678.363	360
678.773	352.98
679.182	397.45
679.592	334.26
680.001	275.74
680.411	310.85
680.82	378.73
681.23	357.66
681.639	327.24
682.048	362.34
682.457	352.98
682.866	320.21
683.275	334.26
683.684	299.15
684.093	341.28
684.502	355.32
684.911	390.43
685.32	355.32
685.728	434.9
686.137	315.53
686.546	369.37
686.954	313.19
687.363	228.93
687.771	310.85
688.179	350.64
688.588	376.39
688.996	329.58
689.404	390.43
689.812	357.66
690.22	362.34
690.628	338.94
691.036	301.49
691.444	369.37
691.852	376.39
692.26	374.05
692.667	250
693.075	343.62
693.483	343.62
693.89	324.9
694.298	360
694.705	331.92
695.112	308.51
695.52	406.81
695.927	355.32
696.334	310.85
696.741	306.17
697.148	308.51
697.555	334.26
697.962	317.87
698.369	385.75
698.776	308.51
699.183	331.92
699.59	322.56
699.996	308.51
700.403	329.58
700.81	355.32
701.216	385.75
701.623	292.13
702.029	360
702.435	352.98
702.842	355.32
703.248	376.39
703.654	320.21
704.06	418.52
704.466	345.96
704.872	313.19
705.278	376.39
705.684	367.03
706.09	345.96
706.496	303.83
706.901	315.53
707.307	357.66
707.712	352.98
708.118	350.64
708.523	352.98
708.929	336.6
709.334	390.43
709.74	378.73
710.145	367.03
710.55	327.24
710.955	350.64
711.36	331.92
711.765	357.66
712.17	315.53
712.575	341.28
712.98	877.26
713.385	385.75
713.789	287.45
714.194	303.83
714.599	348.3
715.003	322.56
715.408	334.26
715.812	322.56
716.217	310.85
716.621	338.94
717.025	376.39
717.429	322.56
717.833	334.26
718.238	329.58
718.642	301.49
719.046	282.77
719.449	306.17
719.853	308.51
720.257	287.45
720.661	338.94
721.065	357.66
721.468	336.6
721.872	341.28
722.275	388.09
722.679	357.66
723.082	404.47
723.485	392.77
723.889	348.3
724.292	395.11
724.695	287.45
725.098	390.43
725.501	275.74
725.904	296.81
726.307	315.53
726.71	350.64
727.113	317.87
727.516	381.07
727.918	350.64
728.321	350.64
728.724	320.21
729.126	322.56
729.529	406.81
729.931	320.21
730.333	362.34
730.736	343.62
731.138	315.53
731.54	264.04
731.942	306.17
732.344	341.28
732.746	317.87
733.148	355.32
733.55	381.07
733.952	360
734.354	315.53
734.756	327.24
735.157	392.77
735.559	327.24
735.96	343.62
736.362	299.15
736.763	336.6
737.165	360
737.566	369.37
737.967	336.6
738.368	327.24
738.77	289.79
739.171	376.39
739.572	376.39
739.973	388.09
740.374	369.37
740.774	336.6
741.175	395.11
741.576	357.66
741.977	362.34
742.377	357.66
742.778	331.92
743.178	324.9
743.579	315.53
743.979	331.92
744.379	324.9
744.78	418.52
745.18	289.79
745.58	252.34
745.98	376.39
746.38	434.9
746.78	327.24
747.18	313.19
747.58	294.47
747.98	292.13
748.38	376.39
748.779	275.74
749.179	334.26
749.578	310.85
749.978	371.71
750.377	203.19
750.777	296.81
751.176	336.6
751.575	371.71
751.975	345.96
752.374	331.92
752.773	327.24
753.172	299.15
753.571	355.32
753.97	257.02
754.369	352.98
754.768	369.37
755.166	313.19
755.565	327.24
755.964	362.34
756.362	289.79
756.761	310.85
757.159	352.98
757.558	271.06
757.956	369.37
758.354	345.96
758.753	441.92
759.151	364.68
759.549	322.56
759.947	362.34
760.345	355.32
760.743	362.34
761.141	331.92
761.539	324.9
761.936	355.32
762.334	294.47
762.732	322.56
763.129	334.26
763.527	331.92
763.924	355.32
764.322	399.79
764.719	385.75
765.117	481.71
765.514	367.03
765.911	383.41
766.308	289.79
766.705	343.62
767.102	371.71
767.499	348.3
767.896	303.83
