Data from Al_FLMS009871__1257__16-46-16-672.txt Node

Date: Fri Mar 08 16:46:16 CST 2024
User: pe5414po
Spectrometer: FLMS00987
Trigger mode: 0
Integration Time (sec): 1.000000E-1
Scans to average: 1
Electric dark correction enabled: true
Nonlinearity correction enabled: false
Boxcar width: 0
XAxis mode: Wavelengths
Number of Pixels in Spectrum: 2048
>>>>>Begin Spectral Data<<<<<
188.938	-25.89
189.409	-25.89
189.879	-25.89
190.349	-91.43
190.819	-46.96
191.29	-72.7
191.76	-112.49
192.23	-49.3
192.7	-21.21
193.17	-105.47
193.64	11.56
194.109	-44.62
194.579	-14.19
195.049	-70.36
195.519	18.58
195.988	100.5
196.458	58.37
196.927	51.35
197.397	56.03
197.866	72.41
198.336	121.56
198.805	142.63
199.274	163.69
199.744	184.76
200.213	210.5
200.682	142.63
201.151	175.39
201.62	196.46
202.089	280.72
202.558	210.5
203.027	250.29
203.495	257.31
203.964	240.93
204.433	325.19
204.902	243.27
205.37	341.57
205.839	327.53
206.307	290.08
206.776	285.4
207.244	334.55
207.712	257.31
208.181	343.91
208.649	297.1
209.117	336.89
209.585	327.53
210.053	247.95
210.521	322.85
210.989	257.31
211.457	301.78
211.925	269.02
212.393	271.36
212.861	308.8
213.328	285.4
213.796	372
214.264	261.99
214.731	273.7
215.199	306.46
215.666	346.25
216.133	266.67
216.601	236.25
217.068	301.78
217.535	294.76
218.003	259.65
218.47	299.44
218.937	292.42
219.404	269.02
219.871	238.59
220.338	271.36
220.805	287.74
221.271	278.38
221.738	304.12
222.205	271.36
222.671	315.83
223.138	205.82
223.605	233.91
224.071	238.59
224.538	301.78
225.004	229.23
225.47	254.97
225.937	301.78
226.403	285.4
226.869	231.57
227.335	205.82
227.801	301.78
228.267	306.46
228.733	318.17
229.199	238.59
229.665	273.7
230.131	269.02
230.597	252.63
231.062	301.78
231.528	327.53
231.994	240.93
232.459	285.4
232.925	283.06
233.39	297.1
233.856	273.7
234.321	336.89
234.786	243.27
235.252	287.74
235.717	304.12
236.182	339.23
236.647	226.89
237.112	259.65
237.577	261.99
238.042	266.67
238.507	292.42
238.972	339.23
239.436	294.76
239.901	259.65
240.366	332.21
240.83	278.38
241.295	311.14
241.76	276.04
242.224	266.67
242.688	313.49
243.153	327.53
243.617	283.06
244.081	313.49
244.545	308.8
245.01	285.4
245.474	343.91
245.938	315.83
246.402	271.36
246.866	287.74
247.33	196.46
247.793	252.63
248.257	238.59
248.721	278.38
249.185	308.8
249.648	273.7
250.112	306.46
250.575	304.12
251.039	271.36
251.502	269.02
251.965	283.06
252.429	299.44
252.892	332.21
253.355	278.38
253.818	322.85
254.281	236.25
254.744	273.7
255.207	313.49
255.67	318.17
256.133	304.12
256.596	222.2
257.059	245.61
257.522	266.67
257.984	311.14
258.447	280.72
258.909	332.21
259.372	283.06
259.834	266.67
260.297	292.42
260.759	269.02
261.221	280.72
261.684	311.14
262.146	294.76
262.608	273.7
263.07	327.53
263.532	231.57
263.994	343.91
264.456	341.57
264.918	315.83
265.38	283.06
265.842	299.44
266.303	304.12
266.765	336.89
267.227	261.99
267.688	273.7
268.15	297.1
268.611	299.44
269.072	245.61
269.534	339.23
269.995	315.83
270.456	266.67
270.918	278.38
271.379	287.74
271.84	311.14
272.301	280.72
272.762	271.36
273.223	318.17
273.684	299.44
274.144	334.55
274.605	278.38
275.066	301.78
275.527	297.1
275.987	325.19
276.448	299.44
276.908	290.08
277.369	301.78
277.829	322.85
278.289	294.76
278.75	311.14
279.21	311.14
279.67	297.1
280.13	350.93
280.59	285.4
281.05	278.38
281.51	348.59
281.97	332.21
282.43	276.04
282.89	285.4
283.35	261.99
283.809	320.51
284.269	332.21
284.729	341.57
285.188	299.44
285.648	273.7
286.107	329.87
286.567	346.25
287.026	313.49
287.485	306.46
287.944	287.74
288.404	334.55
288.863	283.06
289.322	322.85
289.781	346.25
290.24	276.04
290.699	285.4
291.158	292.42
291.616	322.85
292.075	386.04
292.534	336.89
292.992	294.76
293.451	269.02
293.91	285.4
294.368	292.42
294.827	259.65
295.285	243.27
295.743	313.49
296.202	341.57
296.66	273.7
297.118	294.76
297.576	353.27
298.034	360.3
298.492	364.98
298.95	315.83
299.408	336.89
299.866	276.04
300.324	313.49
300.781	348.59
301.239	308.8
301.697	264.33
302.154	341.57
302.612	318.17
303.069	245.61
303.527	306.46
303.984	315.83
304.441	276.04
304.899	320.51
305.356	334.55
305.813	304.12
306.27	271.36
306.727	327.53
307.184	357.96
307.641	290.08
308.098	285.4
308.555	315.83
309.012	273.7
309.468	362.64
309.925	306.46
310.382	299.44
310.838	280.72
311.295	315.83
311.751	304.12
312.208	294.76
312.664	245.61
313.12	348.59
313.577	280.72
314.033	322.85
314.489	388.38
314.945	278.38
315.401	311.14
315.857	320.51
316.313	280.72
316.769	322.85
317.225	285.4
317.681	301.78
318.136	306.46
318.592	306.46
319.048	290.08
319.503	261.99
319.959	264.33
320.414	327.53
320.869	341.57
321.325	311.14
321.78	259.65
322.235	259.65
322.691	287.74
323.146	304.12
323.601	315.83
324.056	322.85
324.511	313.49
324.966	266.67
325.421	247.95
325.875	341.57
326.33	276.04
326.785	285.4
327.24	332.21
327.694	355.62
328.149	364.98
328.603	308.8
329.058	327.53
329.512	322.85
329.966	315.83
330.421	320.51
330.875	362.64
331.329	301.78
331.783	257.31
332.237	346.25
332.691	278.38
333.145	271.36
333.599	311.14
334.053	318.17
334.507	311.14
334.96	318.17
335.414	283.06
335.868	311.14
336.321	301.78
336.775	320.51
337.228	357.96
337.682	343.91
338.135	259.65
338.588	315.83
339.042	329.87
339.495	362.64
339.948	341.57
340.401	346.25
340.854	271.36
341.307	278.38
341.76	332.21
342.213	369.66
342.666	269.02
343.119	325.19
343.571	346.25
344.024	360.3
344.477	261.99
344.929	318.17
345.382	346.25
345.834	292.42
346.287	290.08
346.739	292.42
347.191	236.25
347.644	362.64
348.096	250.29
348.548	372
349	315.83
349.452	367.32
349.904	299.44
350.356	336.89
350.808	350.93
351.26	299.44
351.711	287.74
352.163	306.46
352.615	320.51
353.066	318.17
353.518	353.27
353.969	355.62
354.421	294.76
354.872	311.14
355.324	250.29
355.775	271.36
356.226	264.33
356.677	355.62
357.128	311.14
357.579	397.74
358.03	306.46
358.481	306.46
358.932	348.59
359.383	297.1
359.834	276.04
360.285	360.3
360.735	285.4
361.186	311.14
361.637	304.12
362.087	327.53
362.538	327.53
362.988	332.21
363.438	273.7
363.889	393.06
364.339	325.19
364.789	269.02
365.239	322.85
365.689	381.36
366.139	273.7
366.589	285.4
367.039	336.89
367.489	285.4
367.939	257.31
368.389	353.27
368.839	304.12
369.288	348.59
369.738	336.89
370.187	304.12
370.637	318.17
371.086	229.23
371.536	329.87
371.985	400.09
372.434	308.8
372.884	348.59
373.333	243.27
373.782	329.87
374.231	318.17
374.68	334.55
375.129	372
375.578	367.32
376.027	334.55
376.475	311.14
376.924	341.57
377.373	332.21
377.822	264.33
378.27	313.49
378.719	320.51
379.167	285.4
379.616	322.85
380.064	348.59
380.512	299.44
380.961	343.91
381.409	369.66
381.857	322.85
382.305	278.38
382.753	283.06
383.201	350.93
383.649	355.62
384.097	327.53
384.545	350.93
384.992	269.02
385.44	374.34
385.888	320.51
386.335	325.19
386.783	332.21
387.231	280.72
387.678	357.96
388.125	329.87
388.573	285.4
389.02	322.85
389.467	348.59
389.914	283.06
390.362	362.64
390.809	355.62
391.256	350.93
391.703	306.46
392.15	348.59
392.596	397.74
393.043	329.87
393.49	304.12
393.937	346.25
394.383	339.23
394.83	350.93
395.276	301.78
395.723	257.31
396.169	367.32
396.616	297.1
397.062	290.08
397.508	315.83
397.954	397.74
398.401	353.27
398.847	313.49
399.293	311.14
399.739	304.12
400.185	261.99
400.631	308.8
401.076	266.67
401.522	301.78
401.968	346.25
402.414	367.32
402.859	297.1
403.305	360.3
403.75	306.46
404.196	292.42
404.641	367.32
405.086	318.17
405.532	322.85
405.977	322.85
406.422	343.91
406.867	315.83
407.312	315.83
407.757	308.8
408.202	285.4
408.647	299.44
409.092	397.74
409.537	280.72
409.982	315.83
410.426	346.25
410.871	329.87
411.316	308.8
411.76	367.32
412.205	313.49
412.649	343.91
413.093	343.91
413.538	325.19
413.982	306.46
414.426	350.93
414.87	285.4
415.314	332.21
415.758	229.23
416.202	294.76
416.646	280.72
417.09	327.53
417.534	369.66
417.978	290.08
418.421	294.76
418.865	250.29
419.309	343.91
419.752	388.38
420.196	315.83
420.639	308.8
421.083	360.3
421.526	308.8
421.969	332.21
422.412	360.3
422.856	343.91
423.299	336.89
423.742	348.59
424.185	290.08
424.628	346.25
425.071	290.08
425.513	329.87
425.956	348.59
426.399	334.55
426.842	287.74
427.284	329.87
427.727	301.78
428.169	250.29
428.612	364.98
429.054	322.85
429.497	301.78
429.939	339.23
430.381	313.49
430.823	292.42
431.265	285.4
431.707	315.83
432.149	339.23
432.591	322.85
433.033	343.91
433.475	313.49
433.917	294.76
434.359	311.14
434.8	271.36
435.242	308.8
435.684	299.44
436.125	322.85
436.567	343.91
437.008	376.68
437.449	334.55
437.891	329.87
438.332	318.17
438.773	332.21
439.214	315.83
439.656	336.89
440.097	292.42
440.538	348.59
440.978	276.04
441.419	308.8
441.86	254.97
442.301	264.33
442.742	311.14
443.182	341.57
443.623	283.06
444.063	325.19
444.504	343.91
444.944	287.74
445.385	299.44
445.825	297.1
446.265	257.31
446.706	355.62
447.146	327.53
447.586	287.74
448.026	299.44
448.466	336.89
448.906	334.55
449.346	376.68
449.786	276.04
450.225	297.1
450.665	297.1
451.105	271.36
451.544	367.32
451.984	350.93
452.424	299.44
452.863	285.4
453.302	301.78
453.742	325.19
454.181	346.25
454.62	315.83
455.059	322.85
455.499	320.51
455.938	280.72
456.377	395.4
456.816	322.85
457.254	271.36
457.693	301.78
458.132	339.23
458.571	254.97
459.01	299.44
459.448	343.91
459.887	367.32
460.325	353.27
460.764	381.36
461.202	334.55
461.641	327.53
462.079	404.77
462.517	379.02
462.955	313.49
463.393	332.21
463.832	353.27
464.27	278.38
464.708	308.8
465.145	336.89
465.583	350.93
466.021	322.85
466.459	294.76
466.897	311.14
467.334	376.68
467.772	304.12
468.209	364.98
468.647	374.34
469.084	362.64
469.522	320.51
469.959	276.04
470.396	320.51
470.833	362.64
471.271	332.21
471.708	306.46
472.145	290.08
472.582	372
473.019	266.67
473.456	327.53
473.892	355.62
474.329	315.83
474.766	379.02
475.202	308.8
475.639	325.19
476.076	372
476.512	313.49
476.949	435.19
477.385	301.78
477.821	355.62
478.258	346.25
478.694	327.53
479.13	318.17
479.566	297.1
480.002	343.91
480.438	343.91
480.874	301.78
481.31	315.83
481.746	332.21
482.181	299.44
482.617	327.53
483.053	311.14
483.488	332.21
483.924	374.34
484.36	390.72
484.795	367.32
485.23	404.77
485.666	383.7
486.101	297.1
486.536	327.53
486.971	306.46
487.407	315.83
487.842	297.1
488.277	299.44
488.712	320.51
489.146	322.85
489.581	332.21
490.016	350.93
490.451	269.02
490.885	329.87
491.32	299.44
491.755	336.89
492.189	322.85
492.624	285.4
493.058	390.72
493.492	348.59
493.927	306.46
494.361	360.3
494.795	290.08
495.229	276.04
495.663	343.91
496.097	346.25
496.531	294.76
496.965	273.7
497.399	350.93
497.833	425.83
498.266	372
498.7	308.8
499.134	325.19
499.567	341.57
500.001	299.44
500.434	276.04
500.868	372
501.301	276.04
501.734	294.76
502.168	372
502.601	294.76
503.034	341.57
503.467	393.06
503.9	261.99
504.333	355.62
504.766	318.17
505.199	280.72
505.632	329.87
506.064	320.51
506.497	315.83
506.93	343.91
507.362	311.14
507.795	306.46
508.227	287.74
508.66	355.62
509.092	355.62
509.524	264.33
509.956	308.8
510.389	336.89
510.821	343.91
511.253	329.87
511.685	283.06
512.117	320.51
512.549	348.59
512.981	341.57
513.412	372
513.844	269.02
514.276	320.51
514.707	339.23
515.139	346.25
515.571	327.53
516.002	313.49
516.433	306.46
516.865	395.4
517.296	292.42
517.727	292.42
518.159	299.44
518.59	332.21
519.021	325.19
519.452	348.59
519.883	357.96
520.314	353.27
520.744	364.98
521.175	346.25
521.606	381.36
522.037	320.51
522.467	341.57
522.898	325.19
523.328	325.19
523.759	304.12
524.189	372
524.62	350.93
525.05	308.8
525.48	285.4
525.91	285.4
526.341	346.25
526.771	304.12
527.201	343.91
527.631	327.53
528.061	341.57
528.49	297.1
528.92	327.53
529.35	322.85
529.78	311.14
530.209	308.8
530.639	346.25
531.068	367.32
531.498	346.25
531.927	334.55
532.357	386.04
532.786	315.83
533.215	329.87
533.644	348.59
534.074	383.7
534.503	306.46
534.932	383.7
535.361	311.14
535.79	329.87
536.218	320.51
536.647	383.7
537.076	245.61
537.505	311.14
537.933	292.42
538.362	320.51
538.79	301.78
539.219	278.38
539.647	339.23
540.076	372
540.504	339.23
540.932	254.97
541.36	304.12
541.788	311.14
542.217	294.76
542.645	315.83
543.073	311.14
543.5	341.57
543.928	315.83
544.356	308.8
544.784	271.36
545.211	269.02
545.639	271.36
546.067	327.53
546.494	376.68
546.922	348.59
547.349	346.25
547.776	339.23
548.204	320.51
548.631	353.27
549.058	339.23
549.485	278.38
549.912	259.65
550.339	283.06
550.766	318.17
551.193	254.97
551.62	276.04
552.047	327.53
552.474	301.78
552.9	311.14
553.327	264.33
553.754	346.25
554.18	381.36
554.607	320.51
555.033	329.87
555.459	367.32
555.886	353.27
556.312	318.17
556.738	292.42
557.164	301.78
557.59	283.06
558.016	304.12
558.442	357.96
558.868	343.91
559.294	357.96
559.72	376.68
560.145	322.85
560.571	334.55
560.997	294.76
561.422	301.78
561.848	283.06
562.273	304.12
562.699	308.8
563.124	336.89
563.549	325.19
563.974	320.51
564.4	336.89
564.825	278.38
565.25	343.91
565.675	299.44
566.1	367.32
566.525	315.83
566.95	327.53
567.374	341.57
567.799	376.68
568.224	334.55
568.648	350.93
569.073	273.7
569.497	290.08
569.922	353.27
570.346	304.12
570.771	379.02
571.195	240.93
571.619	348.59
572.043	299.44
572.467	355.62
572.891	346.25
573.315	327.53
573.739	264.33
574.163	348.59
574.587	353.27
575.011	283.06
575.435	315.83
575.858	329.87
576.282	348.59
576.705	304.12
577.129	390.72
577.552	341.57
577.976	320.51
578.399	254.97
578.822	304.12
579.245	336.89
579.669	379.02
580.092	353.27
580.515	311.14
580.938	276.04
581.361	334.55
581.784	360.3
582.206	355.62
582.629	395.4
583.052	336.89
583.474	355.62
583.897	322.85
584.32	339.23
584.742	315.83
585.165	343.91
585.587	283.06
586.009	336.89
586.431	325.19
586.854	360.3
587.276	266.67
587.698	278.38
588.12	273.7
588.542	336.89
588.964	294.76
589.386	336.89
589.807	271.36
590.229	301.78
590.651	283.06
591.073	341.57
591.494	278.38
591.916	353.27
592.337	353.27
592.759	301.78
593.18	294.76
593.601	327.53
594.022	332.21
594.444	355.62
594.865	320.51
595.286	313.49
595.707	386.04
596.128	276.04
596.549	334.55
596.97	348.59
597.39	341.57
597.811	278.38
598.232	252.63
598.652	346.25
599.073	311.14
599.494	285.4
599.914	308.8
600.334	381.36
600.755	315.83
601.175	250.29
601.595	364.98
602.015	287.74
602.436	299.44
602.856	491.37
603.276	322.85
603.696	334.55
604.115	421.15
604.535	329.87
604.955	299.44
605.375	313.49
605.794	318.17
606.214	329.87
606.634	292.42
607.053	329.87
607.473	308.8
607.892	353.27
608.311	325.19
608.731	343.91
609.15	329.87
609.569	362.64
609.988	308.8
610.407	322.85
610.826	257.31
611.245	311.14
611.664	407.11
612.083	306.46
612.501	318.17
612.92	322.85
613.339	297.1
613.757	332.21
614.176	304.12
614.594	325.19
615.013	308.8
615.431	252.63
615.85	285.4
616.268	308.8
616.686	299.44
617.104	315.83
617.522	278.38
617.94	257.31
618.358	278.38
618.776	283.06
619.194	350.93
619.612	219.86
620.03	318.17
620.447	252.63
620.865	329.87
621.282	327.53
621.7	243.27
622.117	376.68
622.535	339.23
622.952	315.83
623.369	367.32
623.787	301.78
624.204	372
624.621	353.27
625.038	271.36
625.455	357.96
625.872	301.78
626.289	280.72
626.706	379.02
627.123	325.19
627.539	339.23
627.956	315.83
628.373	348.59
628.789	318.17
629.206	299.44
629.622	325.19
630.038	276.04
630.455	367.32
630.871	292.42
631.287	329.87
631.703	346.25
632.12	322.85
632.536	320.51
632.952	320.51
633.368	329.87
633.783	334.55
634.199	318.17
634.615	334.55
635.031	353.27
635.446	348.59
635.862	350.93
636.277	306.46
636.693	355.62
637.108	383.7
637.524	381.36
637.939	327.53
638.354	285.4
638.77	343.91
639.185	306.46
639.6	336.89
640.015	343.91
640.43	304.12
640.845	280.72
641.259	322.85
641.674	301.78
642.089	336.89
642.504	304.12
642.918	297.1
643.333	364.98
643.747	297.1
644.162	264.33
644.576	364.98
644.991	327.53
645.405	320.51
645.819	271.36
646.233	306.46
646.647	329.87
647.061	386.04
647.475	315.83
647.889	339.23
648.303	332.21
648.717	287.74
649.131	320.51
649.545	261.99
649.958	273.7
650.372	280.72
650.785	369.66
651.199	329.87
651.612	348.59
652.026	343.91
652.439	320.51
652.852	327.53
653.266	362.64
653.679	264.33
654.092	350.93
654.505	311.14
654.918	292.42
655.331	350.93
655.744	292.42
656.156	290.08
656.569	367.32
656.982	283.06
657.394	285.4
657.807	301.78
658.22	357.96
658.632	362.64
659.044	212.84
659.457	318.17
659.869	278.38
660.281	329.87
660.693	299.44
661.106	355.62
661.518	301.78
661.93	290.08
662.342	311.14
662.754	329.87
663.165	269.02
663.577	372
663.989	348.59
664.401	245.61
664.812	301.78
665.224	299.44
665.635	294.76
666.047	367.32
666.458	306.46
666.869	357.96
667.281	348.59
667.692	346.25
668.103	315.83
668.514	280.72
668.925	357.96
669.336	278.38
669.747	292.42
670.158	276.04
670.569	311.14
670.979	301.78
671.39	346.25
671.801	320.51
672.211	369.66
672.622	269.02
673.032	292.42
673.443	334.55
673.853	353.27
674.263	299.44
674.674	322.85
675.084	292.42
675.494	322.85
675.904	313.49
676.314	357.96
676.724	322.85
677.134	315.83
677.544	327.53
677.953	327.53
678.363	367.32
678.773	318.17
679.182	322.85
679.592	353.27
680.001	329.87
680.411	325.19
680.82	311.14
681.23	332.21
681.639	276.04
682.048	367.32
682.457	355.62
682.866	320.51
683.275	318.17
683.684	280.72
684.093	400.09
684.502	297.1
684.911	329.87
685.32	292.42
685.728	329.87
686.137	252.63
686.546	336.89
686.954	381.36
687.363	353.27
687.771	292.42
688.179	362.64
688.588	325.19
688.996	336.89
689.404	308.8
689.812	325.19
690.22	332.21
690.628	327.53
691.036	357.96
691.444	287.74
691.852	360.3
692.26	346.25
692.667	311.14
693.075	306.46
693.483	341.57
693.89	290.08
694.298	343.91
694.705	269.02
695.112	280.72
695.52	318.17
695.927	372
696.334	397.74
696.741	355.62
697.148	320.51
697.555	301.78
697.962	299.44
698.369	369.66
698.776	283.06
699.183	269.02
699.59	367.32
699.996	372
700.403	383.7
700.81	343.91
701.216	271.36
701.623	287.74
702.029	252.63
702.435	306.46
702.842	336.89
703.248	357.96
703.654	374.34
704.06	339.23
704.466	332.21
704.872	357.96
705.278	343.91
705.684	348.59
706.09	287.74
706.496	276.04
706.901	339.23
707.307	350.93
707.712	311.14
708.118	332.21
708.523	369.66
708.929	353.27
709.334	350.93
709.74	334.55
710.145	332.21
710.55	266.67
710.955	313.49
711.36	332.21
711.765	360.3
712.17	318.17
712.575	360.3
712.98	879.9
713.385	294.76
713.789	327.53
714.194	362.64
714.599	341.57
715.003	297.1
715.408	299.44
715.812	301.78
716.217	355.62
716.621	285.4
717.025	322.85
717.429	292.42
717.833	278.38
718.238	348.59
718.642	290.08
719.046	355.62
719.449	283.06
719.853	290.08
720.257	301.78
720.661	357.96
721.065	343.91
721.468	329.87
721.872	353.27
722.275	259.65
722.679	287.74
723.082	313.49
723.485	339.23
723.889	304.12
724.292	322.85
724.695	322.85
725.098	322.85
725.501	334.55
725.904	332.21
726.307	261.99
726.71	280.72
727.113	332.21
727.516	290.08
727.918	360.3
728.321	283.06
728.724	292.42
729.126	299.44
729.529	367.32
729.931	332.21
730.333	311.14
730.736	278.38
731.138	348.59
731.54	343.91
731.942	374.34
732.344	278.38
732.746	299.44
733.148	329.87
733.55	304.12
733.952	329.87
734.354	271.36
734.756	329.87
735.157	297.1
735.559	350.93
735.96	329.87
736.362	395.4
736.763	390.72
737.165	304.12
737.566	299.44
737.967	287.74
738.368	386.04
738.77	247.95
739.171	336.89
739.572	269.02
739.973	294.76
740.374	334.55
740.774	304.12
741.175	334.55
741.576	285.4
741.977	364.98
742.377	346.25
742.778	327.53
743.178	308.8
743.579	294.76
743.979	325.19
744.379	315.83
744.78	329.87
745.18	409.45
745.58	290.08
745.98	285.4
746.38	327.53
746.78	292.42
747.18	304.12
747.58	306.46
747.98	285.4
748.38	297.1
748.779	376.68
749.179	266.67
749.578	318.17
749.978	355.62
750.377	346.25
750.777	306.46
751.176	397.74
751.575	306.46
751.975	292.42
752.374	334.55
752.773	350.93
753.172	322.85
753.571	229.23
753.97	254.97
754.369	285.4
754.768	322.85
755.166	369.66
755.565	327.53
755.964	311.14
756.362	341.57
756.761	322.85
757.159	364.98
757.558	334.55
757.956	301.78
758.354	313.49
758.753	327.53
759.151	297.1
759.549	257.31
759.947	343.91
760.345	313.49
760.743	306.46
761.141	280.72
761.539	374.34
761.936	313.49
762.334	280.72
762.732	350.93
763.129	339.23
763.527	292.42
763.924	313.49
764.322	287.74
764.719	294.76
765.117	329.87
765.514	343.91
765.911	411.79
766.308	280.72
