Data from Al_FLMS009871__1259__16-46-16-872.txt Node

Date: Fri Mar 08 16:46:16 CST 2024
User: pe5414po
Spectrometer: FLMS00987
Trigger mode: 0
Integration Time (sec): 1.000000E-1
Scans to average: 1
Electric dark correction enabled: true
Nonlinearity correction enabled: false
Boxcar width: 0
XAxis mode: Wavelengths
Number of Pixels in Spectrum: 2048
>>>>>Begin Spectral Data<<<<<
188.938	-101.08
189.409	-101.08
189.879	-101.08
190.349	-157.25
190.819	-89.38
191.29	-68.31
191.76	-89.38
192.23	-65.97
192.7	-87.04
193.17	-124.49
193.64	-33.21
194.109	-44.91
194.579	-5.12
195.049	-37.89
195.519	-0.44
195.988	25.31
196.458	48.71
196.927	109.57
197.397	116.59
197.866	154.04
198.336	102.54
198.805	118.93
199.274	139.99
199.744	179.78
200.213	156.38
200.682	186.8
201.151	247.66
201.62	121.27
202.089	231.27
202.558	228.93
203.027	214.89
203.495	235.96
203.964	228.93
204.433	266.38
204.902	245.32
205.37	285.11
205.839	217.23
206.307	292.13
206.776	310.85
207.244	250
207.712	264.04
208.181	268.72
208.649	259.36
209.117	301.49
209.585	285.11
210.053	254.68
210.521	280.43
210.989	252.34
211.457	268.72
211.925	250
212.393	212.55
212.861	280.43
213.328	242.98
213.796	257.02
214.264	261.7
214.731	257.02
215.199	271.06
215.666	242.98
216.133	296.81
216.601	205.53
217.068	287.45
217.535	219.57
218.003	196.17
218.47	257.02
218.937	252.34
219.404	261.7
219.871	161.06
220.338	322.56
220.805	245.32
221.271	238.3
221.738	219.57
222.205	231.27
222.671	296.81
223.138	287.45
223.605	221.91
224.071	235.96
224.538	252.34
225.004	247.66
225.47	238.3
225.937	261.7
226.403	245.32
226.869	261.7
227.335	240.64
227.801	207.87
228.267	242.98
228.733	226.59
229.199	257.02
229.665	242.98
230.131	212.55
230.597	247.66
231.062	282.77
231.528	231.27
231.994	252.34
232.459	238.3
232.925	235.96
233.39	245.32
233.856	261.7
234.321	275.74
234.786	250
235.252	273.4
235.717	259.36
236.182	271.06
236.647	250
237.112	228.93
237.577	259.36
238.042	233.61
238.507	261.7
238.972	257.02
239.436	324.9
239.901	233.61
240.366	238.3
240.83	252.34
241.295	282.77
241.76	280.43
242.224	257.02
242.688	250
243.153	228.93
243.617	245.32
244.081	247.66
244.545	221.91
245.01	210.21
245.474	226.59
245.938	329.58
246.402	250
246.866	266.38
247.33	310.85
247.793	278.08
248.257	175.1
248.721	200.85
249.185	310.85
249.648	240.64
250.112	233.61
250.575	271.06
251.039	259.36
251.502	273.4
251.965	285.11
252.429	228.93
252.892	238.3
253.355	219.57
253.818	240.64
254.281	207.87
254.744	235.96
255.207	212.55
255.67	278.08
256.133	331.92
256.596	161.06
257.059	324.9
257.522	214.89
257.984	242.98
258.447	254.68
258.909	268.72
259.372	266.38
259.834	214.89
260.297	331.92
260.759	217.23
261.221	317.87
261.684	235.96
262.146	182.12
262.608	235.96
263.07	287.45
263.532	224.25
263.994	273.4
264.456	278.08
264.918	259.36
265.38	299.15
265.842	275.74
266.303	287.45
266.765	313.19
267.227	289.79
267.688	238.3
268.15	254.68
268.611	210.21
269.072	334.26
269.534	275.74
269.995	245.32
270.456	292.13
270.918	268.72
271.379	261.7
271.84	315.53
272.301	250
272.762	320.21
273.223	247.66
273.684	266.38
274.144	308.51
274.605	299.15
275.066	259.36
275.527	264.04
275.987	226.59
276.448	271.06
276.908	266.38
277.369	228.93
277.829	310.85
278.289	278.08
278.75	350.64
279.21	292.13
279.67	240.64
280.13	296.81
280.59	322.56
281.05	282.77
281.51	292.13
281.97	275.74
282.43	280.43
282.89	301.49
283.35	292.13
283.809	245.32
284.269	273.4
284.729	191.49
285.188	301.49
285.648	264.04
286.107	226.59
286.567	287.45
287.026	231.27
287.485	315.53
287.944	292.13
288.404	254.68
288.863	214.89
289.322	317.87
289.781	289.79
290.24	301.49
290.699	296.81
291.158	210.21
291.616	322.56
292.075	289.79
292.534	245.32
292.992	327.24
293.451	231.27
293.91	254.68
294.368	242.98
294.827	315.53
295.285	280.43
295.743	271.06
296.202	278.08
296.66	285.11
297.118	200.85
297.576	322.56
298.034	238.3
298.492	275.74
298.95	296.81
299.408	301.49
299.866	264.04
300.324	245.32
300.781	315.53
301.239	322.56
301.697	184.46
302.154	268.72
302.612	306.17
303.069	257.02
303.527	306.17
303.984	280.43
304.441	261.7
304.899	364.68
305.356	292.13
305.813	299.15
306.27	280.43
306.727	247.66
307.184	266.38
307.641	226.59
308.098	299.15
308.555	280.43
309.012	292.13
309.468	240.64
309.925	296.81
310.382	257.02
310.838	275.74
311.295	324.9
311.751	313.19
312.208	252.34
312.664	338.94
313.12	264.04
313.577	242.98
314.033	240.64
314.489	322.56
314.945	315.53
315.401	301.49
315.857	364.68
316.313	242.98
316.769	296.81
317.225	238.3
317.681	264.04
318.136	294.47
318.592	238.3
319.048	271.06
319.503	287.45
319.959	306.17
320.414	268.72
320.869	273.4
321.325	289.79
321.78	327.24
322.235	294.47
322.691	303.83
323.146	334.26
323.601	299.15
324.056	257.02
324.511	278.08
324.966	221.91
325.421	266.38
325.875	341.28
326.33	296.81
326.785	266.38
327.24	266.38
327.694	273.4
328.149	273.4
328.603	308.51
329.058	338.94
329.512	301.49
329.966	320.21
330.421	231.27
330.875	228.93
331.329	268.72
331.783	221.91
332.237	306.17
332.691	285.11
333.145	296.81
333.599	275.74
334.053	271.06
334.507	317.87
334.96	278.08
335.414	242.98
335.868	320.21
336.321	308.51
336.775	261.7
337.228	280.43
337.682	238.3
338.135	250
338.588	266.38
339.042	252.34
339.495	224.25
339.948	310.85
340.401	303.83
340.854	278.08
341.307	238.3
341.76	242.98
342.213	235.96
342.666	310.85
343.119	224.25
343.571	245.32
344.024	313.19
344.477	240.64
344.929	226.59
345.382	233.61
345.834	235.96
346.287	306.17
346.739	345.96
347.191	273.4
347.644	322.56
348.096	240.64
348.548	285.11
349	331.92
349.452	296.81
349.904	334.26
350.356	341.28
350.808	315.53
351.26	278.08
351.711	257.02
352.163	313.19
352.615	278.08
353.066	364.68
353.518	280.43
353.969	221.91
354.421	306.17
354.872	271.06
355.324	331.92
355.775	294.47
356.226	285.11
356.677	280.43
357.128	280.43
357.579	245.32
358.03	259.36
358.481	250
358.932	299.15
359.383	327.24
359.834	264.04
360.285	308.51
360.735	299.15
361.186	317.87
361.637	289.79
362.087	217.23
362.538	289.79
362.988	313.19
363.438	341.28
363.889	299.15
364.339	371.71
364.789	261.7
365.239	273.4
365.689	245.32
366.139	266.38
366.589	228.93
367.039	294.47
367.489	240.64
367.939	240.64
368.389	343.62
368.839	320.21
369.288	343.62
369.738	331.92
370.187	280.43
370.637	327.24
371.086	282.77
371.536	271.06
371.985	329.58
372.434	299.15
372.884	322.56
373.333	278.08
373.782	308.51
374.231	338.94
374.68	247.66
375.129	292.13
375.578	313.19
376.027	266.38
376.475	315.53
376.924	334.26
377.373	264.04
377.822	273.4
378.27	301.49
378.719	378.73
379.167	261.7
379.616	301.49
380.064	301.49
380.512	250
380.961	250
381.409	327.24
381.857	226.59
382.305	292.13
382.753	303.83
383.201	266.38
383.649	317.87
384.097	287.45
384.545	301.49
384.992	264.04
385.44	334.26
385.888	271.06
386.335	285.11
386.783	254.68
387.231	334.26
387.678	247.66
388.125	294.47
388.573	315.53
389.02	338.94
389.467	205.53
389.914	296.81
390.362	287.45
390.809	266.38
391.256	273.4
391.703	313.19
392.15	350.64
392.596	303.83
393.043	259.36
393.49	273.4
393.937	329.58
394.383	278.08
394.83	367.03
395.276	271.06
395.723	273.4
396.169	296.81
396.616	257.02
397.062	278.08
397.508	252.34
397.954	231.27
398.401	271.06
398.847	287.45
399.293	285.11
399.739	252.34
400.185	266.38
400.631	266.38
401.076	285.11
401.522	273.4
401.968	364.68
402.414	343.62
402.859	254.68
403.305	306.17
403.75	306.17
404.196	233.61
404.641	271.06
405.086	264.04
405.532	247.66
405.977	285.11
406.422	313.19
406.867	238.3
407.312	240.64
407.757	320.21
408.202	296.81
408.647	259.36
409.092	320.21
409.537	261.7
409.982	264.04
410.426	345.96
410.871	313.19
411.316	296.81
411.76	219.57
412.205	254.68
412.649	242.98
413.093	306.17
413.538	327.24
413.982	301.49
414.426	240.64
414.87	285.11
415.314	331.92
415.758	191.49
416.202	352.98
416.646	308.51
417.09	348.3
417.534	315.53
417.978	245.32
418.421	327.24
418.865	308.51
419.309	296.81
419.752	247.66
420.196	245.32
420.639	294.47
421.083	285.11
421.526	275.74
421.969	287.45
422.412	306.17
422.856	301.49
423.299	320.21
423.742	282.77
424.185	308.51
424.628	266.38
425.071	315.53
425.513	338.94
425.956	338.94
426.399	247.66
426.842	250
427.284	317.87
427.727	367.03
428.169	301.49
428.612	315.53
429.054	285.11
429.497	303.83
429.939	235.96
430.381	320.21
430.823	289.79
431.265	278.08
431.707	301.49
432.149	282.77
432.591	221.91
433.033	266.38
433.475	322.56
433.917	235.96
434.359	352.98
434.8	294.47
435.242	357.66
435.684	296.81
436.125	254.68
436.567	313.19
437.008	320.21
437.449	324.9
437.891	303.83
438.332	296.81
438.773	324.9
439.214	221.91
439.656	303.83
440.097	287.45
440.538	294.47
440.978	219.57
441.419	299.15
441.86	273.4
442.301	280.43
442.742	306.17
443.182	324.9
443.623	303.83
444.063	320.21
444.504	252.34
444.944	299.15
445.385	224.25
445.825	343.62
446.265	287.45
446.706	294.47
447.146	285.11
447.586	252.34
448.026	285.11
448.466	242.98
448.906	320.21
449.346	348.3
449.786	317.87
450.225	273.4
450.665	317.87
451.105	306.17
451.544	287.45
451.984	275.74
452.424	278.08
452.863	266.38
453.302	275.74
453.742	341.28
454.181	240.64
454.62	341.28
455.059	338.94
455.499	324.9
455.938	287.45
456.377	266.38
456.816	310.85
457.254	287.45
457.693	299.15
458.132	313.19
458.571	292.13
459.01	315.53
459.448	271.06
459.887	308.51
460.325	357.66
460.764	278.08
461.202	257.02
461.641	275.74
462.079	252.34
462.517	273.4
462.955	280.43
463.393	282.77
463.832	310.85
464.27	308.51
464.708	296.81
465.145	317.87
465.583	310.85
466.021	287.45
466.459	266.38
466.897	233.61
467.334	285.11
467.772	343.62
468.209	285.11
468.647	343.62
469.084	285.11
469.522	320.21
469.959	266.38
470.396	268.72
470.833	322.56
471.271	343.62
471.708	240.64
472.145	371.71
472.582	294.47
473.019	301.49
473.456	308.51
473.892	242.98
474.329	275.74
474.766	264.04
475.202	264.04
475.639	271.06
476.076	313.19
476.512	273.4
476.949	226.59
477.385	254.68
477.821	257.02
478.258	282.77
478.694	320.21
479.13	287.45
479.566	273.4
480.002	338.94
480.438	268.72
480.874	235.96
481.31	271.06
481.746	217.23
482.181	329.58
482.617	350.64
483.053	278.08
483.488	266.38
483.924	278.08
484.36	245.32
484.795	282.77
485.23	285.11
485.666	334.26
486.101	261.7
486.536	329.58
486.971	343.62
487.407	296.81
487.842	308.51
488.277	308.51
488.712	329.58
489.146	280.43
489.581	242.98
490.016	299.15
490.451	299.15
490.885	282.77
491.32	294.47
491.755	327.24
492.189	322.56
492.624	313.19
493.058	250
493.492	320.21
493.927	257.02
494.361	306.17
494.795	301.49
495.229	303.83
495.663	310.85
496.097	259.36
496.531	280.43
496.965	343.62
497.399	301.49
497.833	278.08
498.266	322.56
498.7	280.43
499.134	299.15
499.567	226.59
500.001	308.51
500.434	282.77
500.868	322.56
501.301	374.05
501.734	296.81
502.168	289.79
502.601	296.81
503.034	343.62
503.467	271.06
503.9	280.43
504.333	252.34
504.766	205.53
505.199	331.92
505.632	285.11
506.064	303.83
506.497	303.83
506.93	275.74
507.362	296.81
507.795	264.04
508.227	273.4
508.66	306.17
509.092	268.72
509.524	317.87
509.956	273.4
510.389	296.81
510.821	299.15
511.253	294.47
511.685	247.66
512.117	203.19
512.549	327.24
512.981	299.15
513.412	296.81
513.844	250
514.276	308.51
514.707	247.66
515.139	257.02
515.571	313.19
516.002	271.06
516.433	327.24
516.865	301.49
517.296	268.72
517.727	306.17
518.159	327.24
518.59	219.57
519.021	292.13
519.452	313.19
519.883	280.43
520.314	261.7
520.744	296.81
521.175	245.32
521.606	306.17
522.037	266.38
522.467	266.38
522.898	308.51
523.328	306.17
523.759	289.79
524.189	301.49
524.62	217.23
525.05	331.92
525.48	257.02
525.91	322.56
526.341	268.72
526.771	306.17
527.201	268.72
527.631	338.94
528.061	235.96
528.49	257.02
528.92	313.19
529.35	275.74
529.78	264.04
530.209	235.96
530.639	292.13
531.068	306.17
531.498	273.4
531.927	278.08
532.357	315.53
532.786	292.13
533.215	313.19
533.644	273.4
534.074	275.74
534.503	266.38
534.932	315.53
535.361	268.72
535.79	273.4
536.218	292.13
536.647	254.68
537.076	275.74
537.505	275.74
537.933	310.85
538.362	324.9
538.79	334.26
539.219	268.72
539.647	306.17
540.076	343.62
540.504	275.74
540.932	271.06
541.36	369.37
541.788	289.79
542.217	261.7
542.645	254.68
543.073	331.92
543.5	259.36
543.928	271.06
544.356	257.02
544.784	235.96
545.211	278.08
545.639	219.57
546.067	275.74
546.494	296.81
546.922	287.45
547.349	327.24
547.776	301.49
548.204	226.59
548.631	285.11
549.058	317.87
549.485	261.7
549.912	254.68
550.339	296.81
550.766	292.13
551.193	313.19
551.62	308.51
552.047	352.98
552.474	275.74
552.9	278.08
553.327	245.32
553.754	242.98
554.18	275.74
554.607	296.81
555.033	280.43
555.459	315.53
555.886	242.98
556.312	282.77
556.738	257.02
557.164	331.92
557.59	294.47
558.016	322.56
558.442	310.85
558.868	264.04
559.294	259.36
559.72	315.53
560.145	292.13
560.571	287.45
560.997	278.08
561.422	285.11
561.848	224.25
562.273	250
562.699	360
563.124	303.83
563.549	329.58
563.974	313.19
564.4	345.96
564.825	273.4
565.25	287.45
565.675	320.21
566.1	301.49
566.525	313.19
566.95	362.34
567.374	345.96
567.799	240.64
568.224	278.08
568.648	338.94
569.073	257.02
569.497	299.15
569.922	299.15
570.346	327.24
570.771	259.36
571.195	306.17
571.619	261.7
572.043	289.79
572.467	294.47
572.891	350.64
573.315	308.51
573.739	303.83
574.163	317.87
574.587	320.21
575.011	235.96
575.435	327.24
575.858	301.49
576.282	275.74
576.705	282.77
577.129	292.13
577.552	224.25
577.976	282.77
578.399	235.96
578.822	306.17
579.245	348.3
579.669	257.02
580.092	287.45
580.515	324.9
580.938	252.34
581.361	278.08
581.784	292.13
582.206	228.93
582.629	289.79
583.052	327.24
583.474	182.12
583.897	301.49
584.32	315.53
584.742	299.15
585.165	345.96
585.587	315.53
586.009	264.04
586.431	308.51
586.854	266.38
587.276	233.61
587.698	280.43
588.12	306.17
588.542	308.51
588.964	287.45
589.386	374.05
589.807	238.3
590.229	322.56
590.651	261.7
591.073	285.11
591.494	247.66
591.916	268.72
592.337	320.21
592.759	242.98
593.18	320.21
593.601	334.26
594.022	313.19
594.444	310.85
594.865	271.06
595.286	329.58
595.707	289.79
596.128	254.68
596.549	301.49
596.97	345.96
597.39	254.68
597.811	299.15
598.232	324.9
598.652	268.72
599.073	266.38
599.494	310.85
599.914	327.24
600.334	336.6
600.755	308.51
601.175	324.9
601.595	287.45
602.015	294.47
602.436	331.92
602.856	425.54
603.276	285.11
603.696	289.79
604.115	315.53
604.535	296.81
604.955	273.4
605.375	264.04
605.794	289.79
606.214	252.34
606.634	280.43
607.053	338.94
607.473	268.72
607.892	266.38
608.311	350.64
608.731	200.85
609.15	334.26
609.569	266.38
609.988	329.58
610.407	287.45
610.826	343.62
611.245	266.38
611.664	320.21
612.083	320.21
612.501	364.68
612.92	275.74
613.339	301.49
613.757	282.77
614.176	282.77
614.594	266.38
615.013	343.62
615.431	301.49
615.85	282.77
616.268	310.85
616.686	221.91
617.104	275.74
617.522	306.17
617.94	264.04
618.358	292.13
618.776	327.24
619.194	268.72
619.612	261.7
620.03	245.32
620.447	296.81
620.865	275.74
621.282	350.64
621.7	322.56
622.117	324.9
622.535	299.15
622.952	292.13
623.369	362.34
623.787	278.08
624.204	369.37
624.621	345.96
625.038	324.9
625.455	294.47
625.872	285.11
626.289	287.45
626.706	350.64
627.123	322.56
627.539	334.26
627.956	324.9
628.373	331.92
628.789	282.77
629.206	273.4
629.622	317.87
630.038	350.64
630.455	315.53
630.871	282.77
631.287	254.68
631.703	331.92
632.12	306.17
632.536	233.61
632.952	296.81
633.368	259.36
633.783	278.08
634.199	336.6
634.615	308.51
635.031	285.11
635.446	355.32
635.862	280.43
636.277	242.98
636.693	280.43
637.108	310.85
637.524	289.79
637.939	294.47
638.354	247.66
638.77	322.56
639.185	287.45
639.6	275.74
640.015	273.4
640.43	250
640.845	235.96
641.259	275.74
641.674	301.49
642.089	310.85
642.504	345.96
642.918	259.36
643.333	334.26
643.747	268.72
644.162	310.85
644.576	242.98
644.991	252.34
645.405	228.93
645.819	261.7
646.233	310.85
646.647	327.24
647.061	303.83
647.475	250
647.889	200.85
648.303	282.77
648.717	289.79
649.131	259.36
649.545	327.24
649.958	315.53
650.372	306.17
650.785	322.56
651.199	289.79
651.612	285.11
652.026	303.83
652.439	257.02
652.852	278.08
653.266	238.3
653.679	306.17
654.092	315.53
654.505	306.17
654.918	308.51
655.331	301.49
655.744	322.56
656.156	322.56
656.569	294.47
656.982	266.38
657.394	334.26
657.807	259.36
658.22	348.3
658.632	301.49
659.044	250
659.457	280.43
659.869	303.83
660.281	287.45
660.693	254.68
661.106	308.51
661.518	285.11
661.93	282.77
662.342	308.51
662.754	329.58
663.165	280.43
663.577	367.03
663.989	324.9
664.401	294.47
664.812	301.49
665.224	313.19
665.635	278.08
666.047	317.87
666.458	292.13
666.869	273.4
667.281	259.36
667.692	369.37
668.103	299.15
668.514	254.68
668.925	203.19
669.336	280.43
669.747	329.58
670.158	266.38
670.569	264.04
670.979	317.87
671.39	252.34
671.801	268.72
672.211	264.04
672.622	301.49
673.032	378.73
673.443	285.11
673.853	299.15
674.263	245.32
674.674	329.58
675.084	329.58
675.494	306.17
675.904	285.11
676.314	306.17
676.724	315.53
677.134	301.49
677.544	257.02
677.953	310.85
678.363	271.06
678.773	345.96
679.182	320.21
679.592	310.85
680.001	226.59
680.411	257.02
680.82	228.93
681.23	264.04
681.639	292.13
682.048	292.13
682.457	259.36
682.866	301.49
683.275	268.72
683.684	324.9
684.093	320.21
684.502	322.56
684.911	315.53
685.32	266.38
685.728	271.06
686.137	306.17
686.546	338.94
686.954	238.3
687.363	310.85
687.771	285.11
688.179	261.7
688.588	348.3
688.996	245.32
689.404	306.17
689.812	306.17
690.22	308.51
690.628	259.36
691.036	287.45
691.444	303.83
691.852	261.7
692.26	313.19
692.667	308.51
693.075	308.51
693.483	301.49
693.89	280.43
694.298	315.53
694.705	285.11
695.112	317.87
695.52	240.64
695.927	331.92
696.334	266.38
696.741	278.08
697.148	350.64
697.555	308.51
697.962	231.27
698.369	278.08
698.776	275.74
699.183	320.21
699.59	271.06
699.996	299.15
700.403	257.02
700.81	315.53
701.216	320.21
701.623	228.93
702.029	252.34
702.435	315.53
702.842	271.06
703.248	278.08
703.654	278.08
704.06	308.51
704.466	383.41
704.872	233.61
705.278	275.74
705.684	327.24
706.09	280.43
706.496	275.74
706.901	327.24
707.307	235.96
707.712	331.92
708.118	285.11
708.523	306.17
708.929	228.93
709.334	268.72
709.74	231.27
710.145	301.49
710.55	271.06
710.955	278.08
711.36	294.47
711.765	341.28
712.17	268.72
712.575	336.6
712.98	832.79
713.385	315.53
713.789	306.17
714.194	228.93
714.599	252.34
715.003	327.24
715.408	280.43
715.812	233.61
716.217	348.3
716.621	317.87
717.025	360
717.429	228.93
717.833	252.34
718.238	348.3
718.642	336.6
719.046	306.17
719.449	259.36
719.853	289.79
720.257	343.62
720.661	294.47
721.065	261.7
721.468	266.38
721.872	322.56
722.275	308.51
722.679	259.36
723.082	322.56
723.485	278.08
723.889	278.08
724.292	285.11
724.695	214.89
725.098	292.13
725.501	364.68
725.904	341.28
726.307	306.17
726.71	308.51
727.113	250
727.516	275.74
727.918	259.36
728.321	257.02
728.724	252.34
729.126	336.6
729.529	235.96
729.931	317.87
730.333	367.03
730.736	214.89
731.138	261.7
731.54	264.04
731.942	280.43
732.344	278.08
732.746	289.79
733.148	242.98
733.55	315.53
733.952	266.38
734.354	322.56
734.756	294.47
735.157	285.11
735.559	327.24
735.96	282.77
736.362	320.21
736.763	259.36
737.165	292.13
737.566	303.83
737.967	278.08
738.368	315.53
738.77	261.7
739.171	282.77
739.572	329.58
739.973	252.34
740.374	327.24
740.774	289.79
741.175	268.72
741.576	226.59
741.977	261.7
742.377	299.15
742.778	285.11
743.178	313.19
743.579	348.3
743.979	299.15
744.379	331.92
744.78	287.45
745.18	334.26
745.58	268.72
745.98	299.15
746.38	287.45
746.78	252.34
747.18	257.02
747.58	266.38
747.98	350.64
748.38	228.93
748.779	271.06
749.179	235.96
749.578	301.49
749.978	306.17
750.377	273.4
750.777	252.34
751.176	268.72
751.575	315.53
751.975	275.74
752.374	310.85
752.773	285.11
753.172	308.51
753.571	247.66
753.97	296.81
754.369	245.32
754.768	278.08
755.166	252.34
755.565	259.36
755.964	313.19
756.362	301.49
756.761	285.11
757.159	280.43
757.558	257.02
757.956	278.08
758.354	250
758.753	296.81
759.151	299.15
759.549	273.4
759.947	299.15
760.345	238.3
760.743	275.74
761.141	257.02
761.539	320.21
761.936	331.92
762.334	268.72
762.732	320.21
763.129	254.68
763.527	264.04
763.924	259.36
764.322	294.47
764.719	320.21
765.117	264.04
765.514	273.4
765.911	303.83
