Data from Al_FLMS009871__1250__16-46-15-972.txt Node

Date: Fri Mar 08 16:46:15 CST 2024
User: pe5414po
Spectrometer: FLMS00987
Trigger mode: 0
Integration Time (sec): 1.000000E-1
Scans to average: 1
Electric dark correction enabled: true
Nonlinearity correction enabled: false
Boxcar width: 0
XAxis mode: Wavelengths
Number of Pixels in Spectrum: 2048
>>>>>Begin Spectral Data<<<<<
188.938	-122.29
189.409	-122.29
189.879	-122.29
190.349	-119.95
190.819	-105.91
191.29	-47.4
191.76	-82.5
192.23	-117.61
192.7	-75.48
193.17	-68.46
193.64	-47.4
194.109	-52.08
194.579	-21.65
195.049	-0.59
195.519	-7.61
195.988	36.86
196.458	86.01
196.927	62.61
197.397	130.48
197.866	111.76
198.336	93.04
198.805	149.21
199.274	179.64
199.744	219.43
200.213	177.3
200.682	191.34
201.151	247.51
201.62	247.51
202.089	334.11
202.558	256.87
203.027	315.39
203.495	263.9
203.964	301.34
204.433	273.26
204.902	277.94
205.37	306.03
205.839	373.9
206.307	317.73
206.776	275.6
207.244	282.62
207.712	343.47
208.181	322.41
208.649	327.09
209.117	296.66
209.585	294.32
210.053	310.71
210.521	277.94
210.989	261.55
211.457	268.58
211.925	348.15
212.393	322.41
212.861	259.21
213.328	284.96
213.796	320.07
214.264	299
214.731	338.79
215.199	291.98
215.666	198.36
216.133	266.24
216.601	317.73
217.068	275.6
217.535	275.6
218.003	270.92
218.47	287.3
218.937	303.68
219.404	306.03
219.871	268.58
220.338	303.68
220.805	306.03
221.271	254.53
221.738	273.26
222.205	273.26
222.671	198.36
223.138	277.94
223.605	261.55
224.071	289.64
224.538	280.28
225.004	299
225.47	268.58
225.937	266.24
226.403	280.28
226.869	284.96
227.335	317.73
227.801	334.11
228.267	306.03
228.733	303.68
229.199	306.03
229.665	308.37
230.131	221.77
230.597	296.66
231.062	277.94
231.528	291.98
231.994	289.64
232.459	338.79
232.925	315.39
233.39	310.71
233.856	266.24
234.321	284.96
234.786	280.28
235.252	259.21
235.717	280.28
236.182	329.43
236.647	277.94
237.112	331.77
237.577	282.62
238.042	317.73
238.507	313.05
238.972	273.26
239.436	249.85
239.901	289.64
240.366	266.24
240.83	231.13
241.295	289.64
241.76	263.9
242.224	289.64
242.688	245.17
243.153	273.26
243.617	322.41
244.081	299
244.545	266.24
245.01	284.96
245.474	266.24
245.938	263.9
246.402	247.51
246.866	268.58
247.33	291.98
247.793	315.39
248.257	317.73
248.721	287.3
249.185	315.39
249.648	280.28
250.112	282.62
250.575	233.47
251.039	324.75
251.502	277.94
251.965	345.81
252.429	336.45
252.892	210.06
253.355	287.3
253.818	254.53
254.281	284.96
254.744	327.09
255.207	399.65
255.67	310.71
256.133	252.19
256.596	371.56
257.059	350.5
257.522	221.77
257.984	284.96
258.447	308.37
258.909	301.34
259.372	324.75
259.834	212.4
260.297	263.9
260.759	308.37
261.221	345.81
261.684	310.71
262.146	315.39
262.608	224.11
263.07	256.87
263.532	280.28
263.994	341.13
264.456	380.92
264.918	261.55
265.38	310.71
265.842	327.09
266.303	277.94
266.765	231.13
267.227	355.18
267.688	280.28
268.15	247.51
268.611	366.88
269.072	329.43
269.534	303.68
269.995	270.92
270.456	306.03
270.918	308.37
271.379	336.45
271.84	249.85
272.301	289.64
272.762	315.39
273.223	270.92
273.684	327.09
274.144	376.24
274.605	303.68
275.066	315.39
275.527	317.73
275.987	336.45
276.448	299
276.908	263.9
277.369	259.21
277.829	186.66
278.289	284.96
278.75	228.79
279.21	303.68
279.67	296.66
280.13	303.68
280.59	310.71
281.05	291.98
281.51	315.39
281.97	315.39
282.43	306.03
282.89	336.45
283.35	242.83
283.809	296.66
284.269	301.34
284.729	320.07
285.188	308.37
285.648	303.68
286.107	310.71
286.567	317.73
287.026	284.96
287.485	327.09
287.944	352.84
288.404	327.09
288.863	313.05
289.322	329.43
289.781	313.05
290.24	334.11
290.699	383.26
291.158	320.07
291.616	350.5
292.075	310.71
292.534	320.07
292.992	299
293.451	308.37
293.91	315.39
294.368	322.41
294.827	359.86
295.285	317.73
295.743	327.09
296.202	362.2
296.66	362.2
297.118	334.11
297.576	378.58
298.034	270.92
298.492	301.34
298.95	329.43
299.408	291.98
299.866	320.07
300.324	313.05
300.781	341.13
301.239	289.64
301.697	313.05
302.154	322.41
302.612	343.47
303.069	301.34
303.527	359.86
303.984	301.34
304.441	198.36
304.899	348.15
305.356	308.37
305.813	329.43
306.27	275.6
306.727	317.73
307.184	299
307.641	294.32
308.098	308.37
308.555	254.53
309.012	317.73
309.468	331.77
309.925	296.66
310.382	336.45
310.838	327.09
311.295	275.6
311.751	324.75
312.208	334.11
312.664	327.09
313.12	308.37
313.577	296.66
314.033	263.9
314.489	277.94
314.945	308.37
315.401	294.32
315.857	371.56
316.313	355.18
316.769	362.2
317.225	266.24
317.681	352.84
318.136	315.39
318.592	322.41
319.048	329.43
319.503	357.52
319.959	385.6
320.414	380.92
320.869	394.97
321.325	303.68
321.78	327.09
322.235	270.92
322.691	329.43
323.146	345.81
323.601	306.03
324.056	359.86
324.511	270.92
324.966	242.83
325.421	308.37
325.875	306.03
326.33	315.39
326.785	303.68
327.24	331.77
327.694	261.55
328.149	343.47
328.603	352.84
329.058	301.34
329.512	376.24
329.966	345.81
330.421	245.17
330.875	296.66
331.329	364.54
331.783	327.09
332.237	284.96
332.691	364.54
333.145	334.11
333.599	336.45
334.053	317.73
334.507	249.85
334.96	280.28
335.414	310.71
335.868	280.28
336.321	261.55
336.775	338.79
337.228	275.6
337.682	289.64
338.135	275.6
338.588	303.68
339.042	341.13
339.495	273.26
339.948	327.09
340.401	371.56
340.854	329.43
341.307	380.92
341.76	322.41
342.213	275.6
342.666	296.66
343.119	327.09
343.571	301.34
344.024	315.39
344.477	287.3
344.929	306.03
345.382	406.67
345.834	345.81
346.287	334.11
346.739	362.2
347.191	338.79
347.644	362.2
348.096	345.81
348.548	334.11
349	263.9
349.452	336.45
349.904	338.79
350.356	303.68
350.808	362.2
351.26	270.92
351.711	331.77
352.163	317.73
352.615	324.75
353.066	338.79
353.518	355.18
353.969	334.11
354.421	280.28
354.872	291.98
355.324	313.05
355.775	289.64
356.226	315.39
356.677	359.86
357.128	284.96
357.579	268.58
358.03	317.73
358.481	291.98
358.932	338.79
359.383	352.84
359.834	301.34
360.285	308.37
360.735	308.37
361.186	331.77
361.637	287.3
362.087	317.73
362.538	280.28
362.988	280.28
363.438	306.03
363.889	249.85
364.339	322.41
364.789	284.96
365.239	378.58
365.689	371.56
366.139	282.62
366.589	324.75
367.039	310.71
367.489	371.56
367.939	320.07
368.389	336.45
368.839	366.88
369.288	355.18
369.738	287.3
370.187	322.41
370.637	308.37
371.086	327.09
371.536	336.45
371.985	287.3
372.434	291.98
372.884	336.45
373.333	401.99
373.782	345.81
374.231	282.62
374.68	322.41
375.129	331.77
375.578	303.68
376.027	327.09
376.475	322.41
376.924	348.15
377.373	320.07
377.822	320.07
378.27	313.05
378.719	376.24
379.167	284.96
379.616	317.73
380.064	308.37
380.512	268.58
380.961	308.37
381.409	329.43
381.857	336.45
382.305	331.77
382.753	287.3
383.201	317.73
383.649	341.13
384.097	313.05
384.545	310.71
384.992	329.43
385.44	299
385.888	282.62
386.335	306.03
386.783	261.55
387.231	369.22
387.678	373.9
388.125	317.73
388.573	287.3
389.02	299
389.467	348.15
389.914	331.77
390.362	313.05
390.809	324.75
391.256	275.6
391.703	289.64
392.15	301.34
392.596	376.24
393.043	306.03
393.49	343.47
393.937	294.32
394.383	313.05
394.83	280.28
395.276	338.79
395.723	352.84
396.169	301.34
396.616	249.85
397.062	317.73
397.508	336.45
397.954	324.75
398.401	313.05
398.847	334.11
399.293	378.58
399.739	359.86
400.185	366.88
400.631	394.97
401.076	315.39
401.522	348.15
401.968	413.69
402.414	327.09
402.859	308.37
403.305	338.79
403.75	327.09
404.196	350.5
404.641	299
405.086	364.54
405.532	350.5
405.977	359.86
406.422	291.98
406.867	336.45
407.312	331.77
407.757	371.56
408.202	423.05
408.647	317.73
409.092	313.05
409.537	277.94
409.982	320.07
410.426	252.19
410.871	350.5
411.316	315.39
411.76	296.66
412.205	373.9
412.649	322.41
413.093	334.11
413.538	324.75
413.982	310.71
414.426	284.96
414.87	324.75
415.314	315.39
415.758	357.52
416.202	397.31
416.646	338.79
417.09	324.75
417.534	310.71
417.978	303.68
418.421	282.62
418.865	238.15
419.309	301.34
419.752	341.13
420.196	329.43
420.639	331.77
421.083	245.17
421.526	327.09
421.969	282.62
422.412	322.41
422.856	334.11
423.299	327.09
423.742	345.81
424.185	303.68
424.628	296.66
425.071	310.71
425.513	261.55
425.956	359.86
426.399	348.15
426.842	320.07
427.284	355.18
427.727	364.54
428.169	338.79
428.612	345.81
429.054	336.45
429.497	289.64
429.939	345.81
430.381	308.37
430.823	308.37
431.265	369.22
431.707	261.55
432.149	289.64
432.591	392.62
433.033	294.32
433.475	366.88
433.917	341.13
434.359	242.83
434.8	313.05
435.242	320.07
435.684	341.13
436.125	306.03
436.567	303.68
437.008	329.43
437.449	331.77
437.891	296.66
438.332	315.39
438.773	306.03
439.214	331.77
439.656	287.3
440.097	343.47
440.538	306.03
440.978	329.43
441.419	362.2
441.86	343.47
442.301	338.79
442.742	320.07
443.182	322.41
443.623	348.15
444.063	348.15
444.504	355.18
444.944	308.37
445.385	348.15
445.825	369.22
446.265	345.81
446.706	355.18
447.146	350.5
447.586	303.68
448.026	301.34
448.466	266.24
448.906	369.22
449.346	362.2
449.786	390.28
450.225	350.5
450.665	282.62
451.105	324.75
451.544	287.3
451.984	324.75
452.424	310.71
452.863	275.6
453.302	334.11
453.742	306.03
454.181	357.52
454.62	378.58
455.059	287.3
455.499	301.34
455.938	287.3
456.377	378.58
456.816	334.11
457.254	310.71
457.693	294.32
458.132	371.56
458.571	380.92
459.01	301.34
459.448	359.86
459.887	231.13
460.325	338.79
460.764	343.47
461.202	247.51
461.641	329.43
462.079	320.07
462.517	294.32
462.955	362.2
463.393	329.43
463.832	345.81
464.27	303.68
464.708	343.47
465.145	362.2
465.583	303.68
466.021	378.58
466.459	366.88
466.897	385.6
467.334	268.58
467.772	352.84
468.209	338.79
468.647	270.92
469.084	322.41
469.522	306.03
469.959	352.84
470.396	313.05
470.833	322.41
471.271	296.66
471.708	310.71
472.145	287.3
472.582	291.98
473.019	296.66
473.456	357.52
473.892	303.68
474.329	301.34
474.766	327.09
475.202	324.75
475.639	313.05
476.076	329.43
476.512	336.45
476.949	331.77
477.385	357.52
477.821	352.84
478.258	299
478.694	275.6
479.13	273.26
479.566	308.37
480.002	371.56
480.438	303.68
480.874	409.01
481.31	345.81
481.746	266.24
482.181	329.43
482.617	291.98
483.053	376.24
483.488	327.09
483.924	282.62
484.36	359.86
484.795	341.13
485.23	327.09
485.666	397.31
486.101	308.37
486.536	334.11
486.971	352.84
487.407	327.09
487.842	366.88
488.277	327.09
488.712	366.88
489.146	259.21
489.581	341.13
490.016	336.45
490.451	401.99
490.885	317.73
491.32	324.75
491.755	320.07
492.189	341.13
492.624	308.37
493.058	313.05
493.492	315.39
493.927	355.18
494.361	338.79
494.795	331.77
495.229	352.84
495.663	404.33
496.097	364.54
496.531	341.13
496.965	352.84
497.399	329.43
497.833	355.18
498.266	322.41
498.7	301.34
499.134	338.79
499.567	369.22
500.001	327.09
500.434	348.15
500.868	383.26
501.301	284.96
501.734	338.79
502.168	345.81
502.601	261.55
503.034	341.13
503.467	324.75
503.9	308.37
504.333	331.77
504.766	383.26
505.199	324.75
505.632	263.9
506.064	284.96
506.497	310.71
506.93	313.05
507.362	385.6
507.795	303.68
508.227	277.94
508.66	387.94
509.092	334.11
509.524	331.77
509.956	343.47
510.389	357.52
510.821	348.15
511.253	324.75
511.685	409.01
512.117	310.71
512.549	383.26
512.981	299
513.412	296.66
513.844	334.11
514.276	327.09
514.707	289.64
515.139	373.9
515.571	310.71
516.002	329.43
516.433	355.18
516.865	299
517.296	261.55
517.727	331.77
518.159	327.09
518.59	331.77
519.021	341.13
519.452	378.58
519.883	291.98
520.314	308.37
520.744	352.84
521.175	357.52
521.606	277.94
522.037	336.45
522.467	289.64
522.898	291.98
523.328	336.45
523.759	352.84
524.189	345.81
524.62	345.81
525.05	331.77
525.48	247.51
525.91	240.49
526.341	303.68
526.771	266.24
527.201	301.34
527.631	343.47
528.061	329.43
528.49	371.56
528.92	348.15
529.35	317.73
529.78	376.24
530.209	313.05
530.639	334.11
531.068	336.45
531.498	317.73
531.927	294.32
532.357	385.6
532.786	352.84
533.215	364.54
533.644	331.77
534.074	446.46
534.503	359.86
534.932	394.97
535.361	317.73
535.79	343.47
536.218	324.75
536.647	329.43
537.076	322.41
537.505	299
537.933	301.34
538.362	394.97
538.79	350.5
539.219	338.79
539.647	327.09
540.076	289.64
540.504	341.13
540.932	338.79
541.36	359.86
541.788	331.77
542.217	355.18
542.645	282.62
543.073	364.54
543.5	343.47
543.928	310.71
544.356	252.19
544.784	299
545.211	294.32
545.639	329.43
546.067	331.77
546.494	406.67
546.922	308.37
547.349	334.11
547.776	299
548.204	329.43
548.631	287.3
549.058	303.68
549.485	329.43
549.912	270.92
550.339	238.15
550.766	301.34
551.193	306.03
551.62	387.94
552.047	327.09
552.474	301.34
552.9	299
553.327	334.11
553.754	306.03
554.18	299
554.607	364.54
555.033	313.05
555.459	273.26
555.886	324.75
556.312	341.13
556.738	350.5
557.164	291.98
557.59	238.15
558.016	315.39
558.442	338.79
558.868	334.11
559.294	289.64
559.72	343.47
560.145	296.66
560.571	308.37
560.997	343.47
561.422	350.5
561.848	338.79
562.273	366.88
562.699	345.81
563.124	348.15
563.549	334.11
563.974	289.64
564.4	256.87
564.825	369.22
565.25	373.9
565.675	324.75
566.1	336.45
566.525	423.05
566.95	315.39
567.374	247.51
567.799	324.75
568.224	275.6
568.648	373.9
569.073	282.62
569.497	296.66
569.922	380.92
570.346	334.11
570.771	369.22
571.195	341.13
571.619	263.9
572.043	329.43
572.467	315.39
572.891	338.79
573.315	343.47
573.739	336.45
574.163	313.05
574.587	334.11
575.011	266.24
575.435	348.15
575.858	294.32
576.282	362.2
576.705	338.79
577.129	282.62
577.552	303.68
577.976	357.52
578.399	338.79
578.822	284.96
579.245	289.64
579.669	366.88
580.092	303.68
580.515	313.05
580.938	320.07
581.361	289.64
581.784	369.22
582.206	324.75
582.629	291.98
583.052	383.26
583.474	289.64
583.897	362.2
584.32	254.53
584.742	308.37
585.165	284.96
585.587	294.32
586.009	296.66
586.431	336.45
586.854	369.22
587.276	362.2
587.698	296.66
588.12	315.39
588.542	369.22
588.964	277.94
589.386	306.03
589.807	376.24
590.229	343.47
590.651	282.62
591.073	306.03
591.494	254.53
591.916	228.79
592.337	291.98
592.759	364.54
593.18	357.52
593.601	425.39
594.022	315.39
594.444	313.05
594.865	261.55
595.286	280.28
595.707	348.15
596.128	287.3
596.549	334.11
596.97	355.18
597.39	294.32
597.811	350.5
598.232	306.03
598.652	390.28
599.073	439.44
599.494	324.75
599.914	291.98
600.334	366.88
600.755	348.15
601.175	383.26
601.595	338.79
602.015	313.05
602.436	308.37
602.856	401.99
603.276	336.45
603.696	308.37
604.115	291.98
604.535	327.09
604.955	280.28
605.375	327.09
605.794	317.73
606.214	331.77
606.634	359.86
607.053	313.05
607.473	373.9
607.892	322.41
608.311	385.6
608.731	390.28
609.15	320.07
609.569	331.77
609.988	320.07
610.407	359.86
610.826	334.11
611.245	270.92
611.664	324.75
612.083	284.96
612.501	348.15
612.92	371.56
613.339	378.58
613.757	324.75
614.176	324.75
614.594	284.96
615.013	409.01
615.431	310.71
615.85	329.43
616.268	329.43
616.686	301.34
617.104	277.94
617.522	327.09
617.94	392.62
618.358	373.9
618.776	299
619.194	366.88
619.612	364.54
620.03	350.5
620.447	313.05
620.865	275.6
621.282	359.86
621.7	313.05
622.117	324.75
622.535	343.47
622.952	282.62
623.369	296.66
623.787	362.2
624.204	371.56
624.621	376.24
625.038	317.73
625.455	301.34
625.872	343.47
626.289	263.9
626.706	359.86
627.123	294.32
627.539	355.18
627.956	362.2
628.373	322.41
628.789	296.66
629.206	282.62
629.622	345.81
630.038	310.71
630.455	352.84
630.871	343.47
631.287	359.86
631.703	275.6
632.12	355.18
632.536	371.56
632.952	362.2
633.368	385.6
633.783	329.43
634.199	355.18
634.615	376.24
635.031	348.15
635.446	359.86
635.862	299
636.277	331.77
636.693	359.86
637.108	294.32
637.524	352.84
637.939	308.37
638.354	310.71
638.77	310.71
639.185	273.26
639.6	338.79
640.015	373.9
640.43	299
640.845	350.5
641.259	299
641.674	331.77
642.089	369.22
642.504	341.13
642.918	357.52
643.333	317.73
643.747	315.39
644.162	277.94
644.576	310.71
644.991	331.77
645.405	355.18
645.819	315.39
646.233	348.15
646.647	322.41
647.061	282.62
647.475	299
647.889	348.15
648.303	322.41
648.717	315.39
649.131	322.41
649.545	294.32
649.958	327.09
650.372	324.75
650.785	282.62
651.199	287.3
651.612	291.98
652.026	345.81
652.439	357.52
652.852	406.67
653.266	394.97
653.679	303.68
654.092	341.13
654.505	308.37
654.918	254.53
655.331	383.26
655.744	376.24
656.156	329.43
656.569	331.77
656.982	308.37
657.394	327.09
657.807	317.73
658.22	336.45
658.632	277.94
659.044	261.55
659.457	313.05
659.869	308.37
660.281	280.28
660.693	273.26
661.106	313.05
661.518	310.71
661.93	364.54
662.342	303.68
662.754	355.18
663.165	306.03
663.577	350.5
663.989	327.09
664.401	338.79
664.812	284.96
665.224	343.47
665.635	282.62
666.047	331.77
666.458	331.77
666.869	310.71
667.281	362.2
667.692	364.54
668.103	277.94
668.514	423.05
668.925	364.54
669.336	277.94
669.747	327.09
670.158	254.53
670.569	341.13
670.979	359.86
671.39	277.94
671.801	303.68
672.211	327.09
672.622	306.03
673.032	362.2
673.443	357.52
673.853	315.39
674.263	327.09
674.674	315.39
675.084	343.47
675.494	322.41
675.904	306.03
676.314	322.41
676.724	357.52
677.134	348.15
677.544	329.43
677.953	352.84
678.363	306.03
678.773	284.96
679.182	331.77
679.592	313.05
680.001	376.24
680.411	310.71
680.82	296.66
681.23	338.79
681.639	315.39
682.048	322.41
682.457	341.13
682.866	352.84
683.275	327.09
683.684	301.34
684.093	296.66
684.502	310.71
684.911	296.66
685.32	331.77
685.728	364.54
686.137	273.26
686.546	317.73
686.954	254.53
687.363	357.52
687.771	345.81
688.179	369.22
688.588	341.13
688.996	336.45
689.404	345.81
689.812	331.77
690.22	324.75
690.628	320.07
691.036	331.77
691.444	308.37
691.852	371.56
692.26	348.15
692.667	345.81
693.075	352.84
693.483	294.32
693.89	254.53
694.298	341.13
694.705	359.86
695.112	338.79
695.52	357.52
695.927	341.13
696.334	315.39
696.741	352.84
697.148	336.45
697.555	317.73
697.962	334.11
698.369	338.79
698.776	352.84
699.183	252.19
699.59	387.94
699.996	343.47
700.403	336.45
700.81	282.62
701.216	308.37
701.623	324.75
702.029	268.58
702.435	299
702.842	266.24
703.248	350.5
703.654	362.2
704.06	315.39
704.466	364.54
704.872	324.75
705.278	348.15
705.684	329.43
706.09	282.62
706.496	355.18
706.901	343.47
707.307	331.77
707.712	280.28
708.118	317.73
708.523	364.54
708.929	362.2
709.334	352.84
709.74	280.28
710.145	280.28
710.55	336.45
710.955	329.43
711.36	334.11
711.765	313.05
712.17	369.22
712.575	345.81
712.98	902.86
713.385	357.52
713.789	315.39
714.194	291.98
714.599	359.86
715.003	301.34
715.408	313.05
715.812	282.62
716.217	336.45
716.621	315.39
717.025	345.81
717.429	376.24
717.833	383.26
718.238	345.81
718.642	352.84
719.046	345.81
719.449	317.73
719.853	341.13
720.257	233.47
720.661	291.98
721.065	317.73
721.468	308.37
721.872	249.85
722.275	383.26
722.679	355.18
723.082	345.81
723.485	289.64
723.889	394.97
724.292	345.81
724.695	383.26
725.098	275.6
725.501	331.77
725.904	322.41
726.307	359.86
726.71	289.64
727.113	324.75
727.516	301.34
727.918	306.03
728.321	380.92
728.724	341.13
729.126	362.2
729.529	341.13
729.931	320.07
730.333	362.2
730.736	338.79
731.138	306.03
731.54	352.84
731.942	373.9
732.344	324.75
732.746	322.41
733.148	324.75
733.55	352.84
733.952	336.45
734.354	357.52
734.756	310.71
735.157	296.66
735.559	329.43
735.96	313.05
736.362	327.09
736.763	280.28
737.165	334.11
737.566	373.9
737.967	362.2
738.368	266.24
738.77	327.09
739.171	343.47
739.572	336.45
739.973	301.34
740.374	362.2
740.774	284.96
741.175	352.84
741.576	284.96
741.977	355.18
742.377	277.94
742.778	376.24
743.178	366.88
743.579	329.43
743.979	252.19
744.379	343.47
744.78	336.45
745.18	308.37
745.58	284.96
745.98	266.24
746.38	324.75
746.78	299
747.18	303.68
747.58	334.11
747.98	249.85
748.38	338.79
748.779	331.77
749.179	277.94
749.578	310.71
749.978	254.53
750.377	359.86
750.777	320.07
751.176	296.66
751.575	373.9
751.975	247.51
752.374	301.34
752.773	284.96
753.172	320.07
753.571	322.41
753.97	306.03
754.369	284.96
754.768	320.07
755.166	317.73
755.565	301.34
755.964	343.47
756.362	380.92
756.761	317.73
757.159	336.45
757.558	322.41
757.956	352.84
758.354	334.11
758.753	317.73
759.151	294.32
759.549	352.84
759.947	282.62
760.345	310.71
760.743	289.64
761.141	310.71
761.539	348.15
761.936	373.9
762.334	214.74
762.732	313.05
763.129	270.92
763.527	317.73
763.924	383.26
764.322	355.18
764.719	376.24
765.117	336.45
765.514	303.68
765.911	373.9
766.308	350.5
