Data from Al_FLMS009871__1242__16-46-15-172.txt Node

Date: Fri Mar 08 16:46:15 CST 2024
User: pe5414po
Spectrometer: FLMS00987
Trigger mode: 0
Integration Time (sec): 1.000000E-1
Scans to average: 1
Electric dark correction enabled: true
Nonlinearity correction enabled: false
Boxcar width: 0
XAxis mode: Wavelengths
Number of Pixels in Spectrum: 2048
>>>>>Begin Spectral Data<<<<<
188.938	-157.11
189.409	-157.11
189.879	-157.11
190.349	-72.85
190.819	-58.81
191.29	-119.66
191.76	-91.57
192.23	-54.12
192.7	-77.53
193.17	-84.55
193.64	-68.17
194.109	-30.72
194.579	16.09
195.049	32.47
195.519	-33.06
195.988	-4.97
196.458	27.79
196.927	102.69
197.397	100.35
197.866	128.44
198.336	156.52
198.805	130.78
199.274	107.37
199.744	168.23
200.213	186.95
200.682	205.67
201.151	229.08
201.62	212.7
202.089	177.59
202.558	257.17
203.027	266.53
203.495	245.46
203.964	191.63
204.433	271.21
204.902	222.06
205.37	217.38
205.839	273.55
206.307	273.55
206.776	285.25
207.244	332.06
207.712	329.72
208.181	231.42
208.649	278.23
209.117	306.32
209.585	357.81
210.053	268.87
210.521	252.49
210.989	266.53
211.457	369.51
211.925	296.96
212.393	289.93
212.861	289.93
213.328	245.46
213.796	236.1
214.264	336.74
214.731	238.44
215.199	266.53
215.666	278.23
216.133	254.83
216.601	238.44
217.068	306.32
217.535	231.42
218.003	271.21
218.47	245.46
218.937	311
219.404	266.53
219.871	275.89
220.338	205.67
220.805	203.33
221.271	296.96
221.738	245.46
222.205	222.06
222.671	275.89
223.138	247.8
223.605	322.7
224.071	282.91
224.538	149.5
225.004	203.33
225.47	278.23
225.937	268.87
226.403	268.87
226.869	280.57
227.335	252.49
227.801	247.8
228.267	303.98
228.733	257.17
229.199	275.89
229.665	285.25
230.131	250.14
230.597	198.65
231.062	236.1
231.528	226.74
231.994	245.46
232.459	271.21
232.925	282.91
233.39	315.68
233.856	226.74
234.321	240.78
234.786	257.17
235.252	245.46
235.717	332.06
236.182	306.32
236.647	299.3
237.112	278.23
237.577	212.7
238.042	311
238.507	266.53
238.972	266.53
239.436	318.02
239.901	308.66
240.366	348.45
240.83	268.87
241.295	268.87
241.76	275.89
242.224	252.49
242.688	329.72
243.153	299.3
243.617	257.17
244.081	301.64
244.545	285.25
245.01	226.74
245.474	224.4
245.938	254.83
246.402	273.55
246.866	198.65
247.33	264.19
247.793	318.02
248.257	217.38
248.721	292.27
249.185	217.38
249.648	254.83
250.112	303.98
250.575	268.87
251.039	222.06
251.502	231.42
251.965	353.13
252.429	250.14
252.892	247.8
253.355	257.17
253.818	238.44
254.281	233.76
254.744	294.61
255.207	296.96
255.67	264.19
256.133	278.23
256.596	243.12
257.059	273.55
257.522	261.85
257.984	292.27
258.447	261.85
258.909	336.74
259.372	357.81
259.834	280.57
260.297	231.42
260.759	275.89
261.221	257.17
261.684	311
262.146	318.02
262.608	215.04
263.07	311
263.532	311
263.994	292.27
264.456	257.17
264.918	271.21
265.38	311
265.842	292.27
266.303	217.38
266.765	362.49
267.227	215.04
267.688	268.87
268.15	311
268.611	254.83
269.072	299.3
269.534	327.38
269.995	289.93
270.456	287.59
270.918	222.06
271.379	322.7
271.84	294.61
272.301	322.7
272.762	341.43
273.223	308.66
273.684	282.91
274.144	254.83
274.605	306.32
275.066	311
275.527	224.4
275.987	222.06
276.448	236.1
276.908	266.53
277.369	292.27
277.829	378.87
278.289	238.44
278.75	301.64
279.21	315.68
279.67	292.27
280.13	339.09
280.59	250.14
281.05	212.7
281.51	275.89
281.97	348.45
282.43	301.64
282.89	318.02
283.35	257.17
283.809	268.87
284.269	259.51
284.729	278.23
285.188	271.21
285.648	292.27
286.107	289.93
286.567	308.66
287.026	303.98
287.485	294.61
287.944	231.42
288.404	271.21
288.863	289.93
289.322	282.91
289.781	315.68
290.24	271.21
290.699	280.57
291.158	257.17
291.616	268.87
292.075	322.7
292.534	285.25
292.992	303.98
293.451	278.23
293.91	238.44
294.368	268.87
294.827	311
295.285	325.04
295.743	303.98
296.202	296.96
296.66	280.57
297.118	343.77
297.576	275.89
298.034	287.59
298.492	303.98
298.95	229.08
299.408	275.89
299.866	315.68
300.324	271.21
300.781	385.9
301.239	385.9
301.697	306.32
302.154	229.08
302.612	308.66
303.069	301.64
303.527	311
303.984	252.49
304.441	311
304.899	313.34
305.356	320.36
305.813	320.36
306.27	257.17
306.727	268.87
307.184	264.19
307.641	292.27
308.098	296.96
308.555	329.72
309.012	289.93
309.468	339.09
309.925	311
310.382	322.7
310.838	353.13
311.295	313.34
311.751	278.23
312.208	306.32
312.664	339.09
313.12	275.89
313.577	325.04
314.033	243.12
314.489	261.85
314.945	259.51
315.401	273.55
315.857	364.83
316.313	318.02
316.769	294.61
317.225	299.3
317.681	296.96
318.136	252.49
318.592	289.93
319.048	282.91
319.503	322.7
319.959	336.74
320.414	285.25
320.869	285.25
321.325	296.96
321.78	301.64
322.235	280.57
322.691	278.23
323.146	264.19
323.601	299.3
324.056	273.55
324.511	303.98
324.966	280.57
325.421	301.64
325.875	261.85
326.33	268.87
326.785	250.14
327.24	327.38
327.694	268.87
328.149	275.89
328.603	355.47
329.058	257.17
329.512	378.87
329.966	374.19
330.421	240.78
330.875	289.93
331.329	315.68
331.783	296.96
332.237	350.79
332.691	280.57
333.145	289.93
333.599	252.49
334.053	350.79
334.507	334.4
334.96	299.3
335.414	280.57
335.868	257.17
336.321	240.78
336.775	341.43
337.228	346.11
337.682	318.02
338.135	329.72
338.588	299.3
339.042	339.09
339.495	374.19
339.948	327.38
340.401	376.53
340.854	285.25
341.307	250.14
341.76	318.02
342.213	332.06
342.666	278.23
343.119	278.23
343.571	303.98
344.024	303.98
344.477	240.78
344.929	289.93
345.382	294.61
345.834	282.91
346.287	287.59
346.739	266.53
347.191	294.61
347.644	334.4
348.096	306.32
348.548	308.66
349	311
349.452	339.09
349.904	299.3
350.356	299.3
350.808	294.61
351.26	371.85
351.711	320.36
352.163	374.19
352.615	308.66
353.066	296.96
353.518	374.19
353.969	311
354.421	308.66
354.872	266.53
355.324	327.38
355.775	350.79
356.226	334.4
356.677	299.3
357.128	325.04
357.579	215.04
358.03	320.36
358.481	341.43
358.932	332.06
359.383	350.79
359.834	280.57
360.285	282.91
360.735	334.4
361.186	259.51
361.637	348.45
362.087	238.44
362.538	371.85
362.988	275.89
363.438	318.02
363.889	329.72
364.339	222.06
364.789	341.43
365.239	320.36
365.689	322.7
366.139	301.64
366.589	346.11
367.039	282.91
367.489	334.4
367.939	301.64
368.389	320.36
368.839	332.06
369.288	353.13
369.738	303.98
370.187	296.96
370.637	320.36
371.086	268.87
371.536	280.57
371.985	254.83
372.434	346.11
372.884	343.77
373.333	275.89
373.782	341.43
374.231	301.64
374.68	322.7
375.129	374.19
375.578	311
376.027	362.49
376.475	292.27
376.924	296.96
377.373	332.06
377.822	282.91
378.27	336.74
378.719	339.09
379.167	322.7
379.616	371.85
380.064	264.19
380.512	303.98
380.961	320.36
381.409	343.77
381.857	336.74
382.305	315.68
382.753	353.13
383.201	296.96
383.649	369.51
384.097	285.25
384.545	289.93
384.992	322.7
385.44	336.74
385.888	329.72
386.335	339.09
386.783	285.25
387.231	254.83
387.678	318.02
388.125	325.04
388.573	259.51
389.02	278.23
389.467	315.68
389.914	308.66
390.362	374.19
390.809	350.79
391.256	303.98
391.703	285.25
392.15	341.43
392.596	336.74
393.043	296.96
393.49	357.81
393.937	320.36
394.383	315.68
394.83	289.93
395.276	332.06
395.723	320.36
396.169	315.68
396.616	350.79
397.062	364.83
397.508	301.64
397.954	320.36
398.401	341.43
398.847	325.04
399.293	308.66
399.739	296.96
400.185	353.13
400.631	329.72
401.076	350.79
401.522	322.7
401.968	308.66
402.414	350.79
402.859	320.36
403.305	343.77
403.75	282.91
404.196	289.93
404.641	367.17
405.086	343.77
405.532	332.06
405.977	325.04
406.422	289.93
406.867	348.45
407.312	294.61
407.757	278.23
408.202	313.34
408.647	322.7
409.092	357.81
409.537	339.09
409.982	346.11
410.426	301.64
410.871	348.45
411.316	329.72
411.76	282.91
412.205	308.66
412.649	315.68
413.093	315.68
413.538	343.77
413.982	320.36
414.426	332.06
414.87	313.34
415.314	341.43
415.758	369.51
416.202	268.87
416.646	334.4
417.09	339.09
417.534	287.59
417.978	315.68
418.421	318.02
418.865	303.98
419.309	325.04
419.752	238.44
420.196	336.74
420.639	252.49
421.083	367.17
421.526	327.38
421.969	320.36
422.412	266.53
422.856	219.72
423.299	334.4
423.742	360.15
424.185	311
424.628	292.27
425.071	343.77
425.513	289.93
425.956	311
426.399	311
426.842	343.77
427.284	355.47
427.727	252.49
428.169	357.81
428.612	329.72
429.054	299.3
429.497	229.08
429.939	285.25
430.381	353.13
430.823	259.51
431.265	299.3
431.707	329.72
432.149	334.4
432.591	275.89
433.033	322.7
433.475	336.74
433.917	362.49
434.359	341.43
434.8	311
435.242	329.72
435.684	327.38
436.125	247.8
436.567	306.32
437.008	311
437.449	301.64
437.891	322.7
438.332	273.55
438.773	327.38
439.214	306.32
439.656	268.87
440.097	250.14
440.538	320.36
440.978	303.98
441.419	322.7
441.86	308.66
442.301	285.25
442.742	353.13
443.182	325.04
443.623	292.27
444.063	280.57
444.504	273.55
444.944	341.43
445.385	294.61
445.825	315.68
446.265	313.34
446.706	292.27
447.146	268.87
447.586	282.91
448.026	318.02
448.466	329.72
448.906	395.26
449.346	275.89
449.786	315.68
450.225	294.61
450.665	273.55
451.105	311
451.544	311
451.984	318.02
452.424	301.64
452.863	353.13
453.302	353.13
453.742	306.32
454.181	341.43
454.62	250.14
455.059	350.79
455.499	275.89
455.938	318.02
456.377	343.77
456.816	299.3
457.254	306.32
457.693	301.64
458.132	378.87
458.571	289.93
459.01	332.06
459.448	332.06
459.887	353.13
460.325	343.77
460.764	294.61
461.202	296.96
461.641	301.64
462.079	355.47
462.517	360.15
462.955	296.96
463.393	275.89
463.832	413.98
464.27	308.66
464.708	311
465.145	346.11
465.583	343.77
466.021	264.19
466.459	332.06
466.897	343.77
467.334	303.98
467.772	332.06
468.209	287.59
468.647	287.59
469.084	327.38
469.522	268.87
469.959	245.46
470.396	289.93
470.833	252.49
471.271	332.06
471.708	285.25
472.145	301.64
472.582	285.25
473.019	266.53
473.456	268.87
473.892	287.59
474.329	306.32
474.766	264.19
475.202	268.87
475.639	336.74
476.076	332.06
476.512	271.21
476.949	287.59
477.385	289.93
477.821	289.93
478.258	254.83
478.694	341.43
479.13	318.02
479.566	313.34
480.002	289.93
480.438	278.23
480.874	343.77
481.31	266.53
481.746	320.36
482.181	336.74
482.617	355.47
483.053	294.61
483.488	254.83
483.924	282.91
484.36	322.7
484.795	299.3
485.23	259.51
485.666	390.58
486.101	334.4
486.536	353.13
486.971	285.25
487.407	308.66
487.842	266.53
488.277	257.17
488.712	261.85
489.146	296.96
489.581	350.79
490.016	306.32
490.451	273.55
490.885	257.17
491.32	285.25
491.755	296.96
492.189	313.34
492.624	287.59
493.058	301.64
493.492	320.36
493.927	280.57
494.361	320.36
494.795	313.34
495.229	264.19
495.663	343.77
496.097	346.11
496.531	292.27
496.965	287.59
497.399	348.45
497.833	336.74
498.266	346.11
498.7	292.27
499.134	336.74
499.567	250.14
500.001	303.98
500.434	318.02
500.868	311
501.301	332.06
501.734	308.66
502.168	282.91
502.601	303.98
503.034	353.13
503.467	325.04
503.9	327.38
504.333	278.23
504.766	311
505.199	360.15
505.632	313.34
506.064	336.74
506.497	336.74
506.93	348.45
507.362	273.55
507.795	296.96
508.227	243.12
508.66	318.02
509.092	296.96
509.524	268.87
509.956	271.21
510.389	313.34
510.821	374.19
511.253	327.38
511.685	252.49
512.117	308.66
512.549	306.32
512.981	332.06
513.412	397.6
513.844	271.21
514.276	313.34
514.707	257.17
515.139	320.36
515.571	245.46
516.002	275.89
516.433	362.49
516.865	301.64
517.296	278.23
517.727	282.91
518.159	320.36
518.59	280.57
519.021	334.4
519.452	289.93
519.883	301.64
520.314	325.04
520.744	289.93
521.175	294.61
521.606	289.93
522.037	268.87
522.467	341.43
522.898	322.7
523.328	343.77
523.759	299.3
524.189	308.66
524.62	320.36
525.05	343.77
525.48	364.83
525.91	303.98
526.341	392.92
526.771	348.45
527.201	341.43
527.631	336.74
528.061	296.96
528.49	322.7
528.92	273.55
529.35	339.09
529.78	261.85
530.209	252.49
530.639	343.77
531.068	334.4
531.498	287.59
531.927	346.11
532.357	332.06
532.786	271.21
533.215	332.06
533.644	341.43
534.074	369.51
534.503	325.04
534.932	346.11
535.361	296.96
535.79	343.77
536.218	292.27
536.647	299.3
537.076	280.57
537.505	341.43
537.933	289.93
538.362	320.36
538.79	322.7
539.219	332.06
539.647	282.91
540.076	303.98
540.504	343.77
540.932	306.32
541.36	343.77
541.788	329.72
542.217	334.4
542.645	294.61
543.073	299.3
543.5	275.89
543.928	301.64
544.356	322.7
544.784	348.45
545.211	318.02
545.639	292.27
546.067	334.4
546.494	287.59
546.922	306.32
547.349	318.02
547.776	245.46
548.204	336.74
548.631	285.25
549.058	364.83
549.485	327.38
549.912	329.72
550.339	294.61
550.766	367.17
551.193	322.7
551.62	383.56
552.047	357.81
552.474	264.19
552.9	264.19
553.327	306.32
553.754	360.15
554.18	315.68
554.607	348.45
555.033	315.68
555.459	313.34
555.886	353.13
556.312	332.06
556.738	278.23
557.164	313.34
557.59	353.13
558.016	350.79
558.442	376.53
558.868	327.38
559.294	343.77
559.72	360.15
560.145	301.64
560.571	278.23
560.997	294.61
561.422	318.02
561.848	306.32
562.273	329.72
562.699	322.7
563.124	334.4
563.549	350.79
563.974	332.06
564.4	339.09
564.825	311
565.25	341.43
565.675	320.36
566.1	301.64
566.525	292.27
566.95	339.09
567.374	376.53
567.799	334.4
568.224	287.59
568.648	311
569.073	315.68
569.497	339.09
569.922	355.47
570.346	327.38
570.771	329.72
571.195	327.38
571.619	287.59
572.043	285.25
572.467	336.74
572.891	325.04
573.315	299.3
573.739	313.34
574.163	315.68
574.587	289.93
575.011	336.74
575.435	308.66
575.858	334.4
576.282	327.38
576.705	289.93
577.129	397.6
577.552	303.98
577.976	289.93
578.399	299.3
578.822	332.06
579.245	311
579.669	250.14
580.092	308.66
580.515	318.02
580.938	296.96
581.361	315.68
581.784	318.02
582.206	336.74
582.629	266.53
583.052	275.89
583.474	327.38
583.897	346.11
584.32	275.89
584.742	296.96
585.165	390.58
585.587	271.21
586.009	271.21
586.431	311
586.854	332.06
587.276	243.12
587.698	332.06
588.12	327.38
588.542	320.36
588.964	296.96
589.386	322.7
589.807	348.45
590.229	327.38
590.651	306.32
591.073	327.38
591.494	353.13
591.916	301.64
592.337	341.43
592.759	280.57
593.18	285.25
593.601	289.93
594.022	325.04
594.444	296.96
594.865	275.89
595.286	325.04
595.707	332.06
596.128	350.79
596.549	327.38
596.97	278.23
597.39	332.06
597.811	329.72
598.232	301.64
598.652	360.15
599.073	355.47
599.494	343.77
599.914	301.64
600.334	329.72
600.755	296.96
601.175	322.7
601.595	341.43
602.015	306.32
602.436	334.4
602.856	406.96
603.276	296.96
603.696	273.55
604.115	332.06
604.535	299.3
604.955	292.27
605.375	374.19
605.794	259.51
606.214	301.64
606.634	318.02
607.053	320.36
607.473	322.7
607.892	289.93
608.311	339.09
608.731	313.34
609.15	240.78
609.569	311
609.988	308.66
610.407	334.4
610.826	325.04
611.245	299.3
611.664	357.81
612.083	299.3
612.501	346.11
612.92	303.98
613.339	318.02
613.757	287.59
614.176	336.74
614.594	369.51
615.013	334.4
615.431	308.66
615.85	261.85
616.268	238.44
616.686	259.51
617.104	364.83
617.522	318.02
617.94	308.66
618.358	334.4
618.776	280.57
619.194	219.72
619.612	271.21
620.03	378.87
620.447	308.66
620.865	294.61
621.282	325.04
621.7	299.3
622.117	325.04
622.535	243.12
622.952	287.59
623.369	341.43
623.787	275.89
624.204	299.3
624.621	280.57
625.038	332.06
625.455	348.45
625.872	296.96
626.289	289.93
626.706	266.53
627.123	287.59
627.539	259.51
627.956	299.3
628.373	313.34
628.789	343.77
629.206	257.17
629.622	322.7
630.038	303.98
630.455	320.36
630.871	336.74
631.287	282.91
631.703	325.04
632.12	325.04
632.536	320.36
632.952	322.7
633.368	315.68
633.783	350.79
634.199	346.11
634.615	311
635.031	287.59
635.446	332.06
635.862	334.4
636.277	289.93
636.693	296.96
637.108	275.89
637.524	301.64
637.939	271.21
638.354	294.61
638.77	383.56
639.185	329.72
639.6	353.13
640.015	294.61
640.43	296.96
640.845	294.61
641.259	306.32
641.674	336.74
642.089	292.27
642.504	318.02
642.918	296.96
643.333	294.61
643.747	350.79
644.162	329.72
644.576	350.79
644.991	303.98
645.405	362.49
645.819	357.81
646.233	357.81
646.647	301.64
647.061	362.49
647.475	280.57
647.889	311
648.303	264.19
648.717	329.72
649.131	294.61
649.545	332.06
649.958	311
650.372	311
650.785	325.04
651.199	250.14
651.612	306.32
652.026	353.13
652.439	259.51
652.852	285.25
653.266	397.6
653.679	261.85
654.092	308.66
654.505	303.98
654.918	362.49
655.331	287.59
655.744	266.53
656.156	313.34
656.569	367.17
656.982	308.66
657.394	294.61
657.807	348.45
658.22	334.4
658.632	259.51
659.044	318.02
659.457	287.59
659.869	292.27
660.281	360.15
660.693	303.98
661.106	289.93
661.518	327.38
661.93	320.36
662.342	292.27
662.754	296.96
663.165	350.79
663.577	289.93
663.989	371.85
664.401	343.77
664.812	308.66
665.224	329.72
665.635	397.6
666.047	303.98
666.458	336.74
666.869	308.66
667.281	353.13
667.692	254.83
668.103	348.45
668.514	318.02
668.925	285.25
669.336	341.43
669.747	282.91
670.158	348.45
670.569	322.7
670.979	296.96
671.39	348.45
671.801	306.32
672.211	287.59
672.622	282.91
673.032	336.74
673.443	273.55
673.853	280.57
674.263	285.25
674.674	273.55
675.084	257.17
675.494	292.27
675.904	303.98
676.314	357.81
676.724	282.91
677.134	320.36
677.544	325.04
677.953	278.23
678.363	296.96
678.773	348.45
679.182	315.68
679.592	336.74
680.001	303.98
680.411	299.3
680.82	329.72
681.23	308.66
681.639	308.66
682.048	362.49
682.457	332.06
682.866	264.19
683.275	266.53
683.684	271.21
684.093	322.7
684.502	296.96
684.911	315.68
685.32	409.3
685.728	374.19
686.137	362.49
686.546	341.43
686.954	294.61
687.363	322.7
687.771	341.43
688.179	336.74
688.588	325.04
688.996	343.77
689.404	325.04
689.812	385.9
690.22	350.79
690.628	346.11
691.036	266.53
691.444	378.87
691.852	320.36
692.26	357.81
692.667	294.61
693.075	306.32
693.483	264.19
693.89	315.68
694.298	254.83
694.705	315.68
695.112	289.93
695.52	282.91
695.927	294.61
696.334	301.64
696.741	243.12
697.148	378.87
697.555	292.27
697.962	292.27
698.369	325.04
698.776	350.79
699.183	339.09
699.59	315.68
699.996	287.59
700.403	318.02
700.81	292.27
701.216	315.68
701.623	318.02
702.029	247.8
702.435	308.66
702.842	311
703.248	303.98
703.654	275.89
704.06	334.4
704.466	336.74
704.872	254.83
705.278	339.09
705.684	301.64
706.09	308.66
706.496	374.19
706.901	301.64
707.307	329.72
707.712	334.4
708.118	299.3
708.523	383.56
708.929	273.55
709.334	339.09
709.74	322.7
710.145	252.49
710.55	280.57
710.955	343.77
711.36	353.13
711.765	301.64
712.17	299.3
712.575	313.34
712.98	846.98
713.385	313.34
713.789	287.59
714.194	294.61
714.599	348.45
715.003	292.27
715.408	329.72
715.812	327.38
716.217	329.72
716.621	315.68
717.025	320.36
717.429	282.91
717.833	369.51
718.238	311
718.642	360.15
719.046	301.64
719.449	292.27
719.853	301.64
720.257	362.49
720.661	367.17
721.065	306.32
721.468	292.27
721.872	287.59
722.275	322.7
722.679	357.81
723.082	289.93
723.485	353.13
723.889	294.61
724.292	371.85
724.695	367.17
725.098	318.02
725.501	285.25
725.904	339.09
726.307	289.93
726.71	301.64
727.113	364.83
727.516	306.32
727.918	278.23
728.321	299.3
728.724	259.51
729.126	303.98
729.529	271.21
729.931	350.79
730.333	275.89
730.736	275.89
731.138	264.19
731.54	289.93
731.942	259.51
732.344	292.27
732.746	325.04
733.148	278.23
733.55	266.53
733.952	285.25
734.354	292.27
734.756	364.83
735.157	299.3
735.559	278.23
735.96	385.9
736.362	296.96
736.763	341.43
737.165	308.66
737.566	318.02
737.967	301.64
738.368	336.74
738.77	292.27
739.171	374.19
739.572	322.7
739.973	334.4
740.374	313.34
740.774	376.53
741.175	327.38
741.576	315.68
741.977	318.02
742.377	371.85
742.778	339.09
743.178	397.6
743.579	275.89
743.979	266.53
744.379	257.17
744.78	292.27
745.18	325.04
745.58	282.91
745.98	273.55
746.38	287.59
746.78	325.04
747.18	252.49
747.58	273.55
747.98	282.91
748.38	285.25
748.779	332.06
749.179	322.7
749.578	334.4
749.978	287.59
750.377	301.64
750.777	282.91
751.176	278.23
751.575	332.06
751.975	285.25
752.374	301.64
752.773	315.68
753.172	289.93
753.571	306.32
753.97	320.36
754.369	343.77
754.768	289.93
755.166	308.66
755.565	322.7
755.964	311
756.362	275.89
756.761	313.34
757.159	266.53
757.558	268.87
757.956	343.77
758.354	301.64
758.753	329.72
759.151	278.23
759.549	350.79
759.947	299.3
760.345	287.59
760.743	334.4
761.141	313.34
761.539	348.45
761.936	369.51
762.334	313.34
762.732	350.79
763.129	306.32
763.527	306.32
763.924	311
764.322	301.64
764.719	301.64
765.117	313.34
765.514	308.66
765.911	343.77
766.308	273.55
766.705	339.09
767.102	325.04
767.499	360.15
