Data from Al_FLMS009871__1245__16-46-15-472.txt Node

Date: Fri Mar 08 16:46:15 CST 2024
User: pe5414po
Spectrometer: FLMS00987
Trigger mode: 0
Integration Time (sec): 1.000000E-1
Scans to average: 1
Electric dark correction enabled: true
Nonlinearity correction enabled: false
Boxcar width: 0
XAxis mode: Wavelengths
Number of Pixels in Spectrum: 2048
>>>>>Begin Spectral Data<<<<<
188.938	6
189.409	6
189.879	6
190.349	-82.94
190.819	-68.9
191.29	-106.35
191.76	-52.52
192.23	-82.94
192.7	-94.65
193.17	-92.3
193.64	-36.13
194.109	-80.6
194.579	13.02
195.049	-36.13
195.519	55.15
195.988	64.51
196.458	97.28
196.927	125.36
197.397	45.79
197.866	85.58
198.336	94.94
198.805	120.68
199.274	144.09
199.744	258.78
200.213	209.62
200.682	233.03
201.151	202.6
201.62	209.62
202.089	263.46
202.558	261.12
203.027	291.54
203.495	254.09
203.964	237.71
204.433	223.67
204.902	282.18
205.37	256.43
205.839	270.48
206.307	298.56
206.776	310.27
207.244	317.29
207.712	312.61
208.181	328.99
208.649	328.99
209.117	303.25
209.585	272.82
210.053	336.01
210.521	279.84
210.989	307.93
211.457	275.16
211.925	247.07
212.393	268.14
212.861	338.35
213.328	272.82
213.796	321.97
214.264	289.2
214.731	268.14
215.199	247.07
215.666	331.33
216.133	293.88
216.601	277.5
217.068	272.82
217.535	228.35
218.003	251.75
218.47	218.99
218.937	305.59
219.404	190.9
219.871	331.33
220.338	286.86
220.805	242.39
221.271	183.88
221.738	251.75
222.205	345.38
222.671	319.63
223.138	272.82
223.605	226.01
224.071	277.5
224.538	277.5
225.004	195.58
225.47	275.16
225.937	298.56
226.403	286.86
226.869	258.78
227.335	338.35
227.801	247.07
228.267	207.28
228.733	235.37
229.199	277.5
229.665	261.12
230.131	237.71
230.597	228.35
231.062	298.56
231.528	258.78
231.994	300.91
232.459	321.97
232.925	298.56
233.39	352.4
233.856	361.76
234.321	251.75
234.786	307.93
235.252	240.05
235.717	249.41
236.182	272.82
236.647	291.54
237.112	277.5
237.577	230.69
238.042	305.59
238.507	251.75
238.972	350.06
239.436	240.05
239.901	305.59
240.366	263.46
240.83	277.5
241.295	218.99
241.76	305.59
242.224	282.18
242.688	289.2
243.153	263.46
243.617	242.39
244.081	240.05
244.545	275.16
245.01	272.82
245.474	284.52
245.938	235.37
246.402	258.78
246.866	279.84
247.33	312.61
247.793	298.56
248.257	289.2
248.721	254.09
249.185	286.86
249.648	368.78
250.112	244.73
250.575	272.82
251.039	275.16
251.502	333.67
251.965	279.84
252.429	261.12
252.892	270.48
253.355	317.29
253.818	286.86
254.281	272.82
254.744	254.09
255.207	230.69
255.67	305.59
256.133	300.91
256.596	242.39
257.059	289.2
257.522	300.91
257.984	272.82
258.447	275.16
258.909	282.18
259.372	291.54
259.834	298.56
260.297	303.25
260.759	270.48
261.221	275.16
261.684	307.93
262.146	277.5
262.608	326.65
263.07	263.46
263.532	284.52
263.994	263.46
264.456	314.95
264.918	286.86
265.38	331.33
265.842	279.84
266.303	293.88
266.765	300.91
267.227	254.09
267.688	284.52
268.15	230.69
268.611	289.2
269.072	284.52
269.534	284.52
269.995	298.56
270.456	291.54
270.918	343.03
271.379	307.93
271.84	242.39
272.301	244.73
272.762	289.2
273.223	286.86
273.684	333.67
274.144	286.86
274.605	251.75
275.066	324.31
275.527	291.54
275.987	300.91
276.448	314.95
276.908	328.99
277.369	286.86
277.829	293.88
278.289	326.65
278.75	343.03
279.21	303.25
279.67	380.48
280.13	228.35
280.59	263.46
281.05	296.22
281.51	284.52
281.97	324.31
282.43	270.48
282.89	284.52
283.35	291.54
283.809	298.56
284.269	282.18
284.729	263.46
285.188	284.52
285.648	279.84
286.107	333.67
286.567	293.88
287.026	284.52
287.485	242.39
287.944	277.5
288.404	296.22
288.863	303.25
289.322	293.88
289.781	310.27
290.24	286.86
290.699	282.18
291.158	312.61
291.616	303.25
292.075	317.29
292.534	300.91
292.992	293.88
293.451	289.2
293.91	256.43
294.368	272.82
294.827	256.43
295.285	298.56
295.743	296.22
296.202	270.48
296.66	228.35
297.118	354.74
297.576	282.18
298.034	352.4
298.492	305.59
298.95	279.84
299.408	314.95
299.866	317.29
300.324	286.86
300.781	338.35
301.239	263.46
301.697	305.59
302.154	324.31
302.612	319.63
303.069	265.8
303.527	321.97
303.984	282.18
304.441	282.18
304.899	336.01
305.356	336.01
305.813	289.2
306.27	317.29
306.727	354.74
307.184	310.27
307.641	333.67
308.098	314.95
308.555	310.27
309.012	249.41
309.468	350.06
309.925	300.91
310.382	291.54
310.838	307.93
311.295	352.4
311.751	265.8
312.208	270.48
312.664	350.06
313.12	305.59
313.577	333.67
314.033	265.8
314.489	328.99
314.945	336.01
315.401	314.95
315.857	277.5
316.313	190.9
316.769	303.25
317.225	371.12
317.681	347.72
318.136	319.63
318.592	265.8
319.048	378.14
319.503	286.86
319.959	331.33
320.414	279.84
320.869	251.75
321.325	279.84
321.78	338.35
322.235	247.07
322.691	296.22
323.146	286.86
323.601	319.63
324.056	284.52
324.511	223.67
324.966	282.18
325.421	333.67
325.875	298.56
326.33	336.01
326.785	286.86
327.24	340.69
327.694	347.72
328.149	310.27
328.603	277.5
329.058	310.27
329.512	298.56
329.966	312.61
330.421	289.2
330.875	300.91
331.329	392.19
331.783	277.5
332.237	270.48
332.691	338.35
333.145	317.29
333.599	291.54
334.053	371.12
334.507	282.18
334.96	293.88
335.414	296.22
335.868	312.61
336.321	268.14
336.775	368.78
337.228	317.29
337.682	333.67
338.135	279.84
338.588	352.4
339.042	284.52
339.495	277.5
339.948	286.86
340.401	258.78
340.854	314.95
341.307	326.65
341.76	375.8
342.213	343.03
342.666	305.59
343.119	254.09
343.571	286.86
344.024	261.12
344.477	277.5
344.929	375.8
345.382	303.25
345.834	300.91
346.287	324.31
346.739	314.95
347.191	298.56
347.644	303.25
348.096	279.84
348.548	300.91
349	324.31
349.452	272.82
349.904	312.61
350.356	286.86
350.808	312.61
351.26	347.72
351.711	364.1
352.163	340.69
352.615	338.35
353.066	275.16
353.518	340.69
353.969	310.27
354.421	326.65
354.872	354.74
355.324	298.56
355.775	251.75
356.226	345.38
356.677	249.41
357.128	240.05
357.579	389.85
358.03	272.82
358.481	361.76
358.932	296.22
359.383	333.67
359.834	310.27
360.285	284.52
360.735	300.91
361.186	319.63
361.637	263.46
362.087	340.69
362.538	265.8
362.988	289.2
363.438	275.16
363.889	340.69
364.339	326.65
364.789	364.1
365.239	333.67
365.689	247.07
366.139	415.59
366.589	300.91
367.039	310.27
367.489	310.27
367.939	289.2
368.389	321.97
368.839	331.33
369.288	317.29
369.738	336.01
370.187	277.5
370.637	242.39
371.086	303.25
371.536	328.99
371.985	291.54
372.434	319.63
372.884	324.31
373.333	265.8
373.782	312.61
374.231	359.42
374.68	364.1
375.129	352.4
375.578	336.01
376.027	307.93
376.475	317.29
376.924	328.99
377.373	338.35
377.822	333.67
378.27	338.35
378.719	291.54
379.167	265.8
379.616	289.2
380.064	286.86
380.512	321.97
380.961	307.93
381.409	289.2
381.857	343.03
382.305	282.18
382.753	345.38
383.201	263.46
383.649	347.72
384.097	324.31
384.545	289.2
384.992	314.95
385.44	270.48
385.888	228.35
386.335	216.65
386.783	324.31
387.231	361.76
387.678	347.72
388.125	293.88
388.573	284.52
389.02	343.03
389.467	324.31
389.914	401.55
390.362	284.52
390.809	312.61
391.256	291.54
391.703	305.59
392.15	314.95
392.596	312.61
393.043	307.93
393.49	312.61
393.937	338.35
394.383	296.22
394.83	279.84
395.276	300.91
395.723	289.2
396.169	345.38
396.616	319.63
397.062	296.22
397.508	284.52
397.954	249.41
398.401	286.86
398.847	336.01
399.293	343.03
399.739	326.65
400.185	352.4
400.631	333.67
401.076	343.03
401.522	286.86
401.968	324.31
402.414	300.91
402.859	319.63
403.305	305.59
403.75	263.46
404.196	300.91
404.641	345.38
405.086	312.61
405.532	300.91
405.977	265.8
406.422	321.97
406.867	282.18
407.312	289.2
407.757	326.65
408.202	293.88
408.647	326.65
409.092	331.33
409.537	291.54
409.982	319.63
410.426	303.25
410.871	403.89
411.316	368.78
411.76	359.42
412.205	270.48
412.649	279.84
413.093	293.88
413.538	293.88
413.982	228.35
414.426	357.08
414.87	328.99
415.314	284.52
415.758	317.29
416.202	303.25
416.646	331.33
417.09	326.65
417.534	298.56
417.978	375.8
418.421	303.25
418.865	298.56
419.309	422.61
419.752	286.86
420.196	359.42
420.639	321.97
421.083	338.35
421.526	340.69
421.969	286.86
422.412	279.84
422.856	368.78
423.299	289.2
423.742	307.93
424.185	272.82
424.628	291.54
425.071	350.06
425.513	296.22
425.956	310.27
426.399	265.8
426.842	331.33
427.284	326.65
427.727	319.63
428.169	261.12
428.612	359.42
429.054	247.07
429.497	277.5
429.939	261.12
430.381	347.72
430.823	279.84
431.265	321.97
431.707	221.33
432.149	333.67
432.591	321.97
433.033	357.08
433.475	350.06
433.917	282.18
434.359	333.67
434.8	289.2
435.242	289.2
435.684	303.25
436.125	331.33
436.567	324.31
437.008	277.5
437.449	272.82
437.891	289.2
438.332	326.65
438.773	319.63
439.214	300.91
439.656	326.65
440.097	310.27
440.538	291.54
440.978	336.01
441.419	336.01
441.86	422.61
442.301	368.78
442.742	251.75
443.182	277.5
443.623	357.08
444.063	373.46
444.504	298.56
444.944	343.03
445.385	296.22
445.825	289.2
446.265	347.72
446.706	333.67
447.146	403.89
447.586	338.35
448.026	385.16
448.466	331.33
448.906	268.14
449.346	350.06
449.786	312.61
450.225	284.52
450.665	284.52
451.105	286.86
451.544	321.97
451.984	307.93
452.424	293.88
452.863	382.82
453.302	291.54
453.742	359.42
454.181	385.16
454.62	298.56
455.059	310.27
455.499	359.42
455.938	345.38
456.377	293.88
456.816	286.86
457.254	350.06
457.693	326.65
458.132	226.01
458.571	270.48
459.01	338.35
459.448	284.52
459.887	333.67
460.325	359.42
460.764	333.67
461.202	293.88
461.641	307.93
462.079	286.86
462.517	307.93
462.955	314.95
463.393	256.43
463.832	305.59
464.27	249.41
464.708	338.35
465.145	347.72
465.583	350.06
466.021	319.63
466.459	314.95
466.897	298.56
467.334	289.2
467.772	289.2
468.209	326.65
468.647	352.4
469.084	357.08
469.522	328.99
469.959	338.35
470.396	361.76
470.833	296.22
471.271	336.01
471.708	293.88
472.145	364.1
472.582	310.27
473.019	361.76
473.456	282.18
473.892	387.5
474.329	347.72
474.766	326.65
475.202	352.4
475.639	284.52
476.076	382.82
476.512	354.74
476.949	286.86
477.385	319.63
477.821	331.33
478.258	291.54
478.694	314.95
479.13	333.67
479.566	261.12
480.002	345.38
480.438	392.19
480.874	314.95
481.31	277.5
481.746	272.82
482.181	352.4
482.617	286.86
483.053	324.31
483.488	282.18
483.924	354.74
484.36	333.67
484.795	305.59
485.23	338.35
485.666	237.71
486.101	319.63
486.536	305.59
486.971	324.31
487.407	326.65
487.842	298.56
488.277	289.2
488.712	286.86
489.146	249.41
489.581	357.08
490.016	385.16
490.451	441.34
490.885	338.35
491.32	324.31
491.755	284.52
492.189	321.97
492.624	336.01
493.058	307.93
493.492	347.72
493.927	340.69
494.361	279.84
494.795	333.67
495.229	371.12
495.663	345.38
496.097	279.84
496.531	286.86
496.965	361.76
497.399	300.91
497.833	394.53
498.266	319.63
498.7	263.46
499.134	305.59
499.567	345.38
500.001	261.12
500.434	321.97
500.868	298.56
501.301	310.27
501.734	282.18
502.168	272.82
502.601	345.38
503.034	291.54
503.467	345.38
503.9	350.06
504.333	326.65
504.766	314.95
505.199	350.06
505.632	291.54
506.064	331.33
506.497	357.08
506.93	352.4
507.362	326.65
507.795	326.65
508.227	350.06
508.66	326.65
509.092	343.03
509.524	277.5
509.956	371.12
510.389	303.25
510.821	258.78
511.253	282.18
511.685	324.31
512.117	324.31
512.549	293.88
512.981	296.22
513.412	345.38
513.844	305.59
514.276	347.72
514.707	340.69
515.139	352.4
515.571	268.14
516.002	328.99
516.433	317.29
516.865	364.1
517.296	333.67
517.727	324.31
518.159	284.52
518.59	347.72
519.021	343.03
519.452	357.08
519.883	343.03
520.314	293.88
520.744	307.93
521.175	277.5
521.606	303.25
522.037	319.63
522.467	340.69
522.898	357.08
523.328	361.76
523.759	326.65
524.189	298.56
524.62	368.78
525.05	345.38
525.48	347.72
525.91	310.27
526.341	282.18
526.771	326.65
527.201	310.27
527.631	298.56
528.061	345.38
528.49	331.33
528.92	328.99
529.35	326.65
529.78	314.95
530.209	324.31
530.639	303.25
531.068	303.25
531.498	352.4
531.927	286.86
532.357	300.91
532.786	279.84
533.215	317.29
533.644	314.95
534.074	333.67
534.503	340.69
534.932	305.59
535.361	282.18
535.79	324.31
536.218	249.41
536.647	275.16
537.076	324.31
537.505	293.88
537.933	319.63
538.362	296.22
538.79	340.69
539.219	333.67
539.647	326.65
540.076	345.38
540.504	277.5
540.932	265.8
541.36	333.67
541.788	254.09
542.217	291.54
542.645	291.54
543.073	317.29
543.5	291.54
543.928	326.65
544.356	340.69
544.784	354.74
545.211	314.95
545.639	331.33
546.067	328.99
546.494	321.97
546.922	343.03
547.349	375.8
547.776	350.06
548.204	312.61
548.631	382.82
549.058	310.27
549.485	289.2
549.912	293.88
550.339	373.46
550.766	263.46
551.193	382.82
551.62	338.35
552.047	345.38
552.474	361.76
552.9	321.97
553.327	314.95
553.754	354.74
554.18	296.22
554.607	328.99
555.033	359.42
555.459	305.59
555.886	352.4
556.312	286.86
556.738	331.33
557.164	247.07
557.59	324.31
558.016	305.59
558.442	300.91
558.868	279.84
559.294	279.84
559.72	286.86
560.145	324.31
560.571	307.93
560.997	305.59
561.422	361.76
561.848	310.27
562.273	310.27
562.699	263.46
563.124	282.18
563.549	305.59
563.974	289.2
564.4	298.56
564.825	284.52
565.25	289.2
565.675	333.67
566.1	333.67
566.525	286.86
566.95	303.25
567.374	324.31
567.799	431.98
568.224	300.91
568.648	328.99
569.073	298.56
569.497	291.54
569.922	293.88
570.346	340.69
570.771	303.25
571.195	314.95
571.619	345.38
572.043	279.84
572.467	303.25
572.891	317.29
573.315	314.95
573.739	296.22
574.163	380.48
574.587	340.69
575.011	328.99
575.435	314.95
575.858	282.18
576.282	277.5
576.705	303.25
577.129	298.56
577.552	310.27
577.976	289.2
578.399	305.59
578.822	350.06
579.245	300.91
579.669	307.93
580.092	357.08
580.515	380.48
580.938	336.01
581.361	317.29
581.784	399.21
582.206	312.61
582.629	319.63
583.052	333.67
583.474	328.99
583.897	343.03
584.32	326.65
584.742	340.69
585.165	272.82
585.587	307.93
586.009	333.67
586.431	305.59
586.854	298.56
587.276	270.48
587.698	272.82
588.12	282.18
588.542	286.86
588.964	347.72
589.386	338.35
589.807	270.48
590.229	312.61
590.651	296.22
591.073	340.69
591.494	289.2
591.916	352.4
592.337	350.06
592.759	319.63
593.18	261.12
593.601	328.99
594.022	347.72
594.444	307.93
594.865	359.42
595.286	343.03
595.707	307.93
596.128	321.97
596.549	385.16
596.97	354.74
597.39	296.22
597.811	366.44
598.232	359.42
598.652	284.52
599.073	310.27
599.494	319.63
599.914	261.12
600.334	317.29
600.755	336.01
601.175	275.16
601.595	265.8
602.015	361.76
602.436	338.35
602.856	385.16
603.276	237.71
603.696	293.88
604.115	272.82
604.535	279.84
604.955	340.69
605.375	331.33
605.794	345.38
606.214	284.52
606.634	343.03
607.053	331.33
607.473	270.48
607.892	324.31
608.311	293.88
608.731	338.35
609.15	326.65
609.569	286.86
609.988	296.22
610.407	354.74
610.826	242.39
611.245	291.54
611.664	366.44
612.083	300.91
612.501	314.95
612.92	347.72
613.339	321.97
613.757	354.74
614.176	396.87
614.594	272.82
615.013	209.62
615.431	331.33
615.85	268.14
616.268	326.65
616.686	289.2
617.104	284.52
617.522	303.25
617.94	305.59
618.358	328.99
618.776	314.95
619.194	317.29
619.612	303.25
620.03	254.09
620.447	289.2
620.865	352.4
621.282	305.59
621.7	251.75
622.117	387.5
622.535	319.63
622.952	385.16
623.369	347.72
623.787	328.99
624.204	317.29
624.621	284.52
625.038	317.29
625.455	326.65
625.872	307.93
626.289	324.31
626.706	345.38
627.123	282.18
627.539	319.63
627.956	371.12
628.373	254.09
628.789	328.99
629.206	336.01
629.622	312.61
630.038	352.4
630.455	270.48
630.871	331.33
631.287	333.67
631.703	279.84
632.12	314.95
632.536	338.35
632.952	303.25
633.368	324.31
633.783	366.44
634.199	343.03
634.615	350.06
635.031	279.84
635.446	272.82
635.862	331.33
636.277	249.41
636.693	326.65
637.108	291.54
637.524	415.59
637.939	284.52
638.354	291.54
638.77	347.72
639.185	336.01
639.6	293.88
640.015	396.87
640.43	312.61
640.845	378.14
641.259	324.31
641.674	317.29
642.089	289.2
642.504	321.97
642.918	359.42
643.333	286.86
643.747	324.31
644.162	268.14
644.576	307.93
644.991	359.42
645.405	338.35
645.819	371.12
646.233	347.72
646.647	296.22
647.061	345.38
647.475	312.61
647.889	328.99
648.303	354.74
648.717	282.18
649.131	310.27
649.545	336.01
649.958	331.33
650.372	296.22
650.785	307.93
651.199	345.38
651.612	286.86
652.026	298.56
652.439	263.46
652.852	258.78
653.266	343.03
653.679	319.63
654.092	343.03
654.505	270.48
654.918	282.18
655.331	328.99
655.744	289.2
656.156	272.82
656.569	300.91
656.982	336.01
657.394	321.97
657.807	272.82
658.22	293.88
658.632	331.33
659.044	319.63
659.457	307.93
659.869	303.25
660.281	279.84
660.693	303.25
661.106	265.8
661.518	277.5
661.93	312.61
662.342	319.63
662.754	406.23
663.165	247.07
663.577	310.27
663.989	312.61
664.401	392.19
664.812	275.16
665.224	293.88
665.635	368.78
666.047	303.25
666.458	263.46
666.869	331.33
667.281	345.38
667.692	331.33
668.103	350.06
668.514	298.56
668.925	368.78
669.336	361.76
669.747	326.65
670.158	293.88
670.569	310.27
670.979	293.88
671.39	254.09
671.801	314.95
672.211	340.69
672.622	368.78
673.032	378.14
673.443	392.19
673.853	338.35
674.263	331.33
674.674	354.74
675.084	275.16
675.494	291.54
675.904	331.33
676.314	336.01
676.724	272.82
677.134	331.33
677.544	321.97
677.953	312.61
678.363	305.59
678.773	378.14
679.182	284.52
679.592	233.03
680.001	410.91
680.411	385.16
680.82	307.93
681.23	312.61
681.639	338.35
682.048	296.22
682.457	336.01
682.866	338.35
683.275	284.52
683.684	284.52
684.093	263.46
684.502	282.18
684.911	251.75
685.32	345.38
685.728	293.88
686.137	331.33
686.546	326.65
686.954	357.08
687.363	296.22
687.771	293.88
688.179	293.88
688.588	319.63
688.996	261.12
689.404	272.82
689.812	331.33
690.22	317.29
690.628	312.61
691.036	254.09
691.444	307.93
691.852	284.52
692.26	324.31
692.667	354.74
693.075	331.33
693.483	338.35
693.89	289.2
694.298	296.22
694.705	319.63
695.112	345.38
695.52	331.33
695.927	300.91
696.334	277.5
696.741	307.93
697.148	291.54
697.555	326.65
697.962	317.29
698.369	328.99
698.776	338.35
699.183	237.71
699.59	272.82
699.996	338.35
700.403	359.42
700.81	265.8
701.216	354.74
701.623	350.06
702.029	293.88
702.435	298.56
702.842	303.25
703.248	343.03
703.654	312.61
704.06	321.97
704.466	343.03
704.872	275.16
705.278	282.18
705.684	270.48
706.09	293.88
706.496	291.54
706.901	284.52
707.307	312.61
707.712	314.95
708.118	326.65
708.523	293.88
708.929	350.06
709.334	321.97
709.74	328.99
710.145	343.03
710.55	340.69
710.955	275.16
711.36	265.8
711.765	284.52
712.17	333.67
712.575	242.39
712.98	799.44
713.385	359.42
713.789	331.33
714.194	272.82
714.599	282.18
715.003	359.42
715.408	247.07
715.812	279.84
716.217	350.06
716.621	336.01
717.025	345.38
717.429	359.42
717.833	296.22
718.238	345.38
718.642	310.27
719.046	314.95
719.449	303.25
719.853	282.18
720.257	286.86
720.661	303.25
721.065	305.59
721.468	298.56
721.872	368.78
722.275	343.03
722.679	298.56
723.082	319.63
723.485	272.82
723.889	312.61
724.292	357.08
724.695	296.22
725.098	359.42
725.501	364.1
725.904	293.88
726.307	303.25
726.71	319.63
727.113	256.43
727.516	300.91
727.918	331.33
728.321	307.93
728.724	331.33
729.126	303.25
729.529	359.42
729.931	336.01
730.333	216.65
730.736	378.14
731.138	340.69
731.54	293.88
731.942	300.91
732.344	307.93
732.746	326.65
733.148	331.33
733.55	279.84
733.952	303.25
734.354	314.95
734.756	286.86
735.157	312.61
735.559	296.22
735.96	331.33
736.362	375.8
736.763	291.54
737.165	307.93
737.566	272.82
737.967	312.61
738.368	326.65
738.77	307.93
739.171	272.82
739.572	275.16
739.973	298.56
740.374	357.08
740.774	263.46
741.175	326.65
741.576	326.65
741.977	319.63
742.377	350.06
742.778	317.29
743.178	305.59
743.579	291.54
743.979	340.69
744.379	265.8
744.78	343.03
745.18	319.63
745.58	336.01
745.98	336.01
746.38	321.97
746.78	300.91
747.18	321.97
747.58	296.22
747.98	310.27
748.38	317.29
748.779	293.88
749.179	293.88
749.578	347.72
749.978	340.69
750.377	352.4
750.777	331.33
751.176	317.29
751.575	275.16
751.975	336.01
752.374	310.27
752.773	317.29
753.172	314.95
753.571	317.29
753.97	347.72
754.369	326.65
754.768	328.99
755.166	422.61
755.565	314.95
755.964	270.48
756.362	305.59
756.761	275.16
757.159	298.56
757.558	333.67
757.956	338.35
758.354	305.59
758.753	265.8
759.151	361.76
759.549	291.54
759.947	326.65
760.345	286.86
760.743	307.93
761.141	286.86
761.539	279.84
761.936	291.54
762.334	380.48
762.732	305.59
763.129	319.63
763.527	277.5
763.924	228.35
764.322	328.99
764.719	305.59
