Data from Al_FLMS009871__652__15-00-35-998.txt Node

Date: Fri Mar 08 15:00:35 CST 2024
User: pe5414po
Spectrometer: FLMS00987
Trigger mode: 0
Integration Time (sec): 1.000000E-1
Scans to average: 1
Electric dark correction enabled: true
Nonlinearity correction enabled: false
Boxcar width: 0
XAxis mode: Wavelengths
Number of Pixels in Spectrum: 2048
>>>>>Begin Spectral Data<<<<<
188.938	-110.88
189.409	-110.88
189.879	-110.88
190.349	-103.86
190.819	-80.46
191.29	-47.69
191.76	-57.05
192.23	-124.93
192.7	-57.05
193.17	-115.56
193.64	-75.77
194.109	-14.92
194.579	-31.3
195.049	-24.28
195.519	43.59
195.988	-0.88
196.458	24.87
196.927	90.4
197.397	57.64
197.866	174.66
198.336	158.28
198.805	132.53
199.274	198.07
199.744	191.05
200.213	244.88
200.682	181.68
201.151	195.73
201.62	205.09
202.089	240.2
202.558	219.13
203.027	305.73
203.495	317.44
203.964	289.35
204.433	254.24
204.902	277.65
205.37	244.88
205.839	294.03
206.307	251.9
206.776	275.31
207.244	230.84
207.712	368.93
208.181	305.73
208.649	289.35
209.117	277.65
209.585	310.41
210.053	366.59
210.521	287.01
210.989	251.9
211.457	338.5
211.925	312.75
212.393	247.22
212.861	310.41
213.328	308.07
213.796	261.26
214.264	263.6
214.731	319.78
215.199	308.07
215.666	331.48
216.133	279.99
216.601	223.81
217.068	326.8
217.535	219.13
218.003	272.96
218.47	275.31
218.937	279.99
219.404	228.49
219.871	329.14
220.338	247.22
220.805	193.39
221.271	275.31
221.738	287.01
222.205	284.67
222.671	301.05
223.138	249.56
223.605	216.79
224.071	291.69
224.538	268.28
225.004	256.58
225.47	305.73
225.937	308.07
226.403	219.13
226.869	287.01
227.335	226.15
227.801	272.96
228.267	303.39
228.733	301.05
229.199	310.41
229.665	317.44
230.131	298.71
230.597	282.33
231.062	256.58
231.528	308.07
231.994	284.67
232.459	284.67
232.925	242.54
233.39	296.37
233.856	298.71
234.321	305.73
234.786	258.92
235.252	289.35
235.717	235.52
236.182	382.97
236.647	258.92
237.112	324.46
237.577	368.93
238.042	261.26
238.507	275.31
238.972	287.01
239.436	315.09
239.901	329.14
240.366	265.94
240.83	268.28
241.295	244.88
241.76	221.47
242.224	298.71
242.688	296.37
243.153	324.46
243.617	228.49
244.081	272.96
244.545	326.8
245.01	296.37
245.474	380.63
245.938	263.6
246.402	317.44
246.866	317.44
247.33	263.6
247.793	254.24
248.257	298.71
248.721	294.03
249.185	247.22
249.648	345.52
250.112	261.26
250.575	237.86
251.039	296.37
251.502	296.37
251.965	256.58
252.429	289.35
252.892	282.33
253.355	221.47
253.818	244.88
254.281	263.6
254.744	317.44
255.207	294.03
255.67	263.6
256.133	256.58
256.596	279.99
257.059	308.07
257.522	361.91
257.984	340.84
258.447	296.37
258.909	354.88
259.372	308.07
259.834	305.73
260.297	301.05
260.759	249.56
261.221	270.62
261.684	261.26
262.146	305.73
262.608	345.52
263.07	301.05
263.532	228.49
263.994	256.58
264.456	315.09
264.918	279.99
265.38	251.9
265.842	315.09
266.303	329.14
266.765	235.52
267.227	312.75
267.688	312.75
268.15	291.69
268.611	308.07
269.072	326.8
269.534	310.41
269.995	305.73
270.456	312.75
270.918	317.44
271.379	279.99
271.84	303.39
272.301	287.01
272.762	296.37
273.223	275.31
273.684	275.31
274.144	301.05
274.605	357.22
275.066	263.6
275.527	347.86
275.987	268.28
276.448	265.94
276.908	219.13
277.369	200.41
277.829	326.8
278.289	268.28
278.75	291.69
279.21	282.33
279.67	258.92
280.13	279.99
280.59	272.96
281.05	303.39
281.51	289.35
281.97	305.73
282.43	261.26
282.89	298.71
283.35	305.73
283.809	331.48
284.269	310.41
284.729	242.54
285.188	251.9
285.648	324.46
286.107	254.24
286.567	289.35
287.026	279.99
287.485	303.39
287.944	272.96
288.404	284.67
288.863	308.07
289.322	312.75
289.781	268.28
290.24	294.03
290.699	361.91
291.158	359.56
291.616	296.37
292.075	254.24
292.534	319.78
292.992	305.73
293.451	268.28
293.91	263.6
294.368	294.03
294.827	364.25
295.285	291.69
295.743	291.69
296.202	265.94
296.66	315.09
297.118	308.07
297.576	279.99
298.034	322.12
298.492	329.14
298.95	244.88
299.408	298.71
299.866	256.58
300.324	357.22
300.781	350.2
301.239	256.58
301.697	275.31
302.154	329.14
302.612	298.71
303.069	315.09
303.527	254.24
303.984	305.73
304.441	303.39
304.899	279.99
305.356	305.73
305.813	326.8
306.27	347.86
306.727	319.78
307.184	256.58
307.641	357.22
308.098	284.67
308.555	228.49
309.012	265.94
309.468	254.24
309.925	317.44
310.382	240.2
310.838	347.86
311.295	343.18
311.751	279.99
312.208	317.44
312.664	272.96
313.12	294.03
313.577	380.63
314.033	270.62
314.489	303.39
314.945	340.84
315.401	333.82
315.857	357.22
316.313	256.58
316.769	319.78
317.225	347.86
317.681	343.18
318.136	308.07
318.592	296.37
319.048	298.71
319.503	308.07
319.959	301.05
320.414	312.75
320.869	315.09
321.325	289.35
321.78	326.8
322.235	275.31
322.691	329.14
323.146	329.14
323.601	354.88
324.056	228.49
324.511	287.01
324.966	312.75
325.421	261.26
325.875	289.35
326.33	305.73
326.785	347.86
327.24	296.37
327.694	303.39
328.149	340.84
328.603	310.41
329.058	251.9
329.512	352.54
329.966	301.05
330.421	291.69
330.875	308.07
331.329	331.48
331.783	301.05
332.237	275.31
332.691	294.03
333.145	378.29
333.599	366.59
334.053	354.88
334.507	291.69
334.96	329.14
335.414	301.05
335.868	298.71
336.321	359.56
336.775	312.75
337.228	326.8
337.682	312.75
338.135	326.8
338.588	310.41
339.042	347.86
339.495	350.2
339.948	324.46
340.401	294.03
340.854	354.88
341.307	279.99
341.76	296.37
342.213	385.31
342.666	305.73
343.119	336.16
343.571	289.35
344.024	338.5
344.477	336.16
344.929	296.37
345.382	359.56
345.834	331.48
346.287	317.44
346.739	308.07
347.191	380.63
347.644	287.01
348.096	347.86
348.548	312.75
349	298.71
349.452	291.69
349.904	272.96
350.356	326.8
350.808	347.86
351.26	336.16
351.711	322.12
352.163	340.84
352.615	336.16
353.066	298.71
353.518	294.03
353.969	338.5
354.421	343.18
354.872	336.16
355.324	308.07
355.775	338.5
356.226	326.8
356.677	282.33
357.128	331.48
357.579	336.16
358.03	284.67
358.481	284.67
358.932	317.44
359.383	371.27
359.834	317.44
360.285	305.73
360.735	305.73
361.186	331.48
361.637	291.69
362.087	261.26
362.538	249.56
362.988	272.96
363.438	287.01
363.889	340.84
364.339	270.62
364.789	263.6
365.239	387.65
365.689	301.05
366.139	315.09
366.589	350.2
367.039	345.52
367.489	305.73
367.939	354.88
368.389	324.46
368.839	305.73
369.288	247.22
369.738	282.33
370.187	279.99
370.637	343.18
371.086	338.5
371.536	301.05
371.985	401.69
372.434	350.2
372.884	315.09
373.333	289.35
373.782	312.75
374.231	237.86
374.68	310.41
375.129	268.28
375.578	331.48
376.027	301.05
376.475	315.09
376.924	322.12
377.373	361.91
377.822	291.69
378.27	317.44
378.719	343.18
379.167	263.6
379.616	385.31
380.064	251.9
380.512	350.2
380.961	315.09
381.409	294.03
381.857	270.62
382.305	289.35
382.753	291.69
383.201	408.72
383.649	343.18
384.097	275.31
384.545	284.67
384.992	256.58
385.44	352.54
385.888	287.01
386.335	324.46
386.783	268.28
387.231	385.31
387.678	301.05
388.125	347.86
388.573	333.82
389.02	343.18
389.467	294.03
389.914	326.8
390.362	308.07
390.809	263.6
391.256	357.22
391.703	301.05
392.15	336.16
392.596	392.33
393.043	308.07
393.49	354.88
393.937	326.8
394.383	284.67
394.83	340.84
395.276	322.12
395.723	265.94
396.169	294.03
396.616	324.46
397.062	319.78
397.508	329.14
397.954	301.05
398.401	338.5
398.847	338.5
399.293	373.61
399.739	251.9
400.185	326.8
400.631	317.44
401.076	294.03
401.522	350.2
401.968	284.67
402.414	284.67
402.859	312.75
403.305	352.54
403.75	268.28
404.196	357.22
404.641	319.78
405.086	244.88
405.532	389.99
405.977	277.65
406.422	359.56
406.867	270.62
407.312	392.33
407.757	301.05
408.202	324.46
408.647	305.73
409.092	284.67
409.537	303.39
409.982	331.48
410.426	361.91
410.871	347.86
411.316	263.6
411.76	347.86
412.205	343.18
412.649	305.73
413.093	331.48
413.538	303.39
413.982	392.33
414.426	244.88
414.87	272.96
415.314	347.86
415.758	338.5
416.202	373.61
416.646	326.8
417.09	270.62
417.534	317.44
417.978	354.88
418.421	336.16
418.865	326.8
419.309	265.94
419.752	294.03
420.196	322.12
420.639	270.62
421.083	373.61
421.526	357.22
421.969	310.41
422.412	310.41
422.856	298.71
423.299	312.75
423.742	298.71
424.185	345.52
424.628	336.16
425.071	275.31
425.513	324.46
425.956	312.75
426.399	275.31
426.842	284.67
427.284	249.56
427.727	287.01
428.169	287.01
428.612	352.54
429.054	291.69
429.497	329.14
429.939	319.78
430.381	319.78
430.823	357.22
431.265	308.07
431.707	303.39
432.149	359.56
432.591	294.03
433.033	308.07
433.475	265.94
433.917	399.35
434.359	301.05
434.8	375.95
435.242	317.44
435.684	338.5
436.125	268.28
436.567	303.39
437.008	265.94
437.449	303.39
437.891	303.39
438.332	324.46
438.773	319.78
439.214	375.95
439.656	301.05
440.097	333.82
440.538	277.65
440.978	378.29
441.419	308.07
441.86	279.99
442.301	310.41
442.742	385.31
443.182	361.91
443.623	294.03
444.063	340.84
444.504	336.16
444.944	298.71
445.385	268.28
445.825	319.78
446.265	235.52
446.706	354.88
447.146	312.75
447.586	324.46
448.026	303.39
448.466	251.9
448.906	308.07
449.346	301.05
449.786	319.78
450.225	338.5
450.665	242.54
451.105	308.07
451.544	279.99
451.984	270.62
452.424	322.12
452.863	354.88
453.302	298.71
453.742	326.8
454.181	279.99
454.62	310.41
455.059	294.03
455.499	331.48
455.938	331.48
456.377	336.16
456.816	336.16
457.254	310.41
457.693	301.05
458.132	282.33
458.571	308.07
459.01	373.61
459.448	387.65
459.887	359.56
460.325	312.75
460.764	322.12
461.202	294.03
461.641	277.65
462.079	319.78
462.517	352.54
462.955	305.73
463.393	338.5
463.832	268.28
464.27	378.29
464.708	357.22
465.145	375.95
465.583	270.62
466.021	329.14
466.459	329.14
466.897	336.16
467.334	378.29
467.772	331.48
468.209	294.03
468.647	331.48
469.084	336.16
469.522	357.22
469.959	338.5
470.396	324.46
470.833	352.54
471.271	340.84
471.708	317.44
472.145	303.39
472.582	296.37
473.019	380.63
473.456	296.37
473.892	294.03
474.329	352.54
474.766	282.33
475.202	375.95
475.639	324.46
476.076	371.27
476.512	343.18
476.949	317.44
477.385	326.8
477.821	301.05
478.258	287.01
478.694	226.15
479.13	336.16
479.566	261.26
480.002	326.8
480.438	310.41
480.874	308.07
481.31	326.8
481.746	322.12
482.181	322.12
482.617	326.8
483.053	312.75
483.488	256.58
483.924	305.73
484.36	357.22
484.795	261.26
485.23	305.73
485.666	329.14
486.101	282.33
486.536	317.44
486.971	336.16
487.407	263.6
487.842	308.07
488.277	322.12
488.712	350.2
489.146	317.44
489.581	350.2
490.016	340.84
490.451	277.65
490.885	287.01
491.32	261.26
491.755	357.22
492.189	287.01
492.624	343.18
493.058	287.01
493.492	345.52
493.927	279.99
494.361	310.41
494.795	315.09
495.229	287.01
495.663	284.67
496.097	326.8
496.531	303.39
496.965	277.65
497.399	296.37
497.833	282.33
498.266	279.99
498.7	352.54
499.134	296.37
499.567	324.46
500.001	373.61
500.434	312.75
500.868	319.78
501.301	301.05
501.734	315.09
502.168	317.44
502.601	310.41
503.034	279.99
503.467	279.99
503.9	319.78
504.333	336.16
504.766	270.62
505.199	289.35
505.632	261.26
506.064	350.2
506.497	331.48
506.93	279.99
507.362	336.16
507.795	251.9
508.227	296.37
508.66	301.05
509.092	326.8
509.524	270.62
509.956	275.31
510.389	347.86
510.821	378.29
511.253	256.58
511.685	350.2
512.117	333.82
512.549	364.25
512.981	361.91
513.412	343.18
513.844	361.91
514.276	361.91
514.707	322.12
515.139	371.27
515.571	319.78
516.002	319.78
516.433	371.27
516.865	329.14
517.296	329.14
517.727	382.97
518.159	350.2
518.59	324.46
519.021	289.35
519.452	317.44
519.883	378.29
520.314	310.41
520.744	315.09
521.175	298.71
521.606	322.12
522.037	310.41
522.467	256.58
522.898	315.09
523.328	373.61
523.759	361.91
524.189	340.84
524.62	305.73
525.05	347.86
525.48	364.25
525.91	305.73
526.341	333.82
526.771	343.18
527.201	345.52
527.631	298.71
528.061	291.69
528.49	268.28
528.92	310.41
529.35	322.12
529.78	322.12
530.209	336.16
530.639	310.41
531.068	298.71
531.498	319.78
531.927	310.41
532.357	359.56
532.786	312.75
533.215	350.2
533.644	294.03
534.074	279.99
534.503	319.78
534.932	347.86
535.361	287.01
535.79	347.86
536.218	364.25
536.647	317.44
537.076	317.44
537.505	282.33
537.933	345.52
538.362	331.48
538.79	298.71
539.219	331.48
539.647	331.48
540.076	279.99
540.504	319.78
540.932	368.93
541.36	399.35
541.788	347.86
542.217	317.44
542.645	298.71
543.073	343.18
543.5	338.5
543.928	270.62
544.356	298.71
544.784	326.8
545.211	333.82
545.639	322.12
546.067	308.07
546.494	378.29
546.922	331.48
547.349	324.46
547.776	319.78
548.204	284.67
548.631	301.05
549.058	315.09
549.485	296.37
549.912	317.44
550.339	333.82
550.766	326.8
551.193	305.73
551.62	310.41
552.047	308.07
552.474	347.86
552.9	237.86
553.327	221.47
553.754	289.35
554.18	303.39
554.607	308.07
555.033	310.41
555.459	333.82
555.886	294.03
556.312	361.91
556.738	289.35
557.164	261.26
557.59	296.37
558.016	366.59
558.442	310.41
558.868	340.84
559.294	303.39
559.72	315.09
560.145	364.25
560.571	308.07
560.997	357.22
561.422	296.37
561.848	282.33
562.273	317.44
562.699	373.61
563.124	331.48
563.549	324.46
563.974	270.62
564.4	340.84
564.825	303.39
565.25	329.14
565.675	301.05
566.1	382.97
566.525	357.22
566.95	315.09
567.374	331.48
567.799	378.29
568.224	275.31
568.648	298.71
569.073	394.67
569.497	338.5
569.922	347.86
570.346	282.33
570.771	279.99
571.195	200.41
571.619	275.31
572.043	279.99
572.467	326.8
572.891	354.88
573.315	361.91
573.739	343.18
574.163	350.2
574.587	284.67
575.011	308.07
575.435	310.41
575.858	268.28
576.282	338.5
576.705	329.14
577.129	279.99
577.552	284.67
577.976	282.33
578.399	261.26
578.822	317.44
579.245	284.67
579.669	361.91
580.092	294.03
580.515	354.88
580.938	261.26
581.361	352.54
581.784	291.69
582.206	272.96
582.629	251.9
583.052	279.99
583.474	310.41
583.897	350.2
584.32	289.35
584.742	298.71
585.165	397.01
585.587	368.93
586.009	399.35
586.431	345.52
586.854	289.35
587.276	361.91
587.698	361.91
588.12	357.22
588.542	326.8
588.964	373.61
589.386	310.41
589.807	366.59
590.229	336.16
590.651	340.84
591.073	331.48
591.494	331.48
591.916	336.16
592.337	265.94
592.759	249.56
593.18	282.33
593.601	361.91
594.022	397.01
594.444	333.82
594.865	357.22
595.286	317.44
595.707	291.69
596.128	338.5
596.549	315.09
596.97	326.8
597.39	284.67
597.811	317.44
598.232	279.99
598.652	277.65
599.073	303.39
599.494	333.82
599.914	308.07
600.334	317.44
600.755	357.22
601.175	272.96
601.595	287.01
602.015	331.48
602.436	294.03
602.856	462.55
603.276	331.48
603.696	310.41
604.115	329.14
604.535	357.22
604.955	263.6
605.375	315.09
605.794	289.35
606.214	294.03
606.634	289.35
607.053	326.8
607.473	277.65
607.892	312.75
608.311	301.05
608.731	308.07
609.15	317.44
609.569	375.95
609.988	301.05
610.407	294.03
610.826	345.52
611.245	336.16
611.664	345.52
612.083	265.94
612.501	352.54
612.92	317.44
613.339	289.35
613.757	308.07
614.176	315.09
614.594	282.33
615.013	303.39
615.431	279.99
615.85	279.99
616.268	287.01
616.686	359.56
617.104	291.69
617.522	265.94
617.94	326.8
618.358	319.78
618.776	343.18
619.194	331.48
619.612	357.22
620.03	294.03
620.447	265.94
620.865	347.86
621.282	347.86
621.7	373.61
622.117	305.73
622.535	338.5
622.952	261.26
623.369	308.07
623.787	303.39
624.204	319.78
624.621	223.81
625.038	303.39
625.455	284.67
625.872	282.33
626.289	322.12
626.706	284.67
627.123	319.78
627.539	380.63
627.956	275.31
628.373	319.78
628.789	333.82
629.206	312.75
629.622	305.73
630.038	249.56
630.455	354.88
630.871	216.79
631.287	301.05
631.703	333.82
632.12	371.27
632.536	326.8
632.952	279.99
633.368	303.39
633.783	380.63
634.199	258.92
634.615	298.71
635.031	359.56
635.446	305.73
635.862	315.09
636.277	315.09
636.693	340.84
637.108	315.09
637.524	352.54
637.939	343.18
638.354	296.37
638.77	263.6
639.185	333.82
639.6	319.78
640.015	301.05
640.43	319.78
640.845	270.62
641.259	301.05
641.674	340.84
642.089	298.71
642.504	368.93
642.918	345.52
643.333	261.26
643.747	329.14
644.162	294.03
644.576	277.65
644.991	354.88
645.405	322.12
645.819	312.75
646.233	268.28
646.647	371.27
647.061	340.84
647.475	333.82
647.889	263.6
648.303	343.18
648.717	272.96
649.131	333.82
649.545	282.33
649.958	294.03
650.372	343.18
650.785	326.8
651.199	296.37
651.612	336.16
652.026	357.22
652.439	352.54
652.852	289.35
653.266	291.69
653.679	364.25
654.092	294.03
654.505	324.46
654.918	312.75
655.331	308.07
655.744	359.56
656.156	352.54
656.569	258.92
656.982	254.24
657.394	331.48
657.807	310.41
658.22	357.22
658.632	282.33
659.044	279.99
659.457	305.73
659.869	312.75
660.281	322.12
660.693	354.88
661.106	312.75
661.518	296.37
661.93	305.73
662.342	343.18
662.754	336.16
663.165	329.14
663.577	375.95
663.989	347.86
664.401	319.78
664.812	294.03
665.224	247.22
665.635	298.71
666.047	317.44
666.458	340.84
666.869	366.59
667.281	277.65
667.692	317.44
668.103	387.65
668.514	338.5
668.925	345.52
669.336	347.86
669.747	401.69
670.158	352.54
670.569	303.39
670.979	261.26
671.39	265.94
671.801	317.44
672.211	301.05
672.622	272.96
673.032	378.29
673.443	361.91
673.853	326.8
674.263	298.71
674.674	340.84
675.084	319.78
675.494	333.82
675.904	331.48
676.314	317.44
676.724	375.95
677.134	336.16
677.544	319.78
677.953	315.09
678.363	298.71
678.773	340.84
679.182	308.07
679.592	261.26
680.001	315.09
680.411	340.84
680.82	291.69
681.23	312.75
681.639	317.44
682.048	291.69
682.457	329.14
682.866	219.13
683.275	338.5
683.684	265.94
684.093	284.67
684.502	279.99
684.911	315.09
685.32	312.75
685.728	338.5
686.137	291.69
686.546	340.84
686.954	301.05
687.363	277.65
687.771	326.8
688.179	317.44
688.588	324.46
688.996	331.48
689.404	347.86
689.812	322.12
690.22	350.2
690.628	329.14
691.036	361.91
691.444	336.16
691.852	301.05
692.26	315.09
692.667	336.16
693.075	277.65
693.483	275.31
693.89	312.75
694.298	315.09
694.705	303.39
695.112	338.5
695.52	324.46
695.927	352.54
696.334	366.59
696.741	282.33
697.148	275.31
697.555	343.18
697.962	291.69
698.369	368.93
698.776	312.75
699.183	343.18
699.59	324.46
699.996	322.12
700.403	385.31
700.81	324.46
701.216	343.18
701.623	249.56
702.029	301.05
702.435	275.31
702.842	319.78
703.248	258.92
703.654	324.46
704.06	345.52
704.466	343.18
704.872	265.94
705.278	352.54
705.684	291.69
706.09	312.75
706.496	329.14
706.901	315.09
707.307	296.37
707.712	378.29
708.118	301.05
708.523	340.84
708.929	287.01
709.334	319.78
709.74	352.54
710.145	284.67
710.55	291.69
710.955	310.41
711.36	312.75
711.765	347.86
712.17	291.69
712.575	228.49
712.98	799.59
713.385	315.09
713.789	284.67
714.194	298.71
714.599	319.78
715.003	277.65
715.408	207.43
715.812	329.14
716.217	331.48
716.621	373.61
717.025	301.05
717.429	312.75
717.833	312.75
718.238	324.46
718.642	284.67
719.046	350.2
719.449	277.65
719.853	329.14
720.257	324.46
720.661	305.73
721.065	277.65
721.468	305.73
721.872	317.44
722.275	272.96
722.679	333.82
723.082	347.86
723.485	366.59
723.889	340.84
724.292	275.31
724.695	296.37
725.098	312.75
725.501	303.39
725.904	333.82
726.307	305.73
726.71	301.05
727.113	319.78
727.516	296.37
727.918	333.82
728.321	277.65
728.724	317.44
729.126	312.75
729.529	305.73
729.931	366.59
730.333	333.82
730.736	261.26
731.138	291.69
731.54	315.09
731.942	359.56
732.344	296.37
732.746	312.75
733.148	233.18
733.55	357.22
733.952	258.92
734.354	324.46
734.756	305.73
735.157	303.39
735.559	298.71
735.96	366.59
736.362	352.54
736.763	338.5
737.165	301.05
737.566	289.35
737.967	303.39
738.368	305.73
738.77	322.12
739.171	284.67
739.572	326.8
739.973	305.73
740.374	380.63
740.774	347.86
741.175	301.05
741.576	331.48
741.977	291.69
742.377	413.4
742.778	322.12
743.178	326.8
743.579	310.41
743.979	303.39
744.379	317.44
744.78	338.5
745.18	275.31
745.58	350.2
745.98	371.27
746.38	326.8
746.78	308.07
747.18	366.59
747.58	347.86
747.98	277.65
748.38	317.44
748.779	331.48
749.179	340.84
749.578	322.12
749.978	216.79
750.377	359.56
750.777	352.54
751.176	305.73
751.575	352.54
751.975	284.67
752.374	315.09
752.773	324.46
753.172	315.09
753.571	277.65
753.97	315.09
754.369	301.05
754.768	310.41
755.166	291.69
755.565	366.59
755.964	254.24
756.362	275.31
756.761	326.8
757.159	209.77
757.558	270.62
757.956	331.48
758.354	338.5
758.753	279.99
759.151	333.82
759.549	312.75
759.947	338.5
760.345	294.03
760.743	378.29
761.141	333.82
761.539	333.82
761.936	256.58
762.334	380.63
762.732	399.35
763.129	301.05
763.527	310.41
763.924	301.05
764.322	343.18
