Data from Al_FLMS009871__648__15-00-35-596.txt Node

Date: Fri Mar 08 15:00:35 CST 2024
User: pe5414po
Spectrometer: FLMS00987
Trigger mode: 0
Integration Time (sec): 1.000000E-1
Scans to average: 1
Electric dark correction enabled: true
Nonlinearity correction enabled: false
Boxcar width: 0
XAxis mode: Wavelengths
Number of Pixels in Spectrum: 2048
>>>>>Begin Spectral Data<<<<<
188.938	-70.07
189.409	-70.07
189.879	-70.07
190.349	-182.42
190.819	-112.2
191.29	-102.84
191.76	-112.2
192.23	-60.71
192.7	-93.48
193.17	-95.82
193.64	-20.92
194.109	-63.05
194.579	23.55
195.049	-2.19
195.519	46.96
195.988	0.15
196.458	2.49
196.927	70.36
197.397	107.81
197.866	175.69
198.336	124.19
198.805	96.11
199.274	224.84
199.744	168.66
200.213	206.11
200.682	227.18
201.151	241.22
201.62	306.76
202.089	259.95
202.558	278.67
203.027	264.63
203.495	220.16
203.964	243.56
204.433	281.01
204.902	309.1
205.37	264.63
205.839	365.27
206.307	288.03
206.776	325.48
207.244	334.84
207.712	316.12
208.181	306.76
208.649	276.33
209.117	332.5
209.585	323.14
210.053	365.27
210.521	318.46
210.989	299.73
211.457	295.05
211.925	332.5
212.393	269.31
212.861	273.99
213.328	334.84
213.796	252.92
214.264	295.05
214.731	271.65
215.199	259.95
215.666	318.46
216.133	311.44
216.601	276.33
217.068	288.03
217.535	304.42
218.003	302.08
218.47	302.08
218.937	290.37
219.404	290.37
219.871	299.73
220.338	241.22
220.805	288.03
221.271	297.39
221.738	316.12
222.205	259.95
222.671	285.69
223.138	238.88
223.605	281.01
224.071	285.69
224.538	295.05
225.004	257.61
225.47	276.33
225.937	288.03
226.403	271.65
226.869	337.18
227.335	304.42
227.801	323.14
228.267	238.88
228.733	306.76
229.199	269.31
229.665	299.73
230.131	318.46
230.597	257.61
231.062	341.86
231.528	295.05
231.994	302.08
232.459	302.08
232.925	224.84
233.39	290.37
233.856	285.69
234.321	292.71
234.786	302.08
235.252	278.67
235.717	283.35
236.182	252.92
236.647	297.39
237.112	250.58
237.577	327.82
238.042	297.39
238.507	391.02
238.972	281.01
239.436	290.37
239.901	306.76
240.366	285.69
240.83	318.46
241.295	259.95
241.76	241.22
242.224	351.23
242.688	248.24
243.153	194.41
243.617	327.82
244.081	248.24
244.545	309.1
245.01	271.65
245.474	252.92
245.938	199.09
246.402	309.1
246.866	320.8
247.33	231.86
247.793	292.71
248.257	283.35
248.721	292.71
249.185	273.99
249.648	285.69
250.112	255.26
250.575	316.12
251.039	320.8
251.502	292.71
251.965	309.1
252.429	306.76
252.892	271.65
253.355	367.61
253.818	316.12
254.281	273.99
254.744	323.14
255.207	311.44
255.67	297.39
256.133	290.37
256.596	302.08
257.059	327.82
257.522	334.84
257.984	281.01
258.447	320.8
258.909	334.84
259.372	302.08
259.834	285.69
260.297	227.18
260.759	259.95
261.221	351.23
261.684	311.44
262.146	276.33
262.608	288.03
263.07	299.73
263.532	206.11
263.994	311.44
264.456	327.82
264.918	304.42
265.38	334.84
265.842	316.12
266.303	231.86
266.765	264.63
267.227	304.42
267.688	313.78
268.15	299.73
268.611	299.73
269.072	302.08
269.534	262.29
269.995	332.5
270.456	231.86
270.918	316.12
271.379	236.54
271.84	339.52
272.301	318.46
272.762	318.46
273.223	290.37
273.684	288.03
274.144	306.76
274.605	255.26
275.066	306.76
275.527	269.31
275.987	210.79
276.448	290.37
276.908	250.58
277.369	355.91
277.829	327.82
278.289	299.73
278.75	288.03
279.21	304.42
279.67	255.26
280.13	288.03
280.59	316.12
281.05	332.5
281.51	285.69
281.97	334.84
282.43	295.05
282.89	318.46
283.35	346.55
283.809	313.78
284.269	285.69
284.729	271.65
285.188	302.08
285.648	330.16
286.107	295.05
286.567	248.24
287.026	320.8
287.485	250.58
287.944	320.8
288.404	285.69
288.863	341.86
289.322	325.48
289.781	309.1
290.24	283.35
290.699	215.48
291.158	285.69
291.616	299.73
292.075	311.44
292.534	264.63
292.992	288.03
293.451	276.33
293.91	283.35
294.368	269.31
294.827	264.63
295.285	295.05
295.743	266.97
296.202	278.67
296.66	341.86
297.118	348.89
297.576	309.1
298.034	360.59
298.492	360.59
298.95	243.56
299.408	325.48
299.866	269.31
300.324	304.42
300.781	332.5
301.239	306.76
301.697	318.46
302.154	299.73
302.612	285.69
303.069	332.5
303.527	323.14
303.984	311.44
304.441	339.52
304.899	285.69
305.356	323.14
305.813	262.29
306.27	344.21
306.727	227.18
307.184	285.69
307.641	266.97
308.098	292.71
308.555	341.86
309.012	302.08
309.468	262.29
309.925	281.01
310.382	344.21
310.838	299.73
311.295	339.52
311.751	316.12
312.208	288.03
312.664	290.37
313.12	316.12
313.577	259.95
314.033	341.86
314.489	332.5
314.945	330.16
315.401	360.59
315.857	252.92
316.313	355.91
316.769	295.05
317.225	269.31
317.681	365.27
318.136	283.35
318.592	367.61
319.048	304.42
319.503	355.91
319.959	353.57
320.414	269.31
320.869	236.54
321.325	355.91
321.78	292.71
322.235	276.33
322.691	346.55
323.146	311.44
323.601	292.71
324.056	316.12
324.511	318.46
324.966	391.02
325.421	302.08
325.875	250.58
326.33	337.18
326.785	302.08
327.24	313.78
327.694	320.8
328.149	304.42
328.603	269.31
329.058	316.12
329.512	299.73
329.966	316.12
330.421	290.37
330.875	281.01
331.329	341.86
331.783	288.03
332.237	351.23
332.691	292.71
333.145	311.44
333.599	295.05
334.053	332.5
334.507	290.37
334.96	306.76
335.414	269.31
335.868	323.14
336.321	323.14
336.775	386.33
337.228	318.46
337.682	309.1
338.135	313.78
338.588	327.82
339.042	241.22
339.495	362.93
339.948	283.35
340.401	295.05
340.854	320.8
341.307	290.37
341.76	369.95
342.213	334.84
342.666	295.05
343.119	344.21
343.571	320.8
344.024	323.14
344.477	271.65
344.929	402.72
345.382	309.1
345.834	362.93
346.287	309.1
346.739	334.84
347.191	325.48
347.644	344.21
348.096	341.86
348.548	311.44
349	332.5
349.452	290.37
349.904	281.01
350.356	299.73
350.808	334.84
351.26	290.37
351.711	302.08
352.163	325.48
352.615	344.21
353.066	327.82
353.518	306.76
353.969	348.89
354.421	304.42
354.872	281.01
355.324	269.31
355.775	313.78
356.226	292.71
356.677	323.14
357.128	320.8
357.579	295.05
358.03	299.73
358.481	259.95
358.932	290.37
359.383	297.39
359.834	355.91
360.285	372.29
360.735	341.86
361.186	302.08
361.637	309.1
362.087	367.61
362.538	341.86
362.988	365.27
363.438	292.71
363.889	306.76
364.339	353.57
364.789	304.42
365.239	334.84
365.689	292.71
366.139	365.27
366.589	318.46
367.039	304.42
367.489	276.33
367.939	334.84
368.389	306.76
368.839	334.84
369.288	323.14
369.738	285.69
370.187	341.86
370.637	402.72
371.086	383.99
371.536	323.14
371.985	285.69
372.434	341.86
372.884	339.52
373.333	292.71
373.782	309.1
374.231	313.78
374.68	360.59
375.129	283.35
375.578	250.58
376.027	316.12
376.475	304.42
376.924	295.05
377.373	288.03
377.822	360.59
378.27	327.82
378.719	365.27
379.167	290.37
379.616	309.1
380.064	355.91
380.512	269.31
380.961	316.12
381.409	339.52
381.857	325.48
382.305	344.21
382.753	323.14
383.201	313.78
383.649	316.12
384.097	351.23
384.545	285.69
384.992	299.73
385.44	337.18
385.888	355.91
386.335	266.97
386.783	262.29
387.231	302.08
387.678	320.8
388.125	381.65
388.573	369.95
389.02	297.39
389.467	339.52
389.914	330.16
390.362	323.14
390.809	220.16
391.256	271.65
391.703	330.16
392.15	283.35
392.596	341.86
393.043	309.1
393.49	302.08
393.937	339.52
394.383	292.71
394.83	304.42
395.276	409.74
395.723	334.84
396.169	353.57
396.616	339.52
397.062	355.91
397.508	332.5
397.954	360.59
398.401	379.31
398.847	316.12
399.293	344.21
399.739	341.86
400.185	299.73
400.631	285.69
401.076	309.1
401.522	341.86
401.968	276.33
402.414	316.12
402.859	374.63
403.305	358.25
403.75	407.4
404.196	355.91
404.641	257.61
405.086	241.22
405.532	297.39
405.977	346.55
406.422	306.76
406.867	323.14
407.312	346.55
407.757	341.86
408.202	325.48
408.647	346.55
409.092	271.65
409.537	292.71
409.982	351.23
410.426	327.82
410.871	344.21
411.316	344.21
411.76	311.44
412.205	341.86
412.649	288.03
413.093	313.78
413.538	355.91
413.982	367.61
414.426	341.86
414.87	337.18
415.314	313.78
415.758	325.48
416.202	339.52
416.646	327.82
417.09	367.61
417.534	299.73
417.978	299.73
418.421	302.08
418.865	344.21
419.309	269.31
419.752	372.29
420.196	283.35
420.639	353.57
421.083	327.82
421.526	271.65
421.969	337.18
422.412	292.71
422.856	341.86
423.299	325.48
423.742	269.31
424.185	348.89
424.628	330.16
425.071	379.31
425.513	299.73
425.956	402.72
426.399	306.76
426.842	334.84
427.284	318.46
427.727	348.89
428.169	320.8
428.612	369.95
429.054	369.95
429.497	278.67
429.939	325.48
430.381	386.33
430.823	276.33
431.265	318.46
431.707	332.5
432.149	346.55
432.591	316.12
433.033	351.23
433.475	325.48
433.917	295.05
434.359	306.76
434.8	299.73
435.242	346.55
435.684	318.46
436.125	290.37
436.567	266.97
437.008	311.44
437.449	362.93
437.891	316.12
438.332	316.12
438.773	341.86
439.214	344.21
439.656	271.65
440.097	360.59
440.538	290.37
440.978	276.33
441.419	295.05
441.86	278.67
442.301	332.5
442.742	367.61
443.182	360.59
443.623	355.91
444.063	318.46
444.504	304.42
444.944	334.84
445.385	323.14
445.825	320.8
446.265	344.21
446.706	383.99
447.146	360.59
447.586	365.27
448.026	391.02
448.466	327.82
448.906	358.25
449.346	313.78
449.786	330.16
450.225	266.97
450.665	362.93
451.105	283.35
451.544	332.5
451.984	376.97
452.424	304.42
452.863	318.46
453.302	316.12
453.742	290.37
454.181	264.63
454.62	323.14
455.059	344.21
455.499	323.14
455.938	348.89
456.377	372.29
456.816	341.86
457.254	341.86
457.693	304.42
458.132	344.21
458.571	327.82
459.01	346.55
459.448	365.27
459.887	313.78
460.325	318.46
460.764	292.71
461.202	302.08
461.641	306.76
462.079	360.59
462.517	344.21
462.955	316.12
463.393	334.84
463.832	337.18
464.27	271.65
464.708	323.14
465.145	276.33
465.583	351.23
466.021	320.8
466.459	311.44
466.897	369.95
467.334	374.63
467.772	318.46
468.209	362.93
468.647	381.65
469.084	295.05
469.522	334.84
469.959	264.63
470.396	318.46
470.833	266.97
471.271	285.69
471.708	332.5
472.145	409.74
472.582	311.44
473.019	346.55
473.456	313.78
473.892	285.69
474.329	365.27
474.766	278.67
475.202	372.29
475.639	341.86
476.076	426.12
476.512	311.44
476.949	365.27
477.385	281.01
477.821	327.82
478.258	304.42
478.694	306.76
479.13	358.25
479.566	334.84
480.002	334.84
480.438	355.91
480.874	351.23
481.31	344.21
481.746	337.18
482.181	295.05
482.617	316.12
483.053	374.63
483.488	369.95
483.924	302.08
484.36	309.1
484.795	346.55
485.23	306.76
485.666	318.46
486.101	269.31
486.536	362.93
486.971	306.76
487.407	346.55
487.842	297.39
488.277	313.78
488.712	374.63
489.146	318.46
489.581	348.89
490.016	393.36
490.451	299.73
490.885	320.8
491.32	255.26
491.755	236.54
492.189	330.16
492.624	367.61
493.058	358.25
493.492	334.84
493.927	320.8
494.361	297.39
494.795	334.84
495.229	273.99
495.663	313.78
496.097	358.25
496.531	285.69
496.965	360.59
497.399	302.08
497.833	309.1
498.266	292.71
498.7	379.31
499.134	332.5
499.567	339.52
500.001	348.89
500.434	367.61
500.868	374.63
501.301	365.27
501.734	395.7
502.168	273.99
502.601	292.71
503.034	316.12
503.467	302.08
503.9	372.29
504.333	330.16
504.766	302.08
505.199	346.55
505.632	259.95
506.064	304.42
506.497	348.89
506.93	339.52
507.362	362.93
507.795	332.5
508.227	313.78
508.66	334.84
509.092	320.8
509.524	304.42
509.956	304.42
510.389	271.65
510.821	309.1
511.253	311.44
511.685	327.82
512.117	337.18
512.549	353.57
512.981	311.44
513.412	278.67
513.844	428.46
514.276	358.25
514.707	388.68
515.139	259.95
515.571	379.31
516.002	374.63
516.433	353.57
516.865	281.01
517.296	276.33
517.727	304.42
518.159	320.8
518.59	313.78
519.021	339.52
519.452	299.73
519.883	290.37
520.314	306.76
520.744	295.05
521.175	320.8
521.606	264.63
522.037	344.21
522.467	393.36
522.898	295.05
523.328	376.97
523.759	320.8
524.189	252.92
524.62	320.8
525.05	332.5
525.48	325.48
525.91	311.44
526.341	344.21
526.771	269.31
527.201	299.73
527.631	355.91
528.061	367.61
528.49	323.14
528.92	290.37
529.35	353.57
529.78	381.65
530.209	306.76
530.639	355.91
531.068	334.84
531.498	271.65
531.927	355.91
532.357	351.23
532.786	381.65
533.215	252.92
533.644	316.12
534.074	367.61
534.503	332.5
534.932	313.78
535.361	302.08
535.79	374.63
536.218	302.08
536.647	309.1
537.076	388.68
537.505	372.29
537.933	325.48
538.362	330.16
538.79	334.84
539.219	346.55
539.647	313.78
540.076	304.42
540.504	311.44
540.932	304.42
541.36	292.71
541.788	365.27
542.217	341.86
542.645	339.52
543.073	309.1
543.5	362.93
543.928	269.31
544.356	318.46
544.784	339.52
545.211	344.21
545.639	295.05
546.067	309.1
546.494	316.12
546.922	278.67
547.349	285.69
547.776	332.5
548.204	348.89
548.631	295.05
549.058	351.23
549.485	365.27
549.912	318.46
550.339	264.63
550.766	304.42
551.193	355.91
551.62	358.25
552.047	367.61
552.474	302.08
552.9	374.63
553.327	344.21
553.754	339.52
554.18	306.76
554.607	208.45
555.033	344.21
555.459	337.18
555.886	339.52
556.312	393.36
556.738	381.65
557.164	299.73
557.59	353.57
558.016	367.61
558.442	339.52
558.868	299.73
559.294	325.48
559.72	369.95
560.145	259.95
560.571	358.25
560.997	367.61
561.422	341.86
561.848	355.91
562.273	281.01
562.699	269.31
563.124	330.16
563.549	341.86
563.974	362.93
564.4	288.03
564.825	360.59
565.25	320.8
565.675	295.05
566.1	285.69
566.525	299.73
566.95	323.14
567.374	372.29
567.799	309.1
568.224	323.14
568.648	325.48
569.073	351.23
569.497	313.78
569.922	334.84
570.346	369.95
570.771	337.18
571.195	271.65
571.619	327.82
572.043	318.46
572.467	374.63
572.891	334.84
573.315	358.25
573.739	288.03
574.163	395.7
574.587	306.76
575.011	318.46
575.435	330.16
575.858	299.73
576.282	273.99
576.705	337.18
577.129	367.61
577.552	330.16
577.976	245.9
578.399	306.76
578.822	302.08
579.245	376.97
579.669	330.16
580.092	344.21
580.515	332.5
580.938	325.48
581.361	320.8
581.784	320.8
582.206	379.31
582.629	346.55
583.052	351.23
583.474	400.38
583.897	372.29
584.32	323.14
584.742	367.61
585.165	304.42
585.587	309.1
586.009	271.65
586.431	290.37
586.854	358.25
587.276	337.18
587.698	325.48
588.12	330.16
588.542	330.16
588.964	362.93
589.386	306.76
589.807	266.97
590.229	325.48
590.651	334.84
591.073	351.23
591.494	346.55
591.916	412.08
592.337	266.97
592.759	299.73
593.18	369.95
593.601	330.16
594.022	334.84
594.444	327.82
594.865	353.57
595.286	337.18
595.707	362.93
596.128	327.82
596.549	376.97
596.97	285.69
597.39	273.99
597.811	365.27
598.232	395.7
598.652	372.29
599.073	332.5
599.494	283.35
599.914	358.25
600.334	302.08
600.755	276.33
601.175	332.5
601.595	330.16
602.015	348.89
602.436	353.57
602.856	407.4
603.276	304.42
603.696	269.31
604.115	362.93
604.535	295.05
604.955	360.59
605.375	369.95
605.794	337.18
606.214	318.46
606.634	346.55
607.053	365.27
607.473	304.42
607.892	344.21
608.311	344.21
608.731	339.52
609.15	391.02
609.569	351.23
609.988	332.5
610.407	351.23
610.826	330.16
611.245	323.14
611.664	346.55
612.083	332.5
612.501	266.97
612.92	358.25
613.339	299.73
613.757	330.16
614.176	355.91
614.594	383.99
615.013	288.03
615.431	306.76
615.85	372.29
616.268	320.8
616.686	400.38
617.104	323.14
617.522	379.31
617.94	313.78
618.358	358.25
618.776	337.18
619.194	332.5
619.612	383.99
620.03	323.14
620.447	339.52
620.865	353.57
621.282	351.23
621.7	302.08
622.117	271.65
622.535	316.12
622.952	332.5
623.369	281.01
623.787	311.44
624.204	381.65
624.621	332.5
625.038	351.23
625.455	306.76
625.872	273.99
626.289	281.01
626.706	351.23
627.123	243.56
627.539	351.23
627.956	372.29
628.373	395.7
628.789	365.27
629.206	288.03
629.622	295.05
630.038	323.14
630.455	367.61
630.871	376.97
631.287	341.86
631.703	393.36
632.12	341.86
632.536	367.61
632.952	325.48
633.368	365.27
633.783	250.58
634.199	369.95
634.615	376.97
635.031	332.5
635.446	316.12
635.862	271.65
636.277	355.91
636.693	316.12
637.108	299.73
637.524	355.91
637.939	344.21
638.354	320.8
638.77	332.5
639.185	306.76
639.6	344.21
640.015	379.31
640.43	283.35
640.845	318.46
641.259	238.88
641.674	304.42
642.089	276.33
642.504	306.76
642.918	334.84
643.333	299.73
643.747	327.82
644.162	271.65
644.576	393.36
644.991	309.1
645.405	297.39
645.819	302.08
646.233	367.61
646.647	367.61
647.061	283.35
647.475	327.82
647.889	353.57
648.303	348.89
648.717	344.21
649.131	311.44
649.545	334.84
649.958	351.23
650.372	330.16
650.785	304.42
651.199	344.21
651.612	262.29
652.026	346.55
652.439	391.02
652.852	323.14
653.266	341.86
653.679	330.16
654.092	339.52
654.505	295.05
654.918	365.27
655.331	318.46
655.744	362.93
656.156	386.33
656.569	318.46
656.982	306.76
657.394	302.08
657.807	266.97
658.22	362.93
658.632	372.29
659.044	365.27
659.457	320.8
659.869	309.1
660.281	318.46
660.693	374.63
661.106	325.48
661.518	311.44
661.93	334.84
662.342	306.76
662.754	297.39
663.165	351.23
663.577	330.16
663.989	318.46
664.401	299.73
664.812	271.65
665.224	299.73
665.635	348.89
666.047	292.71
666.458	339.52
666.869	288.03
667.281	358.25
667.692	362.93
668.103	316.12
668.514	391.02
668.925	323.14
669.336	348.89
669.747	327.82
670.158	341.86
670.569	355.91
670.979	323.14
671.39	330.16
671.801	288.03
672.211	374.63
672.622	269.31
673.032	313.78
673.443	344.21
673.853	374.63
674.263	339.52
674.674	318.46
675.084	327.82
675.494	262.29
675.904	259.95
676.314	376.97
676.724	344.21
677.134	339.52
677.544	306.76
677.953	309.1
678.363	362.93
678.773	407.4
679.182	302.08
679.592	327.82
680.001	325.48
680.411	351.23
680.82	295.05
681.23	297.39
681.639	334.84
682.048	318.46
682.457	332.5
682.866	266.97
683.275	276.33
683.684	304.42
684.093	339.52
684.502	355.91
684.911	332.5
685.32	262.29
685.728	304.42
686.137	409.74
686.546	372.29
686.954	304.42
687.363	400.38
687.771	365.27
688.179	337.18
688.588	323.14
688.996	318.46
689.404	332.5
689.812	316.12
690.22	358.25
690.628	327.82
691.036	344.21
691.444	281.01
691.852	337.18
692.26	297.39
692.667	339.52
693.075	285.69
693.483	316.12
693.89	376.97
694.298	318.46
694.705	344.21
695.112	374.63
695.52	369.95
695.927	339.52
696.334	320.8
696.741	351.23
697.148	288.03
697.555	299.73
697.962	320.8
698.369	325.48
698.776	327.82
699.183	327.82
699.59	288.03
699.996	311.44
700.403	346.55
700.81	320.8
701.216	311.44
701.623	365.27
702.029	306.76
702.435	227.18
702.842	348.89
703.248	334.84
703.654	367.61
704.06	299.73
704.466	288.03
704.872	334.84
705.278	365.27
705.684	358.25
706.09	306.76
706.496	337.18
706.901	295.05
707.307	339.52
707.712	302.08
708.118	299.73
708.523	358.25
708.929	327.82
709.334	302.08
709.74	353.57
710.145	348.89
710.55	330.16
710.955	325.48
711.36	330.16
711.765	299.73
712.17	320.8
712.575	358.25
712.98	833.38
713.385	348.89
713.789	334.84
714.194	367.61
714.599	353.57
715.003	376.97
715.408	386.33
715.812	341.86
716.217	297.39
716.621	290.37
717.025	269.31
717.429	358.25
717.833	337.18
718.238	281.01
718.642	362.93
719.046	309.1
719.449	348.89
719.853	292.71
720.257	348.89
720.661	309.1
721.065	250.58
721.468	386.33
721.872	395.7
722.275	302.08
722.679	278.67
723.082	318.46
723.485	316.12
723.889	278.67
724.292	330.16
724.695	281.01
725.098	306.76
725.501	365.27
725.904	327.82
726.307	334.84
726.71	255.26
727.113	360.59
727.516	362.93
727.918	292.71
728.321	318.46
728.724	344.21
729.126	299.73
729.529	327.82
729.931	362.93
730.333	311.44
730.736	281.01
731.138	288.03
731.54	362.93
731.942	318.46
732.344	334.84
732.746	348.89
733.148	337.18
733.55	341.86
733.952	320.8
734.354	309.1
734.756	358.25
735.157	339.52
735.559	327.82
735.96	325.48
736.362	339.52
736.763	358.25
737.165	372.29
737.566	339.52
737.967	327.82
738.368	386.33
738.77	302.08
739.171	365.27
739.572	320.8
739.973	358.25
740.374	316.12
740.774	395.7
741.175	330.16
741.576	306.76
741.977	330.16
742.377	290.37
742.778	255.26
743.178	348.89
743.579	323.14
743.979	348.89
744.379	283.35
744.78	362.93
745.18	348.89
745.58	299.73
745.98	395.7
746.38	283.35
746.78	290.37
747.18	419.1
747.58	236.54
747.98	358.25
748.38	311.44
748.779	320.8
749.179	304.42
749.578	348.89
749.978	283.35
750.377	292.71
750.777	302.08
751.176	309.1
751.575	372.29
751.975	311.44
752.374	306.76
752.773	348.89
753.172	292.71
753.571	327.82
753.97	273.99
754.369	299.73
754.768	344.21
755.166	358.25
755.565	320.8
755.964	381.65
756.362	395.7
756.761	383.99
757.159	316.12
757.558	395.7
757.956	379.31
758.354	273.99
758.753	348.89
759.151	388.68
759.549	292.71
759.947	346.55
760.345	325.48
760.743	320.8
761.141	360.59
761.539	344.21
761.936	358.25
762.334	332.5
762.732	330.16
763.129	318.46
763.527	379.31
763.924	348.89
764.322	412.08
764.719	330.16
