Data from Al_FLMS009871__656__15-00-36-396.txt Node

Date: Fri Mar 08 15:00:36 CST 2024
User: pe5414po
Spectrometer: FLMS00987
Trigger mode: 0
Integration Time (sec): 1.000000E-1
Scans to average: 1
Electric dark correction enabled: true
Nonlinearity correction enabled: false
Boxcar width: 0
XAxis mode: Wavelengths
Number of Pixels in Spectrum: 2048
>>>>>Begin Spectral Data<<<<<
188.938	-49
189.409	-49
189.879	-49
190.349	-105.18
190.819	-81.77
191.29	-114.54
191.76	-98.16
192.23	-34.96
192.7	-58.37
193.17	-130.92
193.64	-72.41
194.109	-34.96
194.579	-37.3
195.049	-11.56
195.519	65.68
195.988	-9.22
196.458	0.15
196.927	70.36
197.397	82.07
197.866	163.98
198.336	220.16
198.805	149.94
199.274	199.09
199.744	199.09
200.213	194.41
200.682	213.14
201.151	192.07
201.62	295.05
202.089	220.16
202.558	222.5
203.027	269.31
203.495	273.99
203.964	316.12
204.433	273.99
204.902	231.86
205.37	358.25
205.839	285.69
206.307	250.58
206.776	355.91
207.244	330.16
207.712	337.18
208.181	311.44
208.649	297.39
209.117	318.46
209.585	327.82
210.053	224.84
210.521	243.56
210.989	283.35
211.457	309.1
211.925	248.24
212.393	332.5
212.861	304.42
213.328	257.61
213.796	299.73
214.264	325.48
214.731	283.35
215.199	367.61
215.666	311.44
216.133	281.01
216.601	259.95
217.068	276.33
217.535	252.92
218.003	281.01
218.47	276.33
218.937	245.9
219.404	344.21
219.871	295.05
220.338	271.65
220.805	259.95
221.271	266.97
221.738	269.31
222.205	273.99
222.671	290.37
223.138	283.35
223.605	306.76
224.071	311.44
224.538	229.52
225.004	318.46
225.47	295.05
225.937	283.35
226.403	257.61
226.869	283.35
227.335	290.37
227.801	278.67
228.267	327.82
228.733	259.95
229.199	323.14
229.665	309.1
230.131	269.31
230.597	323.14
231.062	250.58
231.528	334.84
231.994	262.29
232.459	273.99
232.925	245.9
233.39	330.16
233.856	227.18
234.321	257.61
234.786	337.18
235.252	318.46
235.717	309.1
236.182	252.92
236.647	311.44
237.112	271.65
237.577	266.97
238.042	323.14
238.507	248.24
238.972	290.37
239.436	332.5
239.901	278.67
240.366	231.86
240.83	316.12
241.295	290.37
241.76	269.31
242.224	273.99
242.688	292.71
243.153	273.99
243.617	304.42
244.081	259.95
244.545	299.73
245.01	304.42
245.474	257.61
245.938	273.99
246.402	306.76
246.866	313.78
247.33	288.03
247.793	292.71
248.257	281.01
248.721	302.08
249.185	264.63
249.648	288.03
250.112	285.69
250.575	262.29
251.039	341.86
251.502	337.18
251.965	353.57
252.429	320.8
252.892	238.88
253.355	376.97
253.818	252.92
254.281	320.8
254.744	295.05
255.207	297.39
255.67	285.69
256.133	266.97
256.596	304.42
257.059	288.03
257.522	273.99
257.984	245.9
258.447	320.8
258.909	367.61
259.372	288.03
259.834	299.73
260.297	271.65
260.759	276.33
261.221	360.59
261.684	217.82
262.146	355.91
262.608	337.18
263.07	255.26
263.532	302.08
263.994	285.69
264.456	327.82
264.918	290.37
265.38	281.01
265.842	355.91
266.303	391.02
266.765	304.42
267.227	341.86
267.688	318.46
268.15	299.73
268.611	358.25
269.072	316.12
269.534	330.16
269.995	266.97
270.456	323.14
270.918	276.33
271.379	358.25
271.84	360.59
272.301	330.16
272.762	273.99
273.223	316.12
273.684	323.14
274.144	311.44
274.605	341.86
275.066	360.59
275.527	376.97
275.987	325.48
276.448	299.73
276.908	273.99
277.369	255.26
277.829	252.92
278.289	339.52
278.75	318.46
279.21	346.55
279.67	276.33
280.13	393.36
280.59	369.95
281.05	318.46
281.51	327.82
281.97	344.21
282.43	318.46
282.89	344.21
283.35	276.33
283.809	327.82
284.269	297.39
284.729	304.42
285.188	372.29
285.648	334.84
286.107	276.33
286.567	255.26
287.026	306.76
287.485	330.16
287.944	353.57
288.404	325.48
288.863	285.69
289.322	316.12
289.781	318.46
290.24	259.95
290.699	330.16
291.158	292.71
291.616	306.76
292.075	295.05
292.534	250.58
292.992	290.37
293.451	276.33
293.91	316.12
294.368	297.39
294.827	297.39
295.285	271.65
295.743	325.48
296.202	316.12
296.66	264.63
297.118	325.48
297.576	318.46
298.034	302.08
298.492	306.76
298.95	290.37
299.408	391.02
299.866	337.18
300.324	360.59
300.781	311.44
301.239	313.78
301.697	316.12
302.154	346.55
302.612	264.63
303.069	299.73
303.527	306.76
303.984	250.58
304.441	309.1
304.899	351.23
305.356	309.1
305.813	353.57
306.27	325.48
306.727	341.86
307.184	297.39
307.641	309.1
308.098	278.67
308.555	297.39
309.012	278.67
309.468	358.25
309.925	318.46
310.382	311.44
310.838	311.44
311.295	283.35
311.751	360.59
312.208	304.42
312.664	337.18
313.12	346.55
313.577	327.82
314.033	339.52
314.489	250.58
314.945	341.86
315.401	346.55
315.857	337.18
316.313	332.5
316.769	311.44
317.225	259.95
317.681	318.46
318.136	313.78
318.592	316.12
319.048	262.29
319.503	292.71
319.959	318.46
320.414	348.89
320.869	306.76
321.325	304.42
321.78	346.55
322.235	262.29
322.691	351.23
323.146	339.52
323.601	311.44
324.056	295.05
324.511	309.1
324.966	292.71
325.421	332.5
325.875	271.65
326.33	259.95
326.785	323.14
327.24	365.27
327.694	311.44
328.149	318.46
328.603	381.65
329.058	306.76
329.512	290.37
329.966	318.46
330.421	379.31
330.875	311.44
331.329	302.08
331.783	398.04
332.237	337.18
332.691	334.84
333.145	295.05
333.599	285.69
334.053	288.03
334.507	341.86
334.96	372.29
335.414	344.21
335.868	259.95
336.321	283.35
336.775	362.93
337.228	316.12
337.682	358.25
338.135	348.89
338.588	318.46
339.042	283.35
339.495	325.48
339.948	299.73
340.401	285.69
340.854	313.78
341.307	388.68
341.76	325.48
342.213	351.23
342.666	292.71
343.119	391.02
343.571	348.89
344.024	362.93
344.477	269.31
344.929	398.04
345.382	288.03
345.834	360.59
346.287	273.99
346.739	316.12
347.191	241.22
347.644	259.95
348.096	339.52
348.548	327.82
349	381.65
349.452	302.08
349.904	334.84
350.356	393.36
350.808	332.5
351.26	367.61
351.711	351.23
352.163	297.39
352.615	309.1
353.066	306.76
353.518	309.1
353.969	302.08
354.421	325.48
354.872	327.82
355.324	362.93
355.775	323.14
356.226	309.1
356.677	334.84
357.128	369.95
357.579	311.44
358.03	367.61
358.481	355.91
358.932	391.02
359.383	344.21
359.834	337.18
360.285	346.55
360.735	318.46
361.186	395.7
361.637	395.7
362.087	295.05
362.538	379.31
362.988	332.5
363.438	318.46
363.889	360.59
364.339	372.29
364.789	278.67
365.239	302.08
365.689	313.78
366.139	372.29
366.589	288.03
367.039	344.21
367.489	313.78
367.939	311.44
368.389	302.08
368.839	292.71
369.288	348.89
369.738	372.29
370.187	337.18
370.637	365.27
371.086	285.69
371.536	398.04
371.985	339.52
372.434	281.01
372.884	281.01
373.333	339.52
373.782	316.12
374.231	388.68
374.68	355.91
375.129	318.46
375.578	266.97
376.027	288.03
376.475	311.44
376.924	332.5
377.373	323.14
377.822	405.06
378.27	292.71
378.719	355.91
379.167	325.48
379.616	348.89
380.064	341.86
380.512	323.14
380.961	323.14
381.409	292.71
381.857	323.14
382.305	311.44
382.753	283.35
383.201	372.29
383.649	299.73
384.097	302.08
384.545	341.86
384.992	327.82
385.44	259.95
385.888	327.82
386.335	332.5
386.783	344.21
387.231	313.78
387.678	344.21
388.125	365.27
388.573	367.61
389.02	386.33
389.467	278.67
389.914	292.71
390.362	323.14
390.809	327.82
391.256	290.37
391.703	278.67
392.15	365.27
392.596	334.84
393.043	313.78
393.49	341.86
393.937	306.76
394.383	323.14
394.83	288.03
395.276	339.52
395.723	330.16
396.169	264.63
396.616	334.84
397.062	339.52
397.508	313.78
397.954	374.63
398.401	337.18
398.847	292.71
399.293	299.73
399.739	334.84
400.185	355.91
400.631	309.1
401.076	266.97
401.522	248.24
401.968	391.02
402.414	365.27
402.859	388.68
403.305	339.52
403.75	334.84
404.196	344.21
404.641	285.69
405.086	414.42
405.532	374.63
405.977	320.8
406.422	255.26
406.867	334.84
407.312	346.55
407.757	262.29
408.202	351.23
408.647	309.1
409.092	306.76
409.537	374.63
409.982	304.42
410.426	334.84
410.871	341.86
411.316	339.52
411.76	271.65
412.205	367.61
412.649	316.12
413.093	302.08
413.538	318.46
413.982	351.23
414.426	374.63
414.87	339.52
415.314	243.56
415.758	318.46
416.202	297.39
416.646	318.46
417.09	407.4
417.534	304.42
417.978	313.78
418.421	372.29
418.865	318.46
419.309	339.52
419.752	358.25
420.196	372.29
420.639	339.52
421.083	318.46
421.526	355.91
421.969	327.82
422.412	302.08
422.856	276.33
423.299	323.14
423.742	313.78
424.185	295.05
424.628	351.23
425.071	302.08
425.513	344.21
425.956	367.61
426.399	325.48
426.842	339.52
427.284	360.59
427.727	358.25
428.169	407.4
428.612	358.25
429.054	327.82
429.497	330.16
429.939	299.73
430.381	306.76
430.823	276.33
431.265	337.18
431.707	379.31
432.149	398.04
432.591	283.35
433.033	264.63
433.475	393.36
433.917	316.12
434.359	288.03
434.8	262.29
435.242	276.33
435.684	365.27
436.125	339.52
436.567	348.89
437.008	365.27
437.449	330.16
437.891	281.01
438.332	309.1
438.773	313.78
439.214	374.63
439.656	369.95
440.097	327.82
440.538	327.82
440.978	400.38
441.419	379.31
441.86	362.93
442.301	341.86
442.742	309.1
443.182	330.16
443.623	348.89
444.063	302.08
444.504	344.21
444.944	360.59
445.385	327.82
445.825	285.69
446.265	365.27
446.706	278.67
447.146	381.65
447.586	285.69
448.026	297.39
448.466	318.46
448.906	325.48
449.346	367.61
449.786	339.52
450.225	306.76
450.665	435.49
451.105	339.52
451.544	374.63
451.984	295.05
452.424	311.44
452.863	358.25
453.302	318.46
453.742	379.31
454.181	283.35
454.62	346.55
455.059	313.78
455.499	360.59
455.938	283.35
456.377	299.73
456.816	416.76
457.254	311.44
457.693	334.84
458.132	318.46
458.571	323.14
459.01	283.35
459.448	360.59
459.887	419.1
460.325	393.36
460.764	269.31
461.202	309.1
461.641	362.93
462.079	297.39
462.517	295.05
462.955	320.8
463.393	383.99
463.832	372.29
464.27	362.93
464.708	306.76
465.145	365.27
465.583	313.78
466.021	348.89
466.459	316.12
466.897	344.21
467.334	271.65
467.772	358.25
468.209	365.27
468.647	292.71
469.084	376.97
469.522	285.69
469.959	313.78
470.396	351.23
470.833	318.46
471.271	327.82
471.708	381.65
472.145	348.89
472.582	376.97
473.019	346.55
473.456	313.78
473.892	330.16
474.329	299.73
474.766	374.63
475.202	379.31
475.639	367.61
476.076	374.63
476.512	369.95
476.949	332.5
477.385	376.97
477.821	299.73
478.258	313.78
478.694	353.57
479.13	330.16
479.566	327.82
480.002	337.18
480.438	395.7
480.874	264.63
481.31	332.5
481.746	332.5
482.181	341.86
482.617	327.82
483.053	402.72
483.488	353.57
483.924	306.76
484.36	330.16
484.795	281.01
485.23	398.04
485.666	334.84
486.101	297.39
486.536	355.91
486.971	332.5
487.407	348.89
487.842	344.21
488.277	302.08
488.712	351.23
489.146	358.25
489.581	281.01
490.016	316.12
490.451	304.42
490.885	348.89
491.32	355.91
491.755	365.27
492.189	283.35
492.624	311.44
493.058	369.95
493.492	337.18
493.927	351.23
494.361	327.82
494.795	369.95
495.229	320.8
495.663	393.36
496.097	311.44
496.531	313.78
496.965	320.8
497.399	346.55
497.833	318.46
498.266	346.55
498.7	264.63
499.134	379.31
499.567	323.14
500.001	290.37
500.434	332.5
500.868	327.82
501.301	367.61
501.734	381.65
502.168	341.86
502.601	311.44
503.034	332.5
503.467	318.46
503.9	367.61
504.333	348.89
504.766	355.91
505.199	344.21
505.632	365.27
506.064	318.46
506.497	323.14
506.93	266.97
507.362	367.61
507.795	332.5
508.227	369.95
508.66	330.16
509.092	348.89
509.524	369.95
509.956	344.21
510.389	330.16
510.821	407.4
511.253	332.5
511.685	367.61
512.117	288.03
512.549	295.05
512.981	339.52
513.412	391.02
513.844	318.46
514.276	269.31
514.707	358.25
515.139	313.78
515.571	344.21
516.002	398.04
516.433	367.61
516.865	398.04
517.296	372.29
517.727	344.21
518.159	325.48
518.59	337.18
519.021	372.29
519.452	292.71
519.883	344.21
520.314	353.57
520.744	351.23
521.175	325.48
521.606	332.5
522.037	325.48
522.467	269.31
522.898	316.12
523.328	348.89
523.759	367.61
524.189	302.08
524.62	339.52
525.05	409.74
525.48	299.73
525.91	355.91
526.341	323.14
526.771	313.78
527.201	311.44
527.631	341.86
528.061	337.18
528.49	278.67
528.92	273.99
529.35	383.99
529.78	325.48
530.209	355.91
530.639	344.21
531.068	341.86
531.498	341.86
531.927	288.03
532.357	266.97
532.786	199.09
533.215	320.8
533.644	292.71
534.074	288.03
534.503	292.71
534.932	369.95
535.361	332.5
535.79	332.5
536.218	302.08
536.647	360.59
537.076	409.74
537.505	302.08
537.933	320.8
538.362	327.82
538.79	288.03
539.219	325.48
539.647	304.42
540.076	318.46
540.504	341.86
540.932	292.71
541.36	297.39
541.788	362.93
542.217	318.46
542.645	358.25
543.073	355.91
543.5	255.26
543.928	306.76
544.356	393.36
544.784	313.78
545.211	337.18
545.639	346.55
546.067	409.74
546.494	351.23
546.922	316.12
547.349	271.65
547.776	318.46
548.204	348.89
548.631	273.99
549.058	330.16
549.485	337.18
549.912	369.95
550.339	309.1
550.766	327.82
551.193	313.78
551.62	295.05
552.047	273.99
552.474	374.63
552.9	360.59
553.327	320.8
553.754	362.93
554.18	365.27
554.607	346.55
555.033	334.84
555.459	313.78
555.886	414.42
556.312	365.27
556.738	271.65
557.164	423.78
557.59	320.8
558.016	313.78
558.442	257.61
558.868	369.95
559.294	337.18
559.72	313.78
560.145	391.02
560.571	334.84
560.997	367.61
561.422	304.42
561.848	339.52
562.273	297.39
562.699	334.84
563.124	337.18
563.549	292.71
563.974	295.05
564.4	325.48
564.825	311.44
565.25	351.23
565.675	318.46
566.1	348.89
566.525	241.22
566.95	276.33
567.374	320.8
567.799	327.82
568.224	271.65
568.648	302.08
569.073	372.29
569.497	369.95
569.922	383.99
570.346	299.73
570.771	379.31
571.195	302.08
571.619	339.52
572.043	323.14
572.467	295.05
572.891	348.89
573.315	323.14
573.739	393.36
574.163	325.48
574.587	344.21
575.011	281.01
575.435	372.29
575.858	398.04
576.282	320.8
576.705	241.22
577.129	355.91
577.552	386.33
577.976	278.67
578.399	290.37
578.822	376.97
579.245	323.14
579.669	355.91
580.092	316.12
580.515	313.78
580.938	313.78
581.361	362.93
581.784	327.82
582.206	316.12
582.629	325.48
583.052	376.97
583.474	311.44
583.897	313.78
584.32	297.39
584.742	297.39
585.165	313.78
585.587	332.5
586.009	334.84
586.431	255.26
586.854	297.39
587.276	288.03
587.698	372.29
588.12	334.84
588.542	369.95
588.964	325.48
589.386	376.97
589.807	325.48
590.229	292.71
590.651	259.95
591.073	320.8
591.494	398.04
591.916	362.93
592.337	323.14
592.759	348.89
593.18	360.59
593.601	358.25
594.022	330.16
594.444	334.84
594.865	379.31
595.286	344.21
595.707	337.18
596.128	285.69
596.549	269.31
596.97	339.52
597.39	334.84
597.811	388.68
598.232	353.57
598.652	367.61
599.073	398.04
599.494	311.44
599.914	311.44
600.334	320.8
600.755	309.1
601.175	334.84
601.595	374.63
602.015	355.91
602.436	341.86
602.856	477.62
603.276	316.12
603.696	276.33
604.115	318.46
604.535	302.08
604.955	337.18
605.375	391.02
605.794	419.1
606.214	351.23
606.634	276.33
607.053	332.5
607.473	358.25
607.892	348.89
608.311	372.29
608.731	330.16
609.15	278.67
609.569	430.8
609.988	304.42
610.407	358.25
610.826	341.86
611.245	325.48
611.664	323.14
612.083	334.84
612.501	337.18
612.92	288.03
613.339	316.12
613.757	367.61
614.176	405.06
614.594	299.73
615.013	330.16
615.431	339.52
615.85	285.69
616.268	313.78
616.686	318.46
617.104	318.46
617.522	323.14
617.94	325.48
618.358	367.61
618.776	355.91
619.194	337.18
619.612	320.8
620.03	311.44
620.447	341.86
620.865	290.37
621.282	351.23
621.7	346.55
622.117	388.68
622.535	353.57
622.952	332.5
623.369	302.08
623.787	318.46
624.204	362.93
624.621	353.57
625.038	339.52
625.455	374.63
625.872	369.95
626.289	311.44
626.706	325.48
627.123	309.1
627.539	388.68
627.956	292.71
628.373	355.91
628.789	306.76
629.206	351.23
629.622	311.44
630.038	285.69
630.455	318.46
630.871	405.06
631.287	339.52
631.703	332.5
632.12	358.25
632.536	299.73
632.952	383.99
633.368	304.42
633.783	311.44
634.199	369.95
634.615	299.73
635.031	304.42
635.446	334.84
635.862	374.63
636.277	376.97
636.693	355.91
637.108	330.16
637.524	334.84
637.939	295.05
638.354	327.82
638.77	323.14
639.185	369.95
639.6	320.8
640.015	306.76
640.43	318.46
640.845	255.26
641.259	344.21
641.674	369.95
642.089	367.61
642.504	309.1
642.918	332.5
643.333	302.08
643.747	339.52
644.162	355.91
644.576	323.14
644.991	353.57
645.405	365.27
645.819	309.1
646.233	313.78
646.647	376.97
647.061	302.08
647.475	313.78
647.889	295.05
648.303	306.76
648.717	285.69
649.131	360.59
649.545	311.44
649.958	362.93
650.372	372.29
650.785	339.52
651.199	362.93
651.612	346.55
652.026	362.93
652.439	353.57
652.852	351.23
653.266	358.25
653.679	327.82
654.092	273.99
654.505	344.21
654.918	283.35
655.331	369.95
655.744	332.5
656.156	304.42
656.569	316.12
656.982	309.1
657.394	302.08
657.807	250.58
658.22	297.39
658.632	292.71
659.044	304.42
659.457	304.42
659.869	316.12
660.281	362.93
660.693	299.73
661.106	339.52
661.518	428.46
661.93	302.08
662.342	367.61
662.754	374.63
663.165	271.65
663.577	311.44
663.989	313.78
664.401	327.82
664.812	276.33
665.224	355.91
665.635	341.86
666.047	367.61
666.458	327.82
666.869	334.84
667.281	299.73
667.692	372.29
668.103	379.31
668.514	360.59
668.925	264.63
669.336	351.23
669.747	367.61
670.158	395.7
670.569	344.21
670.979	323.14
671.39	297.39
671.801	346.55
672.211	341.86
672.622	297.39
673.032	358.25
673.443	316.12
673.853	337.18
674.263	320.8
674.674	320.8
675.084	318.46
675.494	353.57
675.904	398.04
676.314	341.86
676.724	346.55
677.134	388.68
677.544	348.89
677.953	367.61
678.363	353.57
678.773	402.72
679.182	334.84
679.592	360.59
680.001	281.01
680.411	302.08
680.82	309.1
681.23	316.12
681.639	316.12
682.048	285.69
682.457	351.23
682.866	327.82
683.275	297.39
683.684	302.08
684.093	362.93
684.502	339.52
684.911	327.82
685.32	292.71
685.728	355.91
686.137	297.39
686.546	337.18
686.954	276.33
687.363	388.68
687.771	332.5
688.179	320.8
688.588	332.5
688.996	381.65
689.404	330.16
689.812	283.35
690.22	393.36
690.628	386.33
691.036	376.97
691.444	341.86
691.852	299.73
692.26	388.68
692.667	393.36
693.075	318.46
693.483	320.8
693.89	323.14
694.298	255.26
694.705	257.61
695.112	281.01
695.52	351.23
695.927	320.8
696.334	276.33
696.741	302.08
697.148	346.55
697.555	334.84
697.962	360.59
698.369	316.12
698.776	327.82
699.183	355.91
699.59	334.84
699.996	306.76
700.403	302.08
700.81	369.95
701.216	383.99
701.623	348.89
702.029	325.48
702.435	318.46
702.842	302.08
703.248	341.86
703.654	262.29
704.06	405.06
704.466	355.91
704.872	337.18
705.278	376.97
705.684	290.37
706.09	407.4
706.496	285.69
706.901	355.91
707.307	374.63
707.712	299.73
708.118	311.44
708.523	353.57
708.929	374.63
709.334	323.14
709.74	332.5
710.145	243.56
710.55	353.57
710.955	285.69
711.36	400.38
711.765	325.48
712.17	276.33
712.575	306.76
712.98	896.57
713.385	348.89
713.789	306.76
714.194	353.57
714.599	278.67
715.003	339.52
715.408	318.46
715.812	381.65
716.217	311.44
716.621	339.52
717.025	369.95
717.429	346.55
717.833	278.67
718.238	327.82
718.642	369.95
719.046	334.84
719.449	295.05
719.853	344.21
720.257	393.36
720.661	362.93
721.065	344.21
721.468	316.12
721.872	269.31
722.275	365.27
722.679	334.84
723.082	306.76
723.485	348.89
723.889	330.16
724.292	337.18
724.695	316.12
725.098	381.65
725.501	351.23
725.904	360.59
726.307	360.59
726.71	320.8
727.113	367.61
727.516	292.71
727.918	344.21
728.321	311.44
728.724	332.5
729.126	355.91
729.529	295.05
729.931	297.39
730.333	327.82
730.736	334.84
731.138	346.55
731.54	353.57
731.942	362.93
732.344	323.14
732.746	311.44
733.148	383.99
733.55	339.52
733.952	264.63
734.354	302.08
734.756	369.95
735.157	295.05
735.559	402.72
735.96	355.91
736.362	281.01
736.763	376.97
737.165	391.02
737.566	383.99
737.967	346.55
738.368	346.55
738.77	351.23
739.171	334.84
739.572	295.05
739.973	299.73
740.374	243.56
740.774	362.93
741.175	311.44
741.576	339.52
741.977	290.37
742.377	374.63
742.778	288.03
743.178	313.78
743.579	309.1
743.979	327.82
744.379	323.14
744.78	302.08
745.18	339.52
745.58	341.86
745.98	346.55
746.38	297.39
746.78	351.23
747.18	374.63
747.58	348.89
747.98	374.63
748.38	358.25
748.779	302.08
749.179	355.91
749.578	313.78
749.978	304.42
750.377	351.23
750.777	355.91
751.176	379.31
751.575	302.08
751.975	320.8
752.374	353.57
752.773	355.91
753.172	391.02
753.571	341.86
753.97	360.59
754.369	306.76
754.768	379.31
755.166	367.61
755.565	334.84
755.964	325.48
756.362	311.44
756.761	292.71
757.159	313.78
757.558	269.31
757.956	409.74
758.354	318.46
758.753	355.91
759.151	395.7
759.549	348.89
759.947	306.76
760.345	318.46
760.743	332.5
761.141	369.95
761.539	351.23
761.936	320.8
762.334	369.95
762.732	330.16
763.129	325.48
763.527	306.76
763.924	318.46
764.322	353.57
