Data from Al_FLMS009871__643__15-00-35-096.txt Node

Date: Fri Mar 08 15:00:35 CST 2024
User: pe5414po
Spectrometer: FLMS00987
Trigger mode: 0
Integration Time (sec): 1.000000E-1
Scans to average: 1
Electric dark correction enabled: true
Nonlinearity correction enabled: false
Boxcar width: 0
XAxis mode: Wavelengths
Number of Pixels in Spectrum: 2048
>>>>>Begin Spectral Data<<<<<
188.938	-98.74
189.409	-98.74
189.879	-98.74
190.349	-56.61
190.819	-40.23
191.29	-101.08
191.76	-112.78
192.23	-63.63
192.7	-122.15
193.17	-21.5
193.64	-5.12
194.109	-42.57
194.579	32.33
195.049	8.92
195.519	58.07
195.988	20.63
196.458	44.03
196.927	128.29
197.397	27.65
197.866	51.05
198.336	97.86
198.805	137.65
199.274	189.14
199.744	144.67
200.213	212.55
200.682	217.23
201.151	254.68
201.62	214.89
202.089	278.08
202.558	254.68
203.027	294.47
203.495	308.51
203.964	308.51
204.433	264.04
204.902	341.28
205.37	301.49
205.839	271.06
206.307	289.79
206.776	299.15
207.244	264.04
207.712	294.47
208.181	322.56
208.649	313.19
209.117	308.51
209.585	355.32
210.053	334.26
210.521	296.81
210.989	259.36
211.457	299.15
211.925	280.43
212.393	273.4
212.861	278.08
213.328	320.21
213.796	345.96
214.264	303.83
214.731	271.06
215.199	273.4
215.666	266.38
216.133	313.19
216.601	273.4
217.068	360
217.535	285.11
218.003	273.4
218.47	329.58
218.937	289.79
219.404	245.32
219.871	245.32
220.338	285.11
220.805	317.87
221.271	271.06
221.738	280.43
222.205	214.89
222.671	301.49
223.138	261.7
223.605	257.02
224.071	275.74
224.538	322.56
225.004	303.83
225.47	247.66
225.937	259.36
226.403	292.13
226.869	296.81
227.335	240.64
227.801	352.98
228.267	278.08
228.733	299.15
229.199	338.94
229.665	278.08
230.131	250
230.597	282.77
231.062	275.74
231.528	285.11
231.994	282.77
232.459	240.64
232.925	285.11
233.39	287.45
233.856	292.13
234.321	214.89
234.786	357.66
235.252	296.81
235.717	221.91
236.182	247.66
236.647	289.79
237.112	210.21
237.577	278.08
238.042	273.4
238.507	278.08
238.972	280.43
239.436	264.04
239.901	259.36
240.366	308.51
240.83	268.72
241.295	303.83
241.76	322.56
242.224	315.53
242.688	313.19
243.153	362.34
243.617	338.94
244.081	348.3
244.545	282.77
245.01	235.96
245.474	235.96
245.938	327.24
246.402	308.51
246.866	280.43
247.33	322.56
247.793	285.11
248.257	257.02
248.721	247.66
249.185	289.79
249.648	278.08
250.112	306.17
250.575	287.45
251.039	282.77
251.502	247.66
251.965	301.49
252.429	259.36
252.892	240.64
253.355	322.56
253.818	301.49
254.281	299.15
254.744	338.94
255.207	334.26
255.67	362.34
256.133	341.28
256.596	303.83
257.059	285.11
257.522	338.94
257.984	301.49
258.447	282.77
258.909	343.62
259.372	310.85
259.834	294.47
260.297	303.83
260.759	280.43
261.221	273.4
261.684	331.92
262.146	282.77
262.608	310.85
263.07	294.47
263.532	299.15
263.994	301.49
264.456	317.87
264.918	261.7
265.38	245.32
265.842	299.15
266.303	345.96
266.765	313.19
267.227	247.66
267.688	299.15
268.15	299.15
268.611	280.43
269.072	282.77
269.534	287.45
269.995	271.06
270.456	275.74
270.918	247.66
271.379	317.87
271.84	287.45
272.301	238.3
272.762	343.62
273.223	324.9
273.684	313.19
274.144	259.36
274.605	301.49
275.066	231.27
275.527	278.08
275.987	306.17
276.448	287.45
276.908	364.68
277.369	301.49
277.829	259.36
278.289	264.04
278.75	320.21
279.21	322.56
279.67	289.79
280.13	287.45
280.59	355.32
281.05	303.83
281.51	240.64
281.97	331.92
282.43	268.72
282.89	271.06
283.35	296.81
283.809	268.72
284.269	306.17
284.729	282.77
285.188	322.56
285.648	315.53
286.107	310.85
286.567	334.26
287.026	261.7
287.485	301.49
287.944	315.53
288.404	360
288.863	306.17
289.322	406.81
289.781	285.11
290.24	254.68
290.699	320.21
291.158	292.13
291.616	334.26
292.075	329.58
292.534	331.92
292.992	271.06
293.451	341.28
293.91	278.08
294.368	345.96
294.827	338.94
295.285	285.11
295.743	278.08
296.202	268.72
296.66	303.83
297.118	252.34
297.576	306.17
298.034	352.98
298.492	338.94
298.95	320.21
299.408	322.56
299.866	306.17
300.324	292.13
300.781	317.87
301.239	317.87
301.697	245.32
302.154	268.72
302.612	280.43
303.069	280.43
303.527	271.06
303.984	294.47
304.441	296.81
304.899	271.06
305.356	322.56
305.813	242.98
306.27	376.39
306.727	352.98
307.184	336.6
307.641	371.71
308.098	275.74
308.555	313.19
309.012	320.21
309.468	360
309.925	338.94
310.382	287.45
310.838	320.21
311.295	299.15
311.751	259.36
312.208	289.79
312.664	343.62
313.12	350.64
313.577	289.79
314.033	329.58
314.489	261.7
314.945	287.45
315.401	390.43
315.857	261.7
316.313	257.02
316.769	341.28
317.225	306.17
317.681	273.4
318.136	322.56
318.592	348.3
319.048	329.58
319.503	315.53
319.959	289.79
320.414	348.3
320.869	308.51
321.325	341.28
321.78	381.07
322.235	360
322.691	289.79
323.146	303.83
323.601	287.45
324.056	273.4
324.511	282.77
324.966	336.6
325.421	367.03
325.875	315.53
326.33	294.47
326.785	275.74
327.24	355.32
327.694	271.06
328.149	296.81
328.603	320.21
329.058	324.9
329.512	350.64
329.966	266.38
330.421	296.81
330.875	336.6
331.329	310.85
331.783	282.77
332.237	320.21
332.691	273.4
333.145	369.37
333.599	285.11
334.053	257.02
334.507	345.96
334.96	317.87
335.414	334.26
335.868	310.85
336.321	348.3
336.775	327.24
337.228	252.34
337.682	357.66
338.135	313.19
338.588	369.37
339.042	383.41
339.495	313.19
339.948	383.41
340.401	352.98
340.854	292.13
341.307	364.68
341.76	292.13
342.213	388.09
342.666	334.26
343.119	299.15
343.571	355.32
344.024	280.43
344.477	338.94
344.929	310.85
345.382	247.66
345.834	322.56
346.287	350.64
346.739	374.05
347.191	369.37
347.644	306.17
348.096	292.13
348.548	254.68
349	257.02
349.452	259.36
349.904	292.13
350.356	327.24
350.808	327.24
351.26	259.36
351.711	329.58
352.163	261.7
352.615	345.96
353.066	350.64
353.518	310.85
353.969	299.15
354.421	294.47
354.872	275.74
355.324	310.85
355.775	355.32
356.226	336.6
356.677	338.94
357.128	381.07
357.579	341.28
358.03	322.56
358.481	345.96
358.932	331.92
359.383	292.13
359.834	278.08
360.285	254.68
360.735	374.05
361.186	357.66
361.637	313.19
362.087	287.45
362.538	355.32
362.988	383.41
363.438	322.56
363.889	334.26
364.339	334.26
364.789	308.51
365.239	360
365.689	367.03
366.139	320.21
366.589	334.26
367.039	299.15
367.489	376.39
367.939	336.6
368.389	345.96
368.839	287.45
369.288	364.68
369.738	345.96
370.187	411.5
370.637	388.09
371.086	310.85
371.536	392.77
371.985	308.51
372.434	294.47
372.884	292.13
373.333	350.64
373.782	336.6
374.231	317.87
374.68	338.94
375.129	303.83
375.578	301.49
376.027	416.18
376.475	294.47
376.924	341.28
377.373	315.53
377.822	308.51
378.27	352.98
378.719	301.49
379.167	334.26
379.616	371.71
380.064	299.15
380.512	338.94
380.961	322.56
381.409	231.27
381.857	282.77
382.305	289.79
382.753	331.92
383.201	301.49
383.649	348.3
384.097	360
384.545	261.7
384.992	329.58
385.44	341.28
385.888	308.51
386.335	343.62
386.783	327.24
387.231	350.64
387.678	329.58
388.125	313.19
388.573	320.21
389.02	336.6
389.467	278.08
389.914	350.64
390.362	273.4
390.809	331.92
391.256	355.32
391.703	343.62
392.15	226.59
392.596	322.56
393.043	306.17
393.49	331.92
393.937	352.98
394.383	350.64
394.83	306.17
395.276	437.24
395.723	381.07
396.169	245.32
396.616	404.47
397.062	357.66
397.508	338.94
397.954	292.13
398.401	317.87
398.847	341.28
399.293	350.64
399.739	355.32
400.185	350.64
400.631	322.56
401.076	329.58
401.522	310.85
401.968	355.32
402.414	348.3
402.859	343.62
403.305	299.15
403.75	294.47
404.196	397.45
404.641	331.92
405.086	343.62
405.532	350.64
405.977	348.3
406.422	301.49
406.867	320.21
407.312	343.62
407.757	278.08
408.202	350.64
408.647	383.41
409.092	392.77
409.537	287.45
409.982	371.71
410.426	306.17
410.871	303.83
411.316	345.96
411.76	395.11
412.205	287.45
412.649	320.21
413.093	352.98
413.538	317.87
413.982	313.19
414.426	338.94
414.87	303.83
415.314	296.81
415.758	280.43
416.202	338.94
416.646	299.15
417.09	338.94
417.534	385.75
417.978	364.68
418.421	280.43
418.865	355.32
419.309	313.19
419.752	308.51
420.196	327.24
420.639	322.56
421.083	289.79
421.526	376.39
421.969	369.37
422.412	350.64
422.856	357.66
423.299	317.87
423.742	317.87
424.185	292.13
424.628	264.04
425.071	378.73
425.513	331.92
425.956	327.24
426.399	271.06
426.842	238.3
427.284	399.79
427.727	306.17
428.169	322.56
428.612	313.19
429.054	310.85
429.497	334.26
429.939	324.9
430.381	352.98
430.823	371.71
431.265	331.92
431.707	306.17
432.149	310.85
432.591	306.17
433.033	292.13
433.475	292.13
433.917	315.53
434.359	341.28
434.8	338.94
435.242	252.34
435.684	341.28
436.125	376.39
436.567	259.36
437.008	327.24
437.449	355.32
437.891	296.81
438.332	350.64
438.773	292.13
439.214	322.56
439.656	247.66
440.097	301.49
440.538	334.26
440.978	303.83
441.419	315.53
441.86	310.85
442.301	331.92
442.742	310.85
443.182	306.17
443.623	268.72
444.063	261.7
444.504	324.9
444.944	327.24
445.385	343.62
445.825	315.53
446.265	308.51
446.706	320.21
447.146	313.19
447.586	296.81
448.026	292.13
448.466	341.28
448.906	294.47
449.346	287.45
449.786	334.26
450.225	275.74
450.665	306.17
451.105	367.03
451.544	338.94
451.984	278.08
452.424	329.58
452.863	292.13
453.302	331.92
453.742	303.83
454.181	306.17
454.62	336.6
455.059	345.96
455.499	296.81
455.938	371.71
456.377	273.4
456.816	313.19
457.254	317.87
457.693	371.71
458.132	409.15
458.571	303.83
459.01	264.04
459.448	360
459.887	315.53
460.325	362.34
460.764	329.58
461.202	345.96
461.641	343.62
462.079	352.98
462.517	296.81
462.955	331.92
463.393	327.24
463.832	338.94
464.27	310.85
464.708	367.03
465.145	278.08
465.583	289.79
466.021	350.64
466.459	341.28
466.897	327.24
467.334	404.47
467.772	341.28
468.209	329.58
468.647	329.58
469.084	313.19
469.522	434.9
469.959	329.58
470.396	327.24
470.833	402.13
471.271	315.53
471.708	301.49
472.145	261.7
472.582	322.56
473.019	289.79
473.456	357.66
473.892	299.15
474.329	313.19
474.766	329.58
475.202	303.83
475.639	336.6
476.076	350.64
476.512	287.45
476.949	308.51
477.385	296.81
477.821	350.64
478.258	334.26
478.694	334.26
479.13	336.6
479.566	362.34
480.002	329.58
480.438	357.66
480.874	310.85
481.31	350.64
481.746	371.71
482.181	360
482.617	322.56
483.053	303.83
483.488	273.4
483.924	404.47
484.36	324.9
484.795	338.94
485.23	301.49
485.666	336.6
486.101	369.37
486.536	296.81
486.971	360
487.407	322.56
487.842	317.87
488.277	306.17
488.712	357.66
489.146	296.81
489.581	338.94
490.016	350.64
490.451	320.21
490.885	299.15
491.32	320.21
491.755	317.87
492.189	334.26
492.624	313.19
493.058	355.32
493.492	327.24
493.927	266.38
494.361	259.36
494.795	352.98
495.229	374.05
495.663	299.15
496.097	348.3
496.531	273.4
496.965	324.9
497.399	355.32
497.833	341.28
498.266	317.87
498.7	299.15
499.134	292.13
499.567	327.24
500.001	329.58
500.434	322.56
500.868	317.87
501.301	378.73
501.734	336.6
502.168	317.87
502.601	343.62
503.034	336.6
503.467	296.81
503.9	336.6
504.333	233.61
504.766	273.4
505.199	345.96
505.632	338.94
506.064	322.56
506.497	336.6
506.93	378.73
507.362	383.41
507.795	374.05
508.227	315.53
508.66	374.05
509.092	278.08
509.524	294.47
509.956	308.51
510.389	324.9
510.821	327.24
511.253	338.94
511.685	371.71
512.117	303.83
512.549	315.53
512.981	299.15
513.412	327.24
513.844	324.9
514.276	292.13
514.707	315.53
515.139	266.38
515.571	289.79
516.002	352.98
516.433	364.68
516.865	282.77
517.296	287.45
517.727	360
518.159	324.9
518.59	308.51
519.021	350.64
519.452	296.81
519.883	362.34
520.314	329.58
520.744	285.11
521.175	324.9
521.606	338.94
522.037	348.3
522.467	317.87
522.898	320.21
523.328	287.45
523.759	303.83
524.189	289.79
524.62	303.83
525.05	303.83
525.48	352.98
525.91	273.4
526.341	322.56
526.771	399.79
527.201	338.94
527.631	320.21
528.061	364.68
528.49	315.53
528.92	296.81
529.35	336.6
529.78	252.34
530.209	238.3
530.639	324.9
531.068	268.72
531.498	233.61
531.927	336.6
532.357	334.26
532.786	338.94
533.215	329.58
533.644	388.09
534.074	285.11
534.503	296.81
534.932	327.24
535.361	392.77
535.79	315.53
536.218	371.71
536.647	334.26
537.076	280.43
537.505	317.87
537.933	292.13
538.362	338.94
538.79	306.17
539.219	345.96
539.647	388.09
540.076	289.79
540.504	327.24
540.932	254.68
541.36	280.43
541.788	399.79
542.217	341.28
542.645	294.47
543.073	322.56
543.5	336.6
543.928	329.58
544.356	301.49
544.784	357.66
545.211	287.45
545.639	327.24
546.067	364.68
546.494	299.15
546.922	345.96
547.349	357.66
547.776	285.11
548.204	271.06
548.631	350.64
549.058	336.6
549.485	327.24
549.912	334.26
550.339	317.87
550.766	278.08
551.193	355.32
551.62	289.79
552.047	338.94
552.474	266.38
552.9	338.94
553.327	355.32
553.754	289.79
554.18	360
554.607	329.58
555.033	331.92
555.459	238.3
555.886	336.6
556.312	362.34
556.738	275.74
557.164	329.58
557.59	390.43
558.016	374.05
558.442	338.94
558.868	287.45
559.294	341.28
559.72	371.71
560.145	317.87
560.571	345.96
560.997	315.53
561.422	357.66
561.848	282.77
562.273	378.73
562.699	294.47
563.124	292.13
563.549	289.79
563.974	275.74
564.4	320.21
564.825	306.17
565.25	322.56
565.675	303.83
566.1	381.07
566.525	341.28
566.95	296.81
567.374	367.03
567.799	352.98
568.224	343.62
568.648	348.3
569.073	376.39
569.497	336.6
569.922	338.94
570.346	343.62
570.771	360
571.195	322.56
571.619	294.47
572.043	392.77
572.467	268.72
572.891	292.13
573.315	306.17
573.739	362.34
574.163	299.15
574.587	334.26
575.011	308.51
575.435	381.07
575.858	324.9
576.282	341.28
576.705	320.21
577.129	275.74
577.552	334.26
577.976	306.17
578.399	338.94
578.822	289.79
579.245	259.36
579.669	310.85
580.092	357.66
580.515	308.51
580.938	228.93
581.361	385.75
581.784	369.37
582.206	271.06
582.629	317.87
583.052	334.26
583.474	313.19
583.897	287.45
584.32	308.51
584.742	374.05
585.165	362.34
585.587	264.04
586.009	320.21
586.431	294.47
586.854	331.92
587.276	348.3
587.698	317.87
588.12	299.15
588.542	371.71
588.964	324.9
589.386	294.47
589.807	327.24
590.229	336.6
590.651	343.62
591.073	329.58
591.494	329.58
591.916	303.83
592.337	322.56
592.759	329.58
593.18	364.68
593.601	355.32
594.022	357.66
594.444	324.9
594.865	341.28
595.286	322.56
595.707	360
596.128	374.05
596.549	371.71
596.97	348.3
597.39	292.13
597.811	282.77
598.232	327.24
598.652	348.3
599.073	336.6
599.494	345.96
599.914	285.11
600.334	341.28
600.755	360
601.175	285.11
601.595	271.06
602.015	324.9
602.436	329.58
602.856	413.84
603.276	343.62
603.696	336.6
604.115	329.58
604.535	317.87
604.955	313.19
605.375	301.49
605.794	341.28
606.214	336.6
606.634	313.19
607.053	320.21
607.473	388.09
607.892	371.71
608.311	257.02
608.731	399.79
609.15	299.15
609.569	292.13
609.988	254.68
610.407	287.45
610.826	320.21
611.245	341.28
611.664	355.32
612.083	350.64
612.501	334.26
612.92	360
613.339	334.26
613.757	345.96
614.176	254.68
614.594	343.62
615.013	310.85
615.431	338.94
615.85	364.68
616.268	327.24
616.686	376.39
617.104	322.56
617.522	299.15
617.94	294.47
618.358	289.79
618.776	289.79
619.194	310.85
619.612	336.6
620.03	259.36
620.447	317.87
620.865	336.6
621.282	280.43
621.7	322.56
622.117	320.21
622.535	360
622.952	317.87
623.369	327.24
623.787	296.81
624.204	378.73
624.621	296.81
625.038	308.51
625.455	322.56
625.872	334.26
626.289	338.94
626.706	352.98
627.123	336.6
627.539	254.68
627.956	381.07
628.373	355.32
628.789	296.81
629.206	383.41
629.622	388.09
630.038	352.98
630.455	289.79
630.871	301.49
631.287	350.64
631.703	301.49
632.12	348.3
632.536	369.37
632.952	331.92
633.368	292.13
633.783	336.6
634.199	242.98
634.615	352.98
635.031	324.9
635.446	331.92
635.862	341.28
636.277	252.34
636.693	362.34
637.108	315.53
637.524	315.53
637.939	320.21
638.354	252.34
638.77	338.94
639.185	352.98
639.6	324.9
640.015	345.96
640.43	331.92
640.845	378.73
641.259	306.17
641.674	278.08
642.089	355.32
642.504	296.81
642.918	301.49
643.333	320.21
643.747	329.58
644.162	289.79
644.576	292.13
644.991	397.45
645.405	345.96
645.819	294.47
646.233	313.19
646.647	327.24
647.061	282.77
647.475	374.05
647.889	282.77
648.303	320.21
648.717	355.32
649.131	285.11
649.545	313.19
649.958	341.28
650.372	345.96
650.785	341.28
651.199	301.49
651.612	278.08
652.026	329.58
652.439	303.83
652.852	310.85
653.266	294.47
653.679	324.9
654.092	308.51
654.505	324.9
654.918	317.87
655.331	306.17
655.744	334.26
656.156	299.15
656.569	329.58
656.982	322.56
657.394	296.81
657.807	231.27
658.22	317.87
658.632	327.24
659.044	329.58
659.457	310.85
659.869	315.53
660.281	252.34
660.693	327.24
661.106	327.24
661.518	392.77
661.93	310.85
662.342	327.24
662.754	294.47
663.165	322.56
663.577	331.92
663.989	374.05
664.401	317.87
664.812	306.17
665.224	324.9
665.635	254.68
666.047	341.28
666.458	355.32
666.869	348.3
667.281	282.77
667.692	336.6
668.103	348.3
668.514	350.64
668.925	289.79
669.336	331.92
669.747	331.92
670.158	280.43
670.569	287.45
670.979	331.92
671.39	409.15
671.801	320.21
672.211	289.79
672.622	329.58
673.032	357.66
673.443	301.49
673.853	266.38
674.263	345.96
674.674	303.83
675.084	313.19
675.494	308.51
675.904	371.71
676.314	308.51
676.724	287.45
677.134	324.9
677.544	355.32
677.953	362.34
678.363	345.96
678.773	324.9
679.182	324.9
679.592	294.47
680.001	352.98
680.411	289.79
680.82	320.21
681.23	273.4
681.639	367.03
682.048	399.79
682.457	294.47
682.866	364.68
683.275	369.37
683.684	345.96
684.093	306.17
684.502	324.9
684.911	247.66
685.32	357.66
685.728	345.96
686.137	334.26
686.546	296.81
686.954	296.81
687.363	196.17
687.771	289.79
688.179	324.9
688.588	245.32
688.996	352.98
689.404	327.24
689.812	317.87
690.22	301.49
690.628	313.19
691.036	282.77
691.444	355.32
691.852	303.83
692.26	341.28
692.667	338.94
693.075	308.51
693.483	285.11
693.89	273.4
694.298	301.49
694.705	289.79
695.112	322.56
695.52	310.85
695.927	308.51
696.334	355.32
696.741	345.96
697.148	334.26
697.555	331.92
697.962	289.79
698.369	280.43
698.776	369.37
699.183	320.21
699.59	273.4
699.996	313.19
700.403	303.83
700.81	306.17
701.216	345.96
701.623	331.92
702.029	301.49
702.435	306.17
702.842	315.53
703.248	275.74
703.654	310.85
704.06	327.24
704.466	315.53
704.872	268.72
705.278	282.77
705.684	322.56
706.09	271.06
706.496	320.21
706.901	334.26
707.307	271.06
707.712	343.62
708.118	294.47
708.523	350.64
708.929	334.26
709.334	308.51
709.74	376.39
710.145	329.58
710.55	381.07
710.955	310.85
711.36	289.79
711.765	313.19
712.17	355.32
712.575	282.77
712.98	860.88
713.385	425.54
713.789	310.85
714.194	303.83
714.599	322.56
715.003	317.87
715.408	315.53
715.812	294.47
716.217	306.17
716.621	282.77
717.025	331.92
717.429	357.66
717.833	268.72
718.238	282.77
718.642	327.24
719.046	357.66
719.449	271.06
719.853	287.45
720.257	294.47
720.661	275.74
721.065	322.56
721.468	303.83
721.872	329.58
722.275	357.66
722.679	306.17
723.082	367.03
723.485	287.45
723.889	322.56
724.292	360
724.695	334.26
725.098	280.43
725.501	357.66
725.904	352.98
726.307	292.13
726.71	348.3
727.113	280.43
727.516	238.3
727.918	310.85
728.321	313.19
728.724	327.24
729.126	345.96
729.529	310.85
729.931	331.92
730.333	381.07
730.736	327.24
731.138	336.6
731.54	313.19
731.942	296.81
732.344	292.13
732.746	294.47
733.148	289.79
733.55	315.53
733.952	292.13
734.354	289.79
734.756	287.45
735.157	313.19
735.559	352.98
735.96	345.96
736.362	308.51
736.763	315.53
737.165	282.77
737.566	357.66
737.967	303.83
738.368	327.24
738.77	320.21
739.171	327.24
739.572	341.28
739.973	367.03
740.374	341.28
740.774	280.43
741.175	322.56
741.576	306.17
741.977	336.6
742.377	357.66
742.778	233.61
743.178	306.17
743.579	324.9
743.979	327.24
744.379	299.15
744.78	280.43
745.18	357.66
745.58	371.71
745.98	369.37
746.38	275.74
746.78	294.47
747.18	294.47
747.58	343.62
747.98	292.13
748.38	310.85
748.779	324.9
749.179	310.85
749.578	338.94
749.978	308.51
750.377	331.92
750.777	343.62
751.176	374.05
751.575	355.32
751.975	317.87
752.374	301.49
752.773	352.98
753.172	271.06
753.571	289.79
753.97	322.56
754.369	336.6
754.768	338.94
755.166	271.06
755.565	341.28
755.964	315.53
756.362	378.73
756.761	345.96
757.159	336.6
757.558	324.9
757.956	296.81
758.354	296.81
758.753	317.87
759.151	355.32
759.549	338.94
759.947	287.45
760.345	348.3
760.743	289.79
761.141	350.64
761.539	336.6
761.936	343.62
762.334	341.28
762.732	331.92
763.129	315.53
763.527	313.19
763.924	329.58
764.322	320.21
764.719	310.85
765.117	310.85
765.514	282.77
765.911	327.24
766.308	350.64
