Data from Al_FLMS009871__654__15-00-36-196.txt Node

Date: Fri Mar 08 15:00:36 CST 2024
User: pe5414po
Spectrometer: FLMS00987
Trigger mode: 0
Integration Time (sec): 1.000000E-1
Scans to average: 1
Electric dark correction enabled: true
Nonlinearity correction enabled: false
Boxcar width: 0
XAxis mode: Wavelengths
Number of Pixels in Spectrum: 2048
>>>>>Begin Spectral Data<<<<<
188.938	34.23
189.409	34.23
189.879	34.23
190.349	-148.33
190.819	-80.46
191.29	-129.61
191.76	-96.84
192.23	-47.69
192.7	-127.27
193.17	-73.43
193.64	8.48
194.109	-12.58
194.579	-28.96
195.049	57.64
195.519	-24.28
195.988	31.89
196.458	48.27
196.927	116.15
197.397	97.42
197.866	62.32
198.336	118.49
198.805	158.28
199.274	188.71
199.744	193.39
200.213	202.75
200.682	169.98
201.151	153.6
201.62	265.94
202.089	141.89
202.558	226.15
203.027	298.71
203.495	263.6
203.964	287.01
204.433	247.22
204.902	294.03
205.37	284.67
205.839	265.94
206.307	366.59
206.776	212.11
207.244	305.73
207.712	324.46
208.181	263.6
208.649	275.31
209.117	366.59
209.585	329.14
210.053	221.47
210.521	317.44
210.989	277.65
211.457	219.13
211.925	284.67
212.393	296.37
212.861	317.44
213.328	301.05
213.796	305.73
214.264	235.52
214.731	235.52
215.199	308.07
215.666	350.2
216.133	315.09
216.601	308.07
217.068	312.75
217.535	265.94
218.003	338.5
218.47	291.69
218.937	294.03
219.404	244.88
219.871	240.2
220.338	322.12
220.805	228.49
221.271	319.78
221.738	312.75
222.205	254.24
222.671	315.09
223.138	254.24
223.605	186.37
224.071	221.47
224.538	284.67
225.004	287.01
225.47	279.99
225.937	214.45
226.403	310.41
226.869	249.56
227.335	287.01
227.801	312.75
228.267	237.86
228.733	289.35
229.199	249.56
229.665	249.56
230.131	319.78
230.597	287.01
231.062	242.54
231.528	254.24
231.994	249.56
232.459	270.62
232.925	301.05
233.39	308.07
233.856	322.12
234.321	277.65
234.786	261.26
235.252	289.35
235.717	279.99
236.182	282.33
236.647	357.22
237.112	242.54
237.577	336.16
238.042	298.71
238.507	228.49
238.972	289.35
239.436	284.67
239.901	303.39
240.366	275.31
240.83	296.37
241.295	251.9
241.76	352.54
242.224	287.01
242.688	230.84
243.153	324.46
243.617	336.16
244.081	282.33
244.545	272.96
245.01	277.65
245.474	272.96
245.938	279.99
246.402	284.67
246.866	322.12
247.33	296.37
247.793	237.86
248.257	322.12
248.721	272.96
249.185	268.28
249.648	310.41
250.112	352.54
250.575	301.05
251.039	294.03
251.502	310.41
251.965	275.31
252.429	268.28
252.892	326.8
253.355	296.37
253.818	251.9
254.281	310.41
254.744	235.52
255.207	279.99
255.67	240.2
256.133	294.03
256.596	247.22
257.059	298.71
257.522	317.44
257.984	305.73
258.447	287.01
258.909	272.96
259.372	303.39
259.834	308.07
260.297	319.78
260.759	272.96
261.221	270.62
261.684	310.41
262.146	336.16
262.608	265.94
263.07	256.58
263.532	331.48
263.994	242.54
264.456	322.12
264.918	319.78
265.38	296.37
265.842	254.24
266.303	298.71
266.765	272.96
267.227	261.26
267.688	291.69
268.15	237.86
268.611	279.99
269.072	275.31
269.534	350.2
269.995	308.07
270.456	305.73
270.918	289.35
271.379	240.2
271.84	315.09
272.301	265.94
272.762	310.41
273.223	317.44
273.684	310.41
274.144	338.5
274.605	268.28
275.066	279.99
275.527	401.69
275.987	270.62
276.448	237.86
276.908	291.69
277.369	265.94
277.829	237.86
278.289	214.45
278.75	343.18
279.21	279.99
279.67	258.92
280.13	287.01
280.59	322.12
281.05	282.33
281.51	364.25
281.97	315.09
282.43	319.78
282.89	263.6
283.35	233.18
283.809	279.99
284.269	249.56
284.729	261.26
285.188	340.84
285.648	294.03
286.107	251.9
286.567	263.6
287.026	275.31
287.485	375.95
287.944	333.82
288.404	340.84
288.863	322.12
289.322	347.86
289.781	289.35
290.24	221.47
290.699	310.41
291.158	310.41
291.616	317.44
292.075	265.94
292.534	258.92
292.992	303.39
293.451	289.35
293.91	247.22
294.368	310.41
294.827	305.73
295.285	375.95
295.743	350.2
296.202	324.46
296.66	298.71
297.118	324.46
297.576	303.39
298.034	291.69
298.492	277.65
298.95	298.71
299.408	244.88
299.866	291.69
300.324	303.39
300.781	258.92
301.239	331.48
301.697	317.44
302.154	261.26
302.612	301.05
303.069	301.05
303.527	301.05
303.984	312.75
304.441	289.35
304.899	364.25
305.356	279.99
305.813	289.35
306.27	324.46
306.727	247.22
307.184	284.67
307.641	275.31
308.098	378.29
308.555	277.65
309.012	319.78
309.468	352.54
309.925	347.86
310.382	310.41
310.838	366.59
311.295	392.33
311.751	291.69
312.208	354.88
312.664	317.44
313.12	294.03
313.577	312.75
314.033	336.16
314.489	303.39
314.945	340.84
315.401	291.69
315.857	343.18
316.313	317.44
316.769	282.33
317.225	263.6
317.681	312.75
318.136	296.37
318.592	303.39
319.048	326.8
319.503	359.56
319.959	263.6
320.414	380.63
320.869	347.86
321.325	312.75
321.78	315.09
322.235	322.12
322.691	305.73
323.146	392.33
323.601	357.22
324.056	343.18
324.511	212.11
324.966	324.46
325.421	322.12
325.875	265.94
326.33	329.14
326.785	315.09
327.24	272.96
327.694	291.69
328.149	254.24
328.603	270.62
329.058	357.22
329.512	303.39
329.966	308.07
330.421	308.07
330.875	298.71
331.329	336.16
331.783	305.73
332.237	308.07
332.691	265.94
333.145	298.71
333.599	308.07
334.053	324.46
334.507	364.25
334.96	357.22
335.414	294.03
335.868	284.67
336.321	338.5
336.775	322.12
337.228	364.25
337.682	361.91
338.135	310.41
338.588	294.03
339.042	333.82
339.495	326.8
339.948	277.65
340.401	284.67
340.854	319.78
341.307	315.09
341.76	279.99
342.213	277.65
342.666	291.69
343.119	345.52
343.571	324.46
344.024	312.75
344.477	287.01
344.929	322.12
345.382	331.48
345.834	301.05
346.287	361.91
346.739	315.09
347.191	357.22
347.644	263.6
348.096	373.61
348.548	310.41
349	305.73
349.452	228.49
349.904	284.67
350.356	368.93
350.808	284.67
351.26	315.09
351.711	310.41
352.163	310.41
352.615	301.05
353.066	296.37
353.518	296.37
353.969	317.44
354.421	336.16
354.872	265.94
355.324	324.46
355.775	319.78
356.226	265.94
356.677	312.75
357.128	296.37
357.579	319.78
358.03	298.71
358.481	333.82
358.932	338.5
359.383	329.14
359.834	279.99
360.285	340.84
360.735	333.82
361.186	331.48
361.637	317.44
362.087	289.35
362.538	291.69
362.988	347.86
363.438	319.78
363.889	368.93
364.339	298.71
364.789	340.84
365.239	261.26
365.689	312.75
366.139	352.54
366.589	294.03
367.039	310.41
367.489	298.71
367.939	301.05
368.389	371.27
368.839	296.37
369.288	294.03
369.738	308.07
370.187	308.07
370.637	282.33
371.086	357.22
371.536	291.69
371.985	364.25
372.434	279.99
372.884	265.94
373.333	303.39
373.782	364.25
374.231	303.39
374.68	251.9
375.129	301.05
375.578	329.14
376.027	378.29
376.475	263.6
376.924	279.99
377.373	373.61
377.822	336.16
378.27	291.69
378.719	345.52
379.167	345.52
379.616	298.71
380.064	261.26
380.512	317.44
380.961	284.67
381.409	303.39
381.857	303.39
382.305	331.48
382.753	279.99
383.201	272.96
383.649	296.37
384.097	324.46
384.545	338.5
384.992	303.39
385.44	364.25
385.888	272.96
386.335	315.09
386.783	275.31
387.231	319.78
387.678	312.75
388.125	322.12
388.573	361.91
389.02	361.91
389.467	331.48
389.914	361.91
390.362	333.82
390.809	338.5
391.256	338.5
391.703	329.14
392.15	324.46
392.596	366.59
393.043	279.99
393.49	340.84
393.937	308.07
394.383	352.54
394.83	303.39
395.276	345.52
395.723	287.01
396.169	303.39
396.616	347.86
397.062	352.54
397.508	312.75
397.954	324.46
398.401	338.5
398.847	387.65
399.293	333.82
399.739	268.28
400.185	315.09
400.631	308.07
401.076	291.69
401.522	291.69
401.968	310.41
402.414	343.18
402.859	322.12
403.305	359.56
403.75	387.65
404.196	317.44
404.641	315.09
405.086	296.37
405.532	380.63
405.977	343.18
406.422	303.39
406.867	380.63
407.312	361.91
407.757	301.05
408.202	319.78
408.647	296.37
409.092	315.09
409.537	366.59
409.982	275.31
410.426	308.07
410.871	282.33
411.316	263.6
411.76	303.39
412.205	301.05
412.649	317.44
413.093	251.9
413.538	312.75
413.982	254.24
414.426	368.93
414.87	350.2
415.314	289.35
415.758	296.37
416.202	275.31
416.646	277.65
417.09	305.73
417.534	298.71
417.978	338.5
418.421	324.46
418.865	216.79
419.309	305.73
419.752	331.48
420.196	308.07
420.639	371.27
421.083	345.52
421.526	375.95
421.969	343.18
422.412	312.75
422.856	282.33
423.299	317.44
423.742	350.2
424.185	310.41
424.628	324.46
425.071	425.1
425.513	312.75
425.956	324.46
426.399	345.52
426.842	371.27
427.284	282.33
427.727	319.78
428.169	315.09
428.612	397.01
429.054	310.41
429.497	275.31
429.939	322.12
430.381	305.73
430.823	319.78
431.265	322.12
431.707	371.27
432.149	329.14
432.591	408.72
433.033	336.16
433.475	296.37
433.917	352.54
434.359	308.07
434.8	305.73
435.242	270.62
435.684	352.54
436.125	338.5
436.567	275.31
437.008	347.86
437.449	350.2
437.891	258.92
438.332	326.8
438.773	324.46
439.214	322.12
439.656	305.73
440.097	319.78
440.538	326.8
440.978	305.73
441.419	324.46
441.86	287.01
442.301	359.56
442.742	345.52
443.182	338.5
443.623	333.82
444.063	333.82
444.504	258.92
444.944	373.61
445.385	308.07
445.825	272.96
446.265	291.69
446.706	310.41
447.146	308.07
447.586	294.03
448.026	322.12
448.466	312.75
448.906	368.93
449.346	298.71
449.786	301.05
450.225	272.96
450.665	380.63
451.105	301.05
451.544	298.71
451.984	340.84
452.424	392.33
452.863	329.14
453.302	322.12
453.742	336.16
454.181	301.05
454.62	364.25
455.059	261.26
455.499	319.78
455.938	368.93
456.377	322.12
456.816	275.31
457.254	279.99
457.693	326.8
458.132	319.78
458.571	371.27
459.01	263.6
459.448	279.99
459.887	354.88
460.325	279.99
460.764	324.46
461.202	312.75
461.641	284.67
462.079	294.03
462.517	294.03
462.955	287.01
463.393	371.27
463.832	296.37
464.27	366.59
464.708	343.18
465.145	333.82
465.583	329.14
466.021	301.05
466.459	345.52
466.897	329.14
467.334	375.95
467.772	345.52
468.209	270.62
468.647	387.65
469.084	265.94
469.522	308.07
469.959	303.39
470.396	308.07
470.833	329.14
471.271	310.41
471.708	256.58
472.145	361.91
472.582	312.75
473.019	331.48
473.456	415.74
473.892	282.33
474.329	343.18
474.766	315.09
475.202	371.27
475.639	291.69
476.076	326.8
476.512	343.18
476.949	333.82
477.385	296.37
477.821	256.58
478.258	326.8
478.694	301.05
479.13	352.54
479.566	333.82
480.002	282.33
480.438	322.12
480.874	289.35
481.31	394.67
481.746	291.69
482.181	354.88
482.617	343.18
483.053	275.31
483.488	317.44
483.924	387.65
484.36	322.12
484.795	347.86
485.23	319.78
485.666	298.71
486.101	361.91
486.536	301.05
486.971	270.62
487.407	359.56
487.842	345.52
488.277	254.24
488.712	322.12
489.146	326.8
489.581	343.18
490.016	265.94
490.451	308.07
490.885	305.73
491.32	336.16
491.755	361.91
492.189	385.31
492.624	354.88
493.058	389.99
493.492	322.12
493.927	287.01
494.361	340.84
494.795	279.99
495.229	375.95
495.663	347.86
496.097	287.01
496.531	315.09
496.965	284.67
497.399	294.03
497.833	368.93
498.266	287.01
498.7	352.54
499.134	282.33
499.567	343.18
500.001	315.09
500.434	361.91
500.868	366.59
501.301	354.88
501.734	310.41
502.168	305.73
502.601	258.92
503.034	326.8
503.467	336.16
503.9	303.39
504.333	357.22
504.766	338.5
505.199	420.42
505.632	298.71
506.064	291.69
506.497	317.44
506.93	284.67
507.362	284.67
507.795	275.31
508.227	340.84
508.66	270.62
509.092	399.35
509.524	249.56
509.956	272.96
510.389	347.86
510.821	326.8
511.253	310.41
511.685	301.05
512.117	289.35
512.549	322.12
512.981	317.44
513.412	275.31
513.844	312.75
514.276	331.48
514.707	301.05
515.139	350.2
515.571	305.73
516.002	333.82
516.433	347.86
516.865	289.35
517.296	329.14
517.727	268.28
518.159	347.86
518.59	312.75
519.021	340.84
519.452	275.31
519.883	282.33
520.314	289.35
520.744	333.82
521.175	324.46
521.606	287.01
522.037	289.35
522.467	256.58
522.898	347.86
523.328	305.73
523.759	338.5
524.189	392.33
524.62	333.82
525.05	322.12
525.48	366.59
525.91	354.88
526.341	392.33
526.771	310.41
527.201	338.5
527.631	397.01
528.061	354.88
528.49	312.75
528.92	392.33
529.35	336.16
529.78	338.5
530.209	331.48
530.639	282.33
531.068	382.97
531.498	317.44
531.927	359.56
532.357	301.05
532.786	336.16
533.215	326.8
533.644	331.48
534.074	324.46
534.503	279.99
534.932	303.39
535.361	308.07
535.79	319.78
536.218	296.37
536.647	359.56
537.076	329.14
537.505	294.03
537.933	326.8
538.362	319.78
538.79	333.82
539.219	289.35
539.647	272.96
540.076	387.65
540.504	322.12
540.932	254.24
541.36	251.9
541.788	340.84
542.217	296.37
542.645	375.95
543.073	308.07
543.5	298.71
543.928	258.92
544.356	315.09
544.784	354.88
545.211	350.2
545.639	275.31
546.067	301.05
546.494	277.65
546.922	284.67
547.349	272.96
547.776	287.01
548.204	368.93
548.631	287.01
549.058	268.28
549.485	284.67
549.912	366.59
550.339	371.27
550.766	310.41
551.193	361.91
551.62	301.05
552.047	397.01
552.474	301.05
552.9	336.16
553.327	310.41
553.754	298.71
554.18	277.65
554.607	247.22
555.033	378.29
555.459	303.39
555.886	303.39
556.312	352.54
556.738	287.01
557.164	343.18
557.59	352.54
558.016	291.69
558.442	315.09
558.868	352.54
559.294	375.95
559.72	268.28
560.145	364.25
560.571	291.69
560.997	404.03
561.422	345.52
561.848	263.6
562.273	294.03
562.699	382.97
563.124	359.56
563.549	364.25
563.974	326.8
564.4	282.33
564.825	350.2
565.25	333.82
565.675	331.48
566.1	350.2
566.525	322.12
566.95	305.73
567.374	375.95
567.799	380.63
568.224	352.54
568.648	399.35
569.073	333.82
569.497	317.44
569.922	333.82
570.346	301.05
570.771	352.54
571.195	343.18
571.619	317.44
572.043	333.82
572.467	336.16
572.891	291.69
573.315	343.18
573.739	308.07
574.163	338.5
574.587	392.33
575.011	298.71
575.435	352.54
575.858	303.39
576.282	284.67
576.705	345.52
577.129	312.75
577.552	343.18
577.976	319.78
578.399	389.99
578.822	270.62
579.245	268.28
579.669	366.59
580.092	326.8
580.515	230.84
580.938	350.2
581.361	315.09
581.784	326.8
582.206	359.56
582.629	371.27
583.052	333.82
583.474	418.08
583.897	345.52
584.32	305.73
584.742	282.33
585.165	272.96
585.587	347.86
586.009	270.62
586.431	305.73
586.854	247.22
587.276	368.93
587.698	331.48
588.12	279.99
588.542	357.22
588.964	291.69
589.386	343.18
589.807	343.18
590.229	298.71
590.651	308.07
591.073	317.44
591.494	287.01
591.916	333.82
592.337	336.16
592.759	294.03
593.18	261.26
593.601	315.09
594.022	366.59
594.444	303.39
594.865	272.96
595.286	312.75
595.707	366.59
596.128	289.35
596.549	282.33
596.97	284.67
597.39	329.14
597.811	279.99
598.232	298.71
598.652	289.35
599.073	338.5
599.494	284.67
599.914	298.71
600.334	289.35
600.755	317.44
601.175	270.62
601.595	268.28
602.015	256.58
602.436	289.35
602.856	467.23
603.276	326.8
603.696	366.59
604.115	310.41
604.535	364.25
604.955	279.99
605.375	312.75
605.794	261.26
606.214	345.52
606.634	312.75
607.053	406.38
607.473	329.14
607.892	340.84
608.311	397.01
608.731	301.05
609.15	287.01
609.569	303.39
609.988	338.5
610.407	343.18
610.826	317.44
611.245	338.5
611.664	361.91
612.083	289.35
612.501	338.5
612.92	247.22
613.339	340.84
613.757	296.37
614.176	350.2
614.594	270.62
615.013	371.27
615.431	352.54
615.85	277.65
616.268	338.5
616.686	322.12
617.104	268.28
617.522	287.01
617.94	268.28
618.358	350.2
618.776	258.92
619.194	212.11
619.612	333.82
620.03	357.22
620.447	333.82
620.865	333.82
621.282	352.54
621.7	305.73
622.117	340.84
622.535	263.6
622.952	254.24
623.369	268.28
623.787	375.95
624.204	324.46
624.621	312.75
625.038	336.16
625.455	291.69
625.872	294.03
626.289	315.09
626.706	329.14
627.123	340.84
627.539	322.12
627.956	343.18
628.373	305.73
628.789	359.56
629.206	282.33
629.622	287.01
630.038	296.37
630.455	338.5
630.871	305.73
631.287	350.2
631.703	329.14
632.12	347.86
632.536	322.12
632.952	361.91
633.368	319.78
633.783	303.39
634.199	303.39
634.615	263.6
635.031	352.54
635.446	279.99
635.862	333.82
636.277	361.91
636.693	294.03
637.108	301.05
637.524	350.2
637.939	315.09
638.354	366.59
638.77	389.99
639.185	275.31
639.6	361.91
640.015	324.46
640.43	312.75
640.845	315.09
641.259	282.33
641.674	324.46
642.089	319.78
642.504	333.82
642.918	287.01
643.333	331.48
643.747	296.37
644.162	331.48
644.576	385.31
644.991	338.5
645.405	343.18
645.819	338.5
646.233	329.14
646.647	350.2
647.061	322.12
647.475	315.09
647.889	294.03
648.303	303.39
648.717	282.33
649.131	361.91
649.545	277.65
649.958	343.18
650.372	338.5
650.785	350.2
651.199	291.69
651.612	244.88
652.026	371.27
652.439	326.8
652.852	305.73
653.266	322.12
653.679	298.71
654.092	310.41
654.505	322.12
654.918	305.73
655.331	277.65
655.744	312.75
656.156	326.8
656.569	310.41
656.982	343.18
657.394	333.82
657.807	375.95
658.22	312.75
658.632	294.03
659.044	301.05
659.457	385.31
659.869	340.84
660.281	319.78
660.693	371.27
661.106	340.84
661.518	312.75
661.93	329.14
662.342	378.29
662.754	315.09
663.165	291.69
663.577	296.37
663.989	326.8
664.401	263.6
664.812	333.82
665.224	317.44
665.635	319.78
666.047	275.31
666.458	289.35
666.869	361.91
667.281	331.48
667.692	303.39
668.103	277.65
668.514	317.44
668.925	333.82
669.336	287.01
669.747	319.78
670.158	287.01
670.569	308.07
670.979	319.78
671.39	277.65
671.801	284.67
672.211	352.54
672.622	275.31
673.032	336.16
673.443	380.63
673.853	399.35
674.263	315.09
674.674	315.09
675.084	331.48
675.494	305.73
675.904	291.69
676.314	343.18
676.724	347.86
677.134	268.28
677.544	310.41
677.953	284.67
678.363	333.82
678.773	303.39
679.182	343.18
679.592	279.99
680.001	287.01
680.411	315.09
680.82	319.78
681.23	319.78
681.639	378.29
682.048	319.78
682.457	343.18
682.866	237.86
683.275	326.8
683.684	277.65
684.093	350.2
684.502	315.09
684.911	291.69
685.32	350.2
685.728	357.22
686.137	301.05
686.546	385.31
686.954	298.71
687.363	287.01
687.771	326.8
688.179	322.12
688.588	364.25
688.996	294.03
689.404	324.46
689.812	340.84
690.22	404.03
690.628	406.38
691.036	305.73
691.444	310.41
691.852	296.37
692.26	312.75
692.667	305.73
693.075	315.09
693.483	336.16
693.89	301.05
694.298	324.46
694.705	347.86
695.112	343.18
695.52	354.88
695.927	368.93
696.334	357.22
696.741	294.03
697.148	347.86
697.555	336.16
697.962	272.96
698.369	294.03
698.776	404.03
699.183	345.52
699.59	294.03
699.996	275.31
700.403	296.37
700.81	303.39
701.216	359.56
701.623	319.78
702.029	343.18
702.435	319.78
702.842	319.78
703.248	277.65
703.654	340.84
704.06	282.33
704.466	298.71
704.872	326.8
705.278	338.5
705.684	375.95
706.09	326.8
706.496	303.39
706.901	308.07
707.307	345.52
707.712	331.48
708.118	303.39
708.523	352.54
708.929	308.07
709.334	317.44
709.74	305.73
710.145	296.37
710.55	357.22
710.955	340.84
711.36	317.44
711.765	352.54
712.17	296.37
712.575	364.25
712.98	886.19
713.385	336.16
713.789	319.78
714.194	324.46
714.599	359.56
715.003	352.54
715.408	298.71
715.812	368.93
716.217	333.82
716.621	305.73
717.025	301.05
717.429	289.35
717.833	338.5
718.238	310.41
718.642	361.91
719.046	382.97
719.449	322.12
719.853	265.94
720.257	298.71
720.661	301.05
721.065	368.93
721.468	258.92
721.872	305.73
722.275	373.61
722.679	340.84
723.082	333.82
723.485	244.88
723.889	310.41
724.292	345.52
724.695	305.73
725.098	305.73
725.501	345.52
725.904	326.8
726.307	279.99
726.71	338.5
727.113	343.18
727.516	279.99
727.918	331.48
728.321	270.62
728.724	275.31
729.126	333.82
729.529	345.52
729.931	305.73
730.333	326.8
730.736	394.67
731.138	291.69
731.54	368.93
731.942	268.28
732.344	294.03
732.746	326.8
733.148	336.16
733.55	310.41
733.952	319.78
734.354	305.73
734.756	298.71
735.157	326.8
735.559	331.48
735.96	298.71
736.362	315.09
736.763	251.9
737.165	326.8
737.566	291.69
737.967	312.75
738.368	315.09
738.77	284.67
739.171	298.71
739.572	331.48
739.973	329.14
740.374	329.14
740.774	347.86
741.175	326.8
741.576	347.86
741.977	279.99
742.377	289.35
742.778	312.75
743.178	242.54
743.579	359.56
743.979	340.84
744.379	350.2
744.78	268.28
745.18	270.62
745.58	282.33
745.98	333.82
746.38	301.05
746.78	329.14
747.18	326.8
747.58	261.26
747.98	366.59
748.38	294.03
748.779	345.52
749.179	322.12
749.578	336.16
749.978	275.31
750.377	352.54
750.777	294.03
751.176	352.54
751.575	279.99
751.975	324.46
752.374	347.86
752.773	268.28
753.172	291.69
753.571	284.67
753.97	319.78
754.369	364.25
754.768	333.82
755.166	312.75
755.565	287.01
755.964	289.35
756.362	312.75
756.761	352.54
757.159	413.4
757.558	287.01
757.956	373.61
758.354	404.03
758.753	310.41
759.151	340.84
759.549	301.05
759.947	294.03
760.345	270.62
760.743	219.13
761.141	338.5
761.539	308.07
761.936	329.14
762.334	279.99
762.732	329.14
763.129	350.2
763.527	368.93
763.924	354.88
764.322	373.61
