Data from Al_FLMS009871__645__15-00-35-296.txt Node

Date: Fri Mar 08 15:00:35 CST 2024
User: pe5414po
Spectrometer: FLMS00987
Trigger mode: 0
Integration Time (sec): 1.000000E-1
Scans to average: 1
Electric dark correction enabled: true
Nonlinearity correction enabled: false
Boxcar width: 0
XAxis mode: Wavelengths
Number of Pixels in Spectrum: 2048
>>>>>Begin Spectral Data<<<<<
188.938	-107.23
189.409	-107.23
189.879	-107.23
190.349	-135.31
190.819	-118.93
191.29	-100.2
191.76	-104.89
192.23	0.44
192.7	-100.2
193.17	-39.35
193.64	-58.07
194.109	-41.69
194.579	0.44
195.049	-25.31
195.519	28.53
195.988	23.84
196.458	101.08
196.927	28.53
197.397	96.4
197.866	108.1
198.336	82.36
198.805	173.64
199.274	159.6
199.744	208.75
200.213	171.3
200.682	215.77
201.151	175.98
201.62	201.72
202.089	190.02
202.558	274.28
203.027	243.85
203.495	309.39
203.964	222.79
204.433	297.69
204.902	232.15
205.37	248.54
205.839	314.07
206.307	351.52
206.776	276.62
207.244	318.75
207.712	241.51
208.181	302.37
208.649	325.77
209.117	250.88
209.585	342.16
210.053	257.9
210.521	288.32
210.989	271.94
211.457	201.72
211.925	297.69
212.393	283.64
212.861	285.98
213.328	267.26
213.796	255.56
214.264	323.43
214.731	316.41
215.199	250.88
215.666	255.56
216.133	367.9
216.601	293.01
217.068	328.11
217.535	285.98
218.003	293.01
218.47	288.32
218.937	288.32
219.404	253.22
219.871	241.51
220.338	236.83
220.805	281.3
221.271	285.98
221.738	215.77
222.205	234.49
222.671	227.47
223.138	309.39
223.605	255.56
224.071	300.03
224.538	290.67
225.004	302.37
225.47	239.17
225.937	260.24
226.403	276.62
226.869	295.35
227.335	302.37
227.801	269.6
228.267	262.58
228.733	222.79
229.199	283.64
229.665	386.63
230.131	234.49
230.597	267.26
231.062	262.58
231.528	293.01
231.994	283.64
232.459	234.49
232.925	269.6
233.39	281.3
233.856	255.56
234.321	236.83
234.786	253.22
235.252	309.39
235.717	267.26
236.182	297.69
236.647	269.6
237.112	318.75
237.577	276.62
238.042	311.73
238.507	248.54
238.972	285.98
239.436	314.07
239.901	264.92
240.366	260.24
240.83	241.51
241.295	264.92
241.76	349.18
242.224	278.96
242.688	225.13
243.153	257.9
243.617	227.47
244.081	283.64
244.545	276.62
245.01	290.67
245.474	283.64
245.938	269.6
246.402	232.15
246.866	260.24
247.33	304.71
247.793	264.92
248.257	323.43
248.721	342.16
249.185	234.49
249.648	260.24
250.112	269.6
250.575	302.37
251.039	302.37
251.502	309.39
251.965	276.62
252.429	271.94
252.892	255.56
253.355	260.24
253.818	295.35
254.281	264.92
254.744	243.85
255.207	274.28
255.67	243.85
256.133	311.73
256.596	288.32
257.059	201.72
257.522	264.92
257.984	276.62
258.447	264.92
258.909	271.94
259.372	283.64
259.834	311.73
260.297	293.01
260.759	255.56
261.221	323.43
261.684	269.6
262.146	260.24
262.608	283.64
263.07	293.01
263.532	311.73
263.994	276.62
264.456	309.39
264.918	278.96
265.38	260.24
265.842	218.11
266.303	283.64
266.765	257.9
267.227	229.81
267.688	281.3
268.15	311.73
268.611	297.69
269.072	236.83
269.534	288.32
269.995	300.03
270.456	283.64
270.918	271.94
271.379	250.88
271.84	304.71
272.301	295.35
272.762	250.88
273.223	267.26
273.684	267.26
274.144	307.05
274.605	321.09
275.066	304.71
275.527	330.45
275.987	283.64
276.448	276.62
276.908	330.45
277.369	269.6
277.829	321.09
278.289	213.43
278.75	311.73
279.21	283.64
279.67	360.88
280.13	288.32
280.59	318.75
281.05	250.88
281.51	297.69
281.97	241.51
282.43	323.43
282.89	300.03
283.35	328.11
283.809	290.67
284.269	253.22
284.729	288.32
285.188	300.03
285.648	351.52
286.107	328.11
286.567	281.3
287.026	300.03
287.485	276.62
287.944	288.32
288.404	239.17
288.863	342.16
289.322	281.3
289.781	236.83
290.24	360.88
290.699	227.47
291.158	255.56
291.616	309.39
292.075	381.95
292.534	283.64
292.992	297.69
293.451	335.14
293.91	285.98
294.368	300.03
294.827	269.6
295.285	318.75
295.743	276.62
296.202	269.6
296.66	300.03
297.118	304.71
297.576	323.43
298.034	278.96
298.492	351.52
298.95	300.03
299.408	307.05
299.866	250.88
300.324	290.67
300.781	302.37
301.239	271.94
301.697	267.26
302.154	323.43
302.612	281.3
303.069	288.32
303.527	318.75
303.984	344.5
304.441	307.05
304.899	290.67
305.356	304.71
305.813	360.88
306.27	318.75
306.727	318.75
307.184	384.29
307.641	302.37
308.098	344.5
308.555	253.22
309.012	285.98
309.468	290.67
309.925	283.64
310.382	300.03
310.838	323.43
311.295	372.58
311.751	285.98
312.208	307.05
312.664	243.85
313.12	302.37
313.577	276.62
314.033	335.14
314.489	328.11
314.945	318.75
315.401	321.09
315.857	377.27
316.313	318.75
316.769	304.71
317.225	248.54
317.681	321.09
318.136	344.5
318.592	281.3
319.048	335.14
319.503	297.69
319.959	311.73
320.414	342.16
320.869	285.98
321.325	295.35
321.78	323.43
322.235	274.28
322.691	288.32
323.146	325.77
323.601	293.01
324.056	307.05
324.511	236.83
324.966	304.71
325.421	351.52
325.875	302.37
326.33	374.92
326.785	288.32
327.24	344.5
327.694	311.73
328.149	349.18
328.603	323.43
329.058	295.35
329.512	328.11
329.966	302.37
330.421	311.73
330.875	264.92
331.329	278.96
331.783	318.75
332.237	260.24
332.691	330.45
333.145	339.82
333.599	300.03
334.053	346.84
334.507	332.79
334.96	288.32
335.414	358.54
335.868	271.94
336.321	276.62
336.775	321.09
337.228	360.88
337.682	311.73
338.135	285.98
338.588	339.82
339.042	316.41
339.495	311.73
339.948	307.05
340.401	297.69
340.854	274.28
341.307	295.35
341.76	293.01
342.213	257.9
342.666	323.43
343.119	321.09
343.571	297.69
344.024	302.37
344.477	335.14
344.929	335.14
345.382	283.64
345.834	370.24
346.287	255.56
346.739	346.84
347.191	332.79
347.644	269.6
348.096	307.05
348.548	278.96
349	332.79
349.452	316.41
349.904	332.79
350.356	328.11
350.808	290.67
351.26	349.18
351.711	295.35
352.163	278.96
352.615	290.67
353.066	271.94
353.518	339.82
353.969	372.58
354.421	295.35
354.872	393.65
355.324	281.3
355.775	330.45
356.226	351.52
356.677	330.45
357.128	337.48
357.579	342.16
358.03	335.14
358.481	311.73
358.932	321.09
359.383	318.75
359.834	349.18
360.285	323.43
360.735	335.14
361.186	353.86
361.637	351.52
362.087	316.41
362.538	367.9
362.988	351.52
363.438	314.07
363.889	363.22
364.339	332.79
364.789	321.09
365.239	344.5
365.689	269.6
366.139	314.07
366.589	302.37
367.039	377.27
367.489	300.03
367.939	370.24
368.389	274.28
368.839	325.77
369.288	288.32
369.738	346.84
370.187	250.88
370.637	307.05
371.086	295.35
371.536	290.67
371.985	412.37
372.434	351.52
372.884	253.22
373.333	283.64
373.782	276.62
374.231	300.03
374.68	307.05
375.129	300.03
375.578	339.82
376.027	381.95
376.475	323.43
376.924	342.16
377.373	267.26
377.822	316.41
378.27	281.3
378.719	297.69
379.167	339.82
379.616	330.45
380.064	309.39
380.512	262.58
380.961	295.35
381.409	325.77
381.857	316.41
382.305	346.84
382.753	271.94
383.201	293.01
383.649	281.3
384.097	290.67
384.545	388.97
384.992	332.79
385.44	358.54
385.888	318.75
386.335	285.98
386.783	269.6
387.231	349.18
387.678	330.45
388.125	285.98
388.573	349.18
389.02	295.35
389.467	321.09
389.914	325.77
390.362	339.82
390.809	297.69
391.256	250.88
391.703	297.69
392.15	304.71
392.596	288.32
393.043	257.9
393.49	328.11
393.937	262.58
394.383	353.86
394.83	257.9
395.276	302.37
395.723	295.35
396.169	346.84
396.616	332.79
397.062	349.18
397.508	335.14
397.954	339.82
398.401	365.56
398.847	363.22
399.293	353.86
399.739	342.16
400.185	325.77
400.631	295.35
401.076	300.03
401.522	332.79
401.968	330.45
402.414	337.48
402.859	339.82
403.305	323.43
403.75	335.14
404.196	377.27
404.641	379.61
405.086	330.45
405.532	302.37
405.977	276.62
406.422	335.14
406.867	344.5
407.312	307.05
407.757	278.96
408.202	321.09
408.647	262.58
409.092	314.07
409.537	314.07
409.982	337.48
410.426	283.64
410.871	295.35
411.316	311.73
411.76	278.96
412.205	328.11
412.649	316.41
413.093	325.77
413.538	335.14
413.982	271.94
414.426	290.67
414.87	314.07
415.314	337.48
415.758	337.48
416.202	360.88
416.646	257.9
417.09	274.28
417.534	356.2
417.978	332.79
418.421	325.77
418.865	283.64
419.309	363.22
419.752	281.3
420.196	344.5
420.639	365.56
421.083	274.28
421.526	267.26
421.969	332.79
422.412	360.88
422.856	337.48
423.299	363.22
423.742	381.95
424.185	325.77
424.628	311.73
425.071	300.03
425.513	300.03
425.956	318.75
426.399	342.16
426.842	321.09
427.284	314.07
427.727	290.67
428.169	342.16
428.612	274.28
429.054	321.09
429.497	325.77
429.939	276.62
430.381	316.41
430.823	283.64
431.265	302.37
431.707	229.81
432.149	288.32
432.591	314.07
433.033	321.09
433.475	330.45
433.917	325.77
434.359	295.35
434.8	278.96
435.242	353.86
435.684	283.64
436.125	295.35
436.567	302.37
437.008	285.98
437.449	370.24
437.891	353.86
438.332	344.5
438.773	311.73
439.214	283.64
439.656	278.96
440.097	267.26
440.538	276.62
440.978	325.77
441.419	339.82
441.86	314.07
442.301	363.22
442.742	325.77
443.182	351.52
443.623	302.37
444.063	325.77
444.504	332.79
444.944	346.84
445.385	335.14
445.825	321.09
446.265	332.79
446.706	400.67
447.146	346.84
447.586	304.71
448.026	349.18
448.466	335.14
448.906	351.52
449.346	328.11
449.786	353.86
450.225	269.6
450.665	337.48
451.105	316.41
451.544	281.3
451.984	421.74
452.424	351.52
452.863	290.67
453.302	370.24
453.742	318.75
454.181	281.3
454.62	293.01
455.059	290.67
455.499	288.32
455.938	323.43
456.377	290.67
456.816	330.45
457.254	309.39
457.693	304.71
458.132	316.41
458.571	318.75
459.01	330.45
459.448	337.48
459.887	321.09
460.325	290.67
460.764	318.75
461.202	297.69
461.641	384.29
462.079	311.73
462.517	309.39
462.955	342.16
463.393	360.88
463.832	271.94
464.27	353.86
464.708	374.92
465.145	363.22
465.583	288.32
466.021	309.39
466.459	342.16
466.897	267.26
467.334	323.43
467.772	276.62
468.209	346.84
468.647	250.88
469.084	307.05
469.522	321.09
469.959	274.28
470.396	346.84
470.833	351.52
471.271	328.11
471.708	321.09
472.145	297.69
472.582	332.79
473.019	344.5
473.456	328.11
473.892	321.09
474.329	285.98
474.766	232.15
475.202	290.67
475.639	337.48
476.076	246.2
476.512	321.09
476.949	285.98
477.385	346.84
477.821	304.71
478.258	358.54
478.694	293.01
479.13	274.28
479.566	295.35
480.002	278.96
480.438	372.58
480.874	293.01
481.31	302.37
481.746	293.01
482.181	370.24
482.617	248.54
483.053	297.69
483.488	335.14
483.924	367.9
484.36	325.77
484.795	293.01
485.23	304.71
485.666	351.52
486.101	377.27
486.536	248.54
486.971	264.92
487.407	381.95
487.842	297.69
488.277	321.09
488.712	297.69
489.146	325.77
489.581	332.79
490.016	323.43
490.451	288.32
490.885	351.52
491.32	323.43
491.755	297.69
492.189	307.05
492.624	342.16
493.058	358.54
493.492	307.05
493.927	337.48
494.361	323.43
494.795	316.41
495.229	339.82
495.663	318.75
496.097	318.75
496.531	307.05
496.965	285.98
497.399	330.45
497.833	290.67
498.266	346.84
498.7	337.48
499.134	410.03
499.567	330.45
500.001	384.29
500.434	290.67
500.868	365.56
501.301	262.58
501.734	367.9
502.168	337.48
502.601	323.43
503.034	318.75
503.467	360.88
503.9	288.32
504.333	328.11
504.766	358.54
505.199	351.52
505.632	353.86
506.064	370.24
506.497	323.43
506.93	283.64
507.362	353.86
507.795	332.79
508.227	311.73
508.66	316.41
509.092	302.37
509.524	318.75
509.956	297.69
510.389	302.37
510.821	337.48
511.253	330.45
511.685	337.48
512.117	417.05
512.549	330.45
512.981	323.43
513.412	302.37
513.844	356.2
514.276	325.77
514.707	349.18
515.139	344.5
515.571	335.14
516.002	234.49
516.433	276.62
516.865	321.09
517.296	234.49
517.727	309.39
518.159	300.03
518.59	260.24
519.021	311.73
519.452	318.75
519.883	300.03
520.314	309.39
520.744	323.43
521.175	302.37
521.606	323.43
522.037	346.84
522.467	351.52
522.898	363.22
523.328	283.64
523.759	330.45
524.189	328.11
524.62	325.77
525.05	337.48
525.48	283.64
525.91	358.54
526.341	323.43
526.771	365.56
527.201	360.88
527.631	311.73
528.061	325.77
528.49	255.56
528.92	337.48
529.35	325.77
529.78	339.82
530.209	304.71
530.639	330.45
531.068	332.79
531.498	285.98
531.927	325.77
532.357	321.09
532.786	358.54
533.215	400.67
533.644	232.15
534.074	370.24
534.503	321.09
534.932	349.18
535.361	379.61
535.79	332.79
536.218	330.45
536.647	307.05
537.076	260.24
537.505	307.05
537.933	316.41
538.362	339.82
538.79	328.11
539.219	384.29
539.647	379.61
540.076	388.97
540.504	250.88
540.932	337.48
541.36	295.35
541.788	269.6
542.217	325.77
542.645	328.11
543.073	276.62
543.5	363.22
543.928	332.79
544.356	342.16
544.784	328.11
545.211	344.5
545.639	309.39
546.067	339.82
546.494	321.09
546.922	304.71
547.349	384.29
547.776	323.43
548.204	335.14
548.631	372.58
549.058	325.77
549.485	304.71
549.912	269.6
550.339	342.16
550.766	262.58
551.193	318.75
551.62	363.22
552.047	304.71
552.474	367.9
552.9	309.39
553.327	276.62
553.754	290.67
554.18	325.77
554.607	405.35
555.033	285.98
555.459	349.18
555.886	342.16
556.312	388.97
556.738	283.64
557.164	232.15
557.59	339.82
558.016	288.32
558.442	330.45
558.868	358.54
559.294	318.75
559.72	274.28
560.145	285.98
560.571	316.41
560.997	293.01
561.422	314.07
561.848	358.54
562.273	316.41
562.699	356.2
563.124	302.37
563.549	363.22
563.974	335.14
564.4	360.88
564.825	370.24
565.25	316.41
565.675	281.3
566.1	346.84
566.525	293.01
566.95	288.32
567.374	285.98
567.799	295.35
568.224	337.48
568.648	372.58
569.073	253.22
569.497	344.5
569.922	307.05
570.346	281.3
570.771	300.03
571.195	332.79
571.619	388.97
572.043	295.35
572.467	300.03
572.891	300.03
573.315	344.5
573.739	307.05
574.163	311.73
574.587	281.3
575.011	332.79
575.435	314.07
575.858	295.35
576.282	297.69
576.705	304.71
577.129	335.14
577.552	288.32
577.976	283.64
578.399	342.16
578.822	325.77
579.245	309.39
579.669	328.11
580.092	325.77
580.515	321.09
580.938	314.07
581.361	304.71
581.784	342.16
582.206	257.9
582.629	321.09
583.052	316.41
583.474	293.01
583.897	335.14
584.32	274.28
584.742	325.77
585.165	314.07
585.587	349.18
586.009	300.03
586.431	339.82
586.854	300.03
587.276	297.69
587.698	283.64
588.12	384.29
588.542	311.73
588.964	304.71
589.386	393.65
589.807	339.82
590.229	295.35
590.651	283.64
591.073	372.58
591.494	318.75
591.916	344.5
592.337	218.11
592.759	353.86
593.18	304.71
593.601	323.43
594.022	267.26
594.444	358.54
594.865	309.39
595.286	381.95
595.707	288.32
596.128	395.99
596.549	372.58
596.97	318.75
597.39	328.11
597.811	276.62
598.232	344.5
598.652	318.75
599.073	318.75
599.494	346.84
599.914	274.28
600.334	342.16
600.755	323.43
601.175	304.71
601.595	304.71
602.015	307.05
602.436	349.18
602.856	410.03
603.276	311.73
603.696	307.05
604.115	285.98
604.535	293.01
604.955	323.43
605.375	302.37
605.794	337.48
606.214	353.86
606.634	395.99
607.053	246.2
607.473	269.6
607.892	328.11
608.311	276.62
608.731	353.86
609.15	321.09
609.569	323.43
609.988	304.71
610.407	307.05
610.826	346.84
611.245	321.09
611.664	316.41
612.083	330.45
612.501	267.26
612.92	323.43
613.339	330.45
613.757	318.75
614.176	321.09
614.594	325.77
615.013	321.09
615.431	386.63
615.85	300.03
616.268	321.09
616.686	337.48
617.104	311.73
617.522	297.69
617.94	318.75
618.358	302.37
618.776	300.03
619.194	339.82
619.612	332.79
620.03	314.07
620.447	250.88
620.865	253.22
621.282	293.01
621.7	353.86
622.117	311.73
622.535	318.75
622.952	304.71
623.369	372.58
623.787	314.07
624.204	311.73
624.621	365.56
625.038	297.69
625.455	328.11
625.872	349.18
626.289	321.09
626.706	276.62
627.123	309.39
627.539	290.67
627.956	316.41
628.373	321.09
628.789	316.41
629.206	285.98
629.622	304.71
630.038	295.35
630.455	316.41
630.871	300.03
631.287	293.01
631.703	302.37
632.12	330.45
632.536	267.26
632.952	351.52
633.368	278.96
633.783	335.14
634.199	293.01
634.615	311.73
635.031	302.37
635.446	323.43
635.862	360.88
636.277	330.45
636.693	349.18
637.108	255.56
637.524	330.45
637.939	241.51
638.354	321.09
638.77	297.69
639.185	302.37
639.6	302.37
640.015	267.26
640.43	307.05
640.845	295.35
641.259	358.54
641.674	353.86
642.089	391.31
642.504	379.61
642.918	367.9
643.333	213.43
643.747	351.52
644.162	360.88
644.576	307.05
644.991	297.69
645.405	346.84
645.819	316.41
646.233	278.96
646.647	290.67
647.061	332.79
647.475	337.48
647.889	304.71
648.303	314.07
648.717	300.03
649.131	339.82
649.545	314.07
649.958	335.14
650.372	307.05
650.785	300.03
651.199	311.73
651.612	325.77
652.026	314.07
652.439	300.03
652.852	365.56
653.266	288.32
653.679	337.48
654.092	283.64
654.505	314.07
654.918	290.67
655.331	309.39
655.744	393.65
656.156	330.45
656.569	288.32
656.982	370.24
657.394	328.11
657.807	300.03
658.22	353.86
658.632	290.67
659.044	325.77
659.457	342.16
659.869	332.79
660.281	295.35
660.693	328.11
661.106	257.9
661.518	311.73
661.93	297.69
662.342	293.01
662.754	346.84
663.165	321.09
663.577	321.09
663.989	328.11
664.401	274.28
664.812	295.35
665.224	302.37
665.635	344.5
666.047	342.16
666.458	321.09
666.869	307.05
667.281	311.73
667.692	215.77
668.103	250.88
668.514	293.01
668.925	295.35
669.336	274.28
669.747	314.07
670.158	300.03
670.569	325.77
670.979	344.5
671.39	297.69
671.801	330.45
672.211	257.9
672.622	290.67
673.032	271.94
673.443	271.94
673.853	307.05
674.263	349.18
674.674	295.35
675.084	253.22
675.494	337.48
675.904	281.3
676.314	335.14
676.724	311.73
677.134	281.3
677.544	384.29
677.953	342.16
678.363	314.07
678.773	335.14
679.182	295.35
679.592	314.07
680.001	367.9
680.411	288.32
680.82	248.54
681.23	283.64
681.639	250.88
682.048	386.63
682.457	370.24
682.866	353.86
683.275	367.9
683.684	285.98
684.093	316.41
684.502	358.54
684.911	304.71
685.32	372.58
685.728	311.73
686.137	309.39
686.546	297.69
686.954	381.95
687.363	285.98
687.771	307.05
688.179	328.11
688.588	337.48
688.996	314.07
689.404	302.37
689.812	328.11
690.22	318.75
690.628	318.75
691.036	269.6
691.444	316.41
691.852	300.03
692.26	309.39
692.667	328.11
693.075	271.94
693.483	318.75
693.89	318.75
694.298	309.39
694.705	365.56
695.112	360.88
695.52	346.84
695.927	351.52
696.334	332.79
696.741	309.39
697.148	297.69
697.555	323.43
697.962	274.28
698.369	349.18
698.776	300.03
699.183	314.07
699.59	274.28
699.996	316.41
700.403	297.69
700.81	356.2
701.216	232.15
701.623	335.14
702.029	271.94
702.435	356.2
702.842	309.39
703.248	337.48
703.654	337.48
704.06	379.61
704.466	346.84
704.872	332.79
705.278	346.84
705.684	328.11
706.09	349.18
706.496	253.22
706.901	330.45
707.307	314.07
707.712	323.43
708.118	316.41
708.523	337.48
708.929	344.5
709.334	293.01
709.74	358.54
710.145	337.48
710.55	337.48
710.955	262.58
711.36	307.05
711.765	335.14
712.17	337.48
712.575	300.03
712.98	838.35
713.385	356.2
713.789	314.07
714.194	332.79
714.599	318.75
715.003	316.41
715.408	300.03
715.812	321.09
716.217	325.77
716.621	388.97
717.025	332.79
717.429	314.07
717.833	358.54
718.238	360.88
718.642	395.99
719.046	307.05
719.449	358.54
719.853	349.18
720.257	316.41
720.661	307.05
721.065	300.03
721.468	278.96
721.872	339.82
722.275	318.75
722.679	323.43
723.082	346.84
723.485	374.92
723.889	302.37
724.292	285.98
724.695	293.01
725.098	281.3
725.501	267.26
725.904	288.32
726.307	264.92
726.71	297.69
727.113	318.75
727.516	335.14
727.918	360.88
728.321	353.86
728.724	300.03
729.126	328.11
729.529	314.07
729.931	274.28
730.333	281.3
730.736	323.43
731.138	281.3
731.54	283.64
731.942	339.82
732.344	328.11
732.746	372.58
733.148	332.79
733.55	330.45
733.952	349.18
734.354	356.2
734.756	285.98
735.157	302.37
735.559	274.28
735.96	250.88
736.362	360.88
736.763	330.45
737.165	316.41
737.566	391.31
737.967	257.9
738.368	377.27
738.77	377.27
739.171	337.48
739.572	328.11
739.973	311.73
740.374	293.01
740.774	316.41
741.175	309.39
741.576	342.16
741.977	344.5
742.377	274.28
742.778	295.35
743.178	285.98
743.579	278.96
743.979	356.2
744.379	321.09
744.78	321.09
745.18	316.41
745.58	318.75
745.98	318.75
746.38	311.73
746.78	307.05
747.18	276.62
747.58	285.98
747.98	323.43
748.38	302.37
748.779	328.11
749.179	321.09
749.578	363.22
749.978	255.56
750.377	232.15
750.777	346.84
751.176	293.01
751.575	281.3
751.975	349.18
752.374	351.52
752.773	342.16
753.172	316.41
753.571	342.16
753.97	335.14
754.369	302.37
754.768	311.73
755.166	323.43
755.565	316.41
755.964	379.61
756.362	335.14
756.761	339.82
757.159	325.77
757.558	379.61
757.956	400.67
758.354	342.16
758.753	311.73
759.151	360.88
759.549	307.05
759.947	374.92
760.345	316.41
760.743	321.09
761.141	297.69
761.539	332.79
761.936	285.98
762.334	262.58
762.732	339.82
763.129	295.35
763.527	325.77
763.924	293.01
