Data from Al_FLMS009871__647__15-00-35-496.txt Node

Date: Fri Mar 08 15:00:35 CST 2024
User: pe5414po
Spectrometer: FLMS00987
Trigger mode: 0
Integration Time (sec): 1.000000E-1
Scans to average: 1
Electric dark correction enabled: true
Nonlinearity correction enabled: false
Boxcar width: 0
XAxis mode: Wavelengths
Number of Pixels in Spectrum: 2048
>>>>>Begin Spectral Data<<<<<
188.938	-64.95
189.409	-64.95
189.879	-64.95
190.349	-130.48
190.819	-121.12
191.29	-102.4
191.76	-86.01
192.23	-111.76
192.7	-102.4
193.17	-32.18
193.64	-13.46
194.109	-1.76
194.579	5.27
195.049	-4.1
195.519	12.29
195.988	7.61
196.458	31.01
196.927	87.18
197.397	68.46
197.866	103.57
198.336	138.68
198.805	169.1
199.274	178.47
199.744	187.83
200.213	220.6
200.682	185.49
201.151	187.83
201.62	248.68
202.089	281.45
202.558	279.11
203.027	260.38
203.495	258.04
203.964	283.79
204.433	262.73
204.902	251.02
205.37	269.75
205.839	321.24
206.307	304.85
206.776	290.81
207.244	269.75
207.712	236.98
208.181	286.13
208.649	283.79
209.117	342.3
209.585	288.47
210.053	272.09
210.521	330.6
210.989	244
211.457	269.75
211.925	288.47
212.393	253.36
212.861	272.09
213.328	211.23
213.796	236.98
214.264	274.43
214.731	253.36
215.199	258.04
215.666	311.88
216.133	229.96
216.601	248.68
217.068	272.09
217.535	283.79
218.003	272.09
218.47	246.34
218.937	236.98
219.404	300.17
219.871	248.68
220.338	183.15
220.805	300.17
221.271	300.17
221.738	225.28
222.205	255.7
222.671	269.75
223.138	290.81
223.605	239.32
224.071	220.6
224.538	267.41
225.004	227.62
225.47	272.09
225.937	269.75
226.403	293.15
226.869	288.47
227.335	239.32
227.801	262.73
228.267	218.25
228.733	286.13
229.199	260.38
229.665	288.47
230.131	281.45
230.597	290.81
231.062	232.3
231.528	321.24
231.994	265.07
232.459	276.77
232.925	262.73
233.39	241.66
233.856	234.64
234.321	286.13
234.786	274.43
235.252	328.26
235.717	274.43
236.182	304.85
236.647	279.11
237.112	253.36
237.577	295.49
238.042	258.04
238.507	236.98
238.972	288.47
239.436	262.73
239.901	339.96
240.366	293.15
240.83	272.09
241.295	251.02
241.76	276.77
242.224	314.22
242.688	267.41
243.153	248.68
243.617	283.79
244.081	236.98
244.545	302.51
245.01	302.51
245.474	279.11
245.938	281.45
246.402	337.62
246.866	244
247.33	258.04
247.793	279.11
248.257	286.13
248.721	286.13
249.185	258.04
249.648	227.62
250.112	325.92
250.575	283.79
251.039	260.38
251.502	265.07
251.965	253.36
252.429	330.6
252.892	276.77
253.355	307.2
253.818	290.81
254.281	262.73
254.744	244
255.207	316.56
255.67	330.6
256.133	248.68
256.596	267.41
257.059	253.36
257.522	330.6
257.984	225.28
258.447	255.7
258.909	288.47
259.372	304.85
259.834	253.36
260.297	314.22
260.759	318.9
261.221	311.88
261.684	302.51
262.146	295.49
262.608	283.79
263.07	300.17
263.532	234.64
263.994	267.41
264.456	246.34
264.918	253.36
265.38	234.64
265.842	295.49
266.303	283.79
266.765	276.77
267.227	248.68
267.688	309.54
268.15	311.88
268.611	276.77
269.072	283.79
269.534	283.79
269.995	314.22
270.456	248.68
270.918	302.51
271.379	267.41
271.84	262.73
272.301	293.15
272.762	279.11
273.223	323.58
273.684	274.43
274.144	337.62
274.605	239.32
275.066	344.64
275.527	255.7
275.987	300.17
276.448	304.85
276.908	330.6
277.369	316.56
277.829	267.41
278.289	272.09
278.75	297.83
279.21	248.68
279.67	269.75
280.13	307.2
280.59	253.36
281.05	269.75
281.51	307.2
281.97	302.51
282.43	325.92
282.89	323.58
283.35	311.88
283.809	279.11
284.269	300.17
284.729	325.92
285.188	283.79
285.648	370.39
286.107	236.98
286.567	276.77
287.026	251.02
287.485	309.54
287.944	232.3
288.404	286.13
288.863	335.28
289.322	288.47
289.781	300.17
290.24	325.92
290.699	265.07
291.158	288.47
291.616	316.56
292.075	295.49
292.534	307.2
292.992	304.85
293.451	251.02
293.91	325.92
294.368	330.6
294.827	349.32
295.285	311.88
295.743	302.51
296.202	255.7
296.66	290.81
297.118	361.03
297.576	379.75
298.034	258.04
298.492	351.67
298.95	300.17
299.408	251.02
299.866	283.79
300.324	251.02
300.781	358.69
301.239	290.81
301.697	241.66
302.154	318.9
302.612	354.01
303.069	276.77
303.527	276.77
303.984	363.37
304.441	290.81
304.899	246.34
305.356	274.43
305.813	288.47
306.27	260.38
306.727	220.6
307.184	346.98
307.641	309.54
308.098	311.88
308.555	260.38
309.012	377.41
309.468	295.49
309.925	300.17
310.382	281.45
310.838	321.24
311.295	286.13
311.751	307.2
312.208	314.22
312.664	309.54
313.12	314.22
313.577	339.96
314.033	297.83
314.489	274.43
314.945	262.73
315.401	283.79
315.857	309.54
316.313	246.34
316.769	281.45
317.225	281.45
317.681	309.54
318.136	337.62
318.592	290.81
319.048	304.85
319.503	337.62
319.959	328.26
320.414	258.04
320.869	290.81
321.325	311.88
321.78	328.26
322.235	318.9
322.691	265.07
323.146	267.41
323.601	262.73
324.056	318.9
324.511	337.62
324.966	267.41
325.421	321.24
325.875	332.94
326.33	286.13
326.785	314.22
327.24	251.02
327.694	248.68
328.149	382.09
328.603	279.11
329.058	321.24
329.512	307.2
329.966	307.2
330.421	316.56
330.875	344.64
331.329	361.03
331.783	321.24
332.237	344.64
332.691	316.56
333.145	358.69
333.599	335.28
334.053	351.67
334.507	236.98
334.96	293.15
335.414	295.49
335.868	368.05
336.321	354.01
336.775	244
337.228	229.96
337.682	307.2
338.135	220.6
338.588	325.92
339.042	262.73
339.495	316.56
339.948	354.01
340.401	255.7
340.854	354.01
341.307	267.41
341.76	302.51
342.213	297.83
342.666	332.94
343.119	325.92
343.571	316.56
344.024	276.77
344.477	307.2
344.929	302.51
345.382	325.92
345.834	269.75
346.287	311.88
346.739	330.6
347.191	262.73
347.644	251.02
348.096	293.15
348.548	304.85
349	356.35
349.452	332.94
349.904	288.47
350.356	276.77
350.808	325.92
351.26	361.03
351.711	325.92
352.163	269.75
352.615	288.47
353.066	265.07
353.518	260.38
353.969	325.92
354.421	335.28
354.872	302.51
355.324	276.77
355.775	260.38
356.226	279.11
356.677	283.79
357.128	318.9
357.579	302.51
358.03	354.01
358.481	293.15
358.932	328.26
359.383	262.73
359.834	323.58
360.285	358.69
360.735	295.49
361.186	295.49
361.637	351.67
362.087	297.83
362.538	276.77
362.988	283.79
363.438	269.75
363.889	316.56
364.339	311.88
364.789	293.15
365.239	323.58
365.689	372.73
366.139	349.32
366.589	328.26
367.039	365.71
367.489	330.6
367.939	293.15
368.389	342.3
368.839	304.85
369.288	281.45
369.738	328.26
370.187	398.48
370.637	190.17
371.086	344.64
371.536	346.98
371.985	332.94
372.434	325.92
372.884	337.62
373.333	325.92
373.782	286.13
374.231	325.92
374.68	311.88
375.129	276.77
375.578	255.7
376.027	279.11
376.475	330.6
376.924	328.26
377.373	232.3
377.822	295.49
378.27	330.6
378.719	309.54
379.167	295.49
379.616	302.51
380.064	325.92
380.512	314.22
380.961	262.73
381.409	311.88
381.857	309.54
382.305	251.02
382.753	297.83
383.201	258.04
383.649	361.03
384.097	253.36
384.545	339.96
384.992	325.92
385.44	339.96
385.888	311.88
386.335	356.35
386.783	332.94
387.231	307.2
387.678	300.17
388.125	248.68
388.573	346.98
389.02	354.01
389.467	288.47
389.914	300.17
390.362	279.11
390.809	342.3
391.256	293.15
391.703	358.69
392.15	309.54
392.596	283.79
393.043	265.07
393.49	304.85
393.937	328.26
394.383	290.81
394.83	258.04
395.276	314.22
395.723	344.64
396.169	318.9
396.616	300.17
397.062	349.32
397.508	335.28
397.954	307.2
398.401	290.81
398.847	356.35
399.293	323.58
399.739	251.02
400.185	344.64
400.631	332.94
401.076	295.49
401.522	311.88
401.968	386.77
402.414	325.92
402.859	354.01
403.305	321.24
403.75	314.22
404.196	304.85
404.641	297.83
405.086	349.32
405.532	337.62
405.977	283.79
406.422	339.96
406.867	302.51
407.312	309.54
407.757	318.9
408.202	286.13
408.647	309.54
409.092	286.13
409.537	309.54
409.982	281.45
410.426	354.01
410.871	323.58
411.316	293.15
411.76	300.17
412.205	239.32
412.649	349.32
413.093	316.56
413.538	332.94
413.982	286.13
414.426	321.24
414.87	328.26
415.314	368.05
415.758	377.41
416.202	297.83
416.646	323.58
417.09	342.3
417.534	370.39
417.978	346.98
418.421	335.28
418.865	330.6
419.309	274.43
419.752	354.01
420.196	323.58
420.639	311.88
421.083	314.22
421.526	346.98
421.969	335.28
422.412	288.47
422.856	328.26
423.299	279.11
423.742	346.98
424.185	302.51
424.628	274.43
425.071	309.54
425.513	279.11
425.956	272.09
426.399	309.54
426.842	337.62
427.284	351.67
427.727	330.6
428.169	295.49
428.612	346.98
429.054	229.96
429.497	316.56
429.939	337.62
430.381	232.3
430.823	276.77
431.265	274.43
431.707	274.43
432.149	342.3
432.591	269.75
433.033	297.83
433.475	290.81
433.917	323.58
434.359	265.07
434.8	288.47
435.242	246.34
435.684	304.85
436.125	316.56
436.567	337.62
437.008	255.7
437.449	332.94
437.891	311.88
438.332	358.69
438.773	328.26
439.214	258.04
439.656	325.92
440.097	370.39
440.538	304.85
440.978	351.67
441.419	274.43
441.86	354.01
442.301	311.88
442.742	349.32
443.182	293.15
443.623	351.67
444.063	321.24
444.504	365.71
444.944	272.09
445.385	337.62
445.825	372.73
446.265	323.58
446.706	272.09
447.146	323.58
447.586	314.22
448.026	354.01
448.466	302.51
448.906	318.9
449.346	368.05
449.786	321.24
450.225	344.64
450.665	323.58
451.105	244
451.544	286.13
451.984	290.81
452.424	344.64
452.863	311.88
453.302	318.9
453.742	325.92
454.181	276.77
454.62	330.6
455.059	286.13
455.499	272.09
455.938	330.6
456.377	297.83
456.816	276.77
457.254	307.2
457.693	253.36
458.132	318.9
458.571	274.43
459.01	339.96
459.448	269.75
459.887	318.9
460.325	384.43
460.764	258.04
461.202	323.58
461.641	368.05
462.079	253.36
462.517	328.26
462.955	354.01
463.393	400.82
463.832	281.45
464.27	332.94
464.708	286.13
465.145	283.79
465.583	279.11
466.021	286.13
466.459	283.79
466.897	330.6
467.334	328.26
467.772	368.05
468.209	339.96
468.647	323.58
469.084	346.98
469.522	267.41
469.959	351.67
470.396	295.49
470.833	293.15
471.271	314.22
471.708	330.6
472.145	330.6
472.582	358.69
473.019	346.98
473.456	307.2
473.892	304.85
474.329	295.49
474.766	332.94
475.202	304.85
475.639	335.28
476.076	260.38
476.512	330.6
476.949	377.41
477.385	269.75
477.821	279.11
478.258	311.88
478.694	304.85
479.13	281.45
479.566	269.75
480.002	274.43
480.438	262.73
480.874	382.09
481.31	328.26
481.746	288.47
482.181	356.35
482.617	342.3
483.053	339.96
483.488	318.9
483.924	246.34
484.36	323.58
484.795	344.64
485.23	351.67
485.666	304.85
486.101	281.45
486.536	246.34
486.971	288.47
487.407	302.51
487.842	335.28
488.277	342.3
488.712	365.71
489.146	339.96
489.581	309.54
490.016	288.47
490.451	363.37
490.885	295.49
491.32	309.54
491.755	272.09
492.189	358.69
492.624	265.07
493.058	279.11
493.492	300.17
493.927	328.26
494.361	309.54
494.795	328.26
495.229	297.83
495.663	290.81
496.097	375.07
496.531	258.04
496.965	314.22
497.399	311.88
497.833	342.3
498.266	304.85
498.7	321.24
499.134	293.15
499.567	290.81
500.001	321.24
500.434	283.79
500.868	328.26
501.301	272.09
501.734	337.62
502.168	361.03
502.601	365.71
503.034	332.94
503.467	239.32
503.9	328.26
504.333	297.83
504.766	262.73
505.199	354.01
505.632	307.2
506.064	323.58
506.497	339.96
506.93	248.68
507.362	288.47
507.795	288.47
508.227	297.83
508.66	356.35
509.092	283.79
509.524	307.2
509.956	335.28
510.389	363.37
510.821	332.94
511.253	267.41
511.685	265.07
512.117	354.01
512.549	274.43
512.981	260.38
513.412	222.94
513.844	286.13
514.276	265.07
514.707	356.35
515.139	288.47
515.571	302.51
516.002	311.88
516.433	295.49
516.865	342.3
517.296	283.79
517.727	351.67
518.159	309.54
518.59	349.32
519.021	335.28
519.452	300.17
519.883	339.96
520.314	361.03
520.744	295.49
521.175	368.05
521.606	295.49
522.037	365.71
522.467	349.32
522.898	307.2
523.328	328.26
523.759	311.88
524.189	309.54
524.62	323.58
525.05	297.83
525.48	342.3
525.91	295.49
526.341	253.36
526.771	297.83
527.201	307.2
527.631	302.51
528.061	354.01
528.49	332.94
528.92	279.11
529.35	354.01
529.78	304.85
530.209	339.96
530.639	335.28
531.068	335.28
531.498	330.6
531.927	372.73
532.357	304.85
532.786	288.47
533.215	325.92
533.644	318.9
534.074	302.51
534.503	349.32
534.932	265.07
535.361	307.2
535.79	337.62
536.218	267.41
536.647	286.13
537.076	342.3
537.505	316.56
537.933	323.58
538.362	321.24
538.79	307.2
539.219	325.92
539.647	339.96
540.076	260.38
540.504	323.58
540.932	372.73
541.36	297.83
541.788	314.22
542.217	293.15
542.645	335.28
543.073	368.05
543.5	283.79
543.928	377.41
544.356	332.94
544.784	321.24
545.211	286.13
545.639	318.9
546.067	389.11
546.494	339.96
546.922	304.85
547.349	316.56
547.776	290.81
548.204	316.56
548.631	276.77
549.058	307.2
549.485	297.83
549.912	304.85
550.339	405.5
550.766	307.2
551.193	279.11
551.62	302.51
552.047	344.64
552.474	309.54
552.9	307.2
553.327	283.79
553.754	328.26
554.18	279.11
554.607	384.43
555.033	293.15
555.459	356.35
555.886	328.26
556.312	368.05
556.738	286.13
557.164	295.49
557.59	267.41
558.016	276.77
558.442	290.81
558.868	241.66
559.294	269.75
559.72	302.51
560.145	279.11
560.571	295.49
560.997	372.73
561.422	297.83
561.848	328.26
562.273	283.79
562.699	302.51
563.124	344.64
563.549	325.92
563.974	267.41
564.4	267.41
564.825	290.81
565.25	241.66
565.675	279.11
566.1	218.25
566.525	330.6
566.95	290.81
567.374	316.56
567.799	274.43
568.224	276.77
568.648	323.58
569.073	295.49
569.497	241.66
569.922	258.04
570.346	274.43
570.771	297.83
571.195	349.32
571.619	311.88
572.043	321.24
572.467	272.09
572.891	311.88
573.315	318.9
573.739	314.22
574.163	309.54
574.587	295.49
575.011	342.3
575.435	332.94
575.858	321.24
576.282	262.73
576.705	265.07
577.129	335.28
577.552	358.69
577.976	370.39
578.399	318.9
578.822	323.58
579.245	307.2
579.669	337.62
580.092	307.2
580.515	328.26
580.938	307.2
581.361	330.6
581.784	323.58
582.206	325.92
582.629	370.39
583.052	274.43
583.474	323.58
583.897	283.79
584.32	325.92
584.742	283.79
585.165	384.43
585.587	255.7
586.009	290.81
586.431	330.6
586.854	361.03
587.276	300.17
587.698	309.54
588.12	337.62
588.542	276.77
588.964	344.64
589.386	332.94
589.807	365.71
590.229	309.54
590.651	227.62
591.073	330.6
591.494	335.28
591.916	309.54
592.337	300.17
592.759	361.03
593.18	300.17
593.601	227.62
594.022	253.36
594.444	323.58
594.865	321.24
595.286	258.04
595.707	323.58
596.128	290.81
596.549	325.92
596.97	314.22
597.39	321.24
597.811	321.24
598.232	300.17
598.652	330.6
599.073	293.15
599.494	346.98
599.914	253.36
600.334	267.41
600.755	318.9
601.175	295.49
601.595	304.85
602.015	267.41
602.436	288.47
602.856	426.56
603.276	349.32
603.696	339.96
604.115	307.2
604.535	396.14
604.955	307.2
605.375	361.03
605.794	267.41
606.214	307.2
606.634	248.68
607.053	311.88
607.473	311.88
607.892	335.28
608.311	288.47
608.731	335.28
609.15	248.68
609.569	375.07
609.988	325.92
610.407	311.88
610.826	335.28
611.245	339.96
611.664	342.3
612.083	297.83
612.501	337.62
612.92	302.51
613.339	286.13
613.757	382.09
614.176	321.24
614.594	276.77
615.013	300.17
615.431	288.47
615.85	307.2
616.268	309.54
616.686	293.15
617.104	295.49
617.522	302.51
617.94	255.7
618.358	258.04
618.776	300.17
619.194	279.11
619.612	309.54
620.03	365.71
620.447	339.96
620.865	290.81
621.282	316.56
621.7	361.03
622.117	281.45
622.535	342.3
622.952	318.9
623.369	363.37
623.787	307.2
624.204	365.71
624.621	349.32
625.038	361.03
625.455	335.28
625.872	330.6
626.289	342.3
626.706	286.13
627.123	288.47
627.539	288.47
627.956	332.94
628.373	321.24
628.789	265.07
629.206	354.01
629.622	330.6
630.038	382.09
630.455	346.98
630.871	309.54
631.287	382.09
631.703	295.49
632.12	302.51
632.536	346.98
632.952	304.85
633.368	316.56
633.783	293.15
634.199	304.85
634.615	281.45
635.031	325.92
635.446	279.11
635.862	276.77
636.277	283.79
636.693	304.85
637.108	335.28
637.524	349.32
637.939	293.15
638.354	314.22
638.77	382.09
639.185	349.32
639.6	300.17
640.015	379.75
640.43	344.64
640.845	339.96
641.259	379.75
641.674	300.17
642.089	344.64
642.504	330.6
642.918	304.85
643.333	325.92
643.747	300.17
644.162	283.79
644.576	314.22
644.991	246.34
645.405	311.88
645.819	351.67
646.233	220.6
646.647	354.01
647.061	300.17
647.475	304.85
647.889	311.88
648.303	316.56
648.717	349.32
649.131	286.13
649.545	321.24
649.958	304.85
650.372	307.2
650.785	272.09
651.199	302.51
651.612	290.81
652.026	302.51
652.439	307.2
652.852	361.03
653.266	337.62
653.679	304.85
654.092	304.85
654.505	269.75
654.918	325.92
655.331	318.9
655.744	293.15
656.156	358.69
656.569	297.83
656.982	386.77
657.394	281.45
657.807	318.9
658.22	281.45
658.632	293.15
659.044	337.62
659.457	332.94
659.869	295.49
660.281	328.26
660.693	328.26
661.106	295.49
661.518	283.79
661.93	283.79
662.342	342.3
662.754	351.67
663.165	354.01
663.577	281.45
663.989	323.58
664.401	321.24
664.812	386.77
665.224	339.96
665.635	337.62
666.047	325.92
666.458	351.67
666.869	346.98
667.281	267.41
667.692	323.58
668.103	288.47
668.514	349.32
668.925	300.17
669.336	325.92
669.747	339.96
670.158	297.83
670.569	286.13
670.979	379.75
671.39	194.85
671.801	290.81
672.211	311.88
672.622	339.96
673.032	316.56
673.443	330.6
673.853	286.13
674.263	309.54
674.674	276.77
675.084	339.96
675.494	281.45
675.904	372.73
676.314	304.85
676.724	297.83
677.134	328.26
677.544	309.54
677.953	311.88
678.363	316.56
678.773	335.28
679.182	337.62
679.592	361.03
680.001	309.54
680.411	232.3
680.82	321.24
681.23	281.45
681.639	265.07
682.048	337.62
682.457	335.28
682.866	328.26
683.275	253.36
683.684	328.26
684.093	262.73
684.502	372.73
684.911	267.41
685.32	365.71
685.728	356.35
686.137	318.9
686.546	311.88
686.954	236.98
687.363	290.81
687.771	244
688.179	258.04
688.588	361.03
688.996	328.26
689.404	318.9
689.812	300.17
690.22	382.09
690.628	311.88
691.036	295.49
691.444	318.9
691.852	304.85
692.26	316.56
692.667	262.73
693.075	344.64
693.483	318.9
693.89	236.98
694.298	335.28
694.705	384.43
695.112	358.69
695.52	323.58
695.927	351.67
696.334	344.64
696.741	314.22
697.148	365.71
697.555	321.24
697.962	316.56
698.369	321.24
698.776	339.96
699.183	365.71
699.59	314.22
699.996	302.51
700.403	346.98
700.81	290.81
701.216	323.58
701.623	241.66
702.029	314.22
702.435	281.45
702.842	351.67
703.248	279.11
703.654	316.56
704.06	269.75
704.466	342.3
704.872	283.79
705.278	302.51
705.684	307.2
706.09	293.15
706.496	321.24
706.901	351.67
707.307	351.67
707.712	260.38
708.118	346.98
708.523	309.54
708.929	297.83
709.334	344.64
709.74	265.07
710.145	346.98
710.55	300.17
710.955	302.51
711.36	330.6
711.765	332.94
712.17	351.67
712.575	375.07
712.98	838.5
713.385	323.58
713.789	358.69
714.194	274.43
714.599	314.22
715.003	316.56
715.408	307.2
715.812	351.67
716.217	290.81
716.621	321.24
717.025	321.24
717.429	302.51
717.833	307.2
718.238	290.81
718.642	267.41
719.046	328.26
719.449	281.45
719.853	232.3
720.257	239.32
720.661	321.24
721.065	337.62
721.468	323.58
721.872	344.64
722.275	251.02
722.679	304.85
723.082	290.81
723.485	297.83
723.889	302.51
724.292	405.5
724.695	279.11
725.098	337.62
725.501	255.7
725.904	318.9
726.307	332.94
726.71	321.24
727.113	276.77
727.516	318.9
727.918	328.26
728.321	325.92
728.724	258.04
729.126	349.32
729.529	286.13
729.931	337.62
730.333	307.2
730.736	302.51
731.138	272.09
731.54	325.92
731.942	346.98
732.344	344.64
732.746	281.45
733.148	286.13
733.55	297.83
733.952	258.04
734.354	316.56
734.756	346.98
735.157	368.05
735.559	316.56
735.96	293.15
736.362	236.98
736.763	370.39
737.165	323.58
737.566	283.79
737.967	267.41
738.368	342.3
738.77	302.51
739.171	311.88
739.572	272.09
739.973	325.92
740.374	288.47
740.774	342.3
741.175	272.09
741.576	281.45
741.977	311.88
742.377	335.28
742.778	302.51
743.178	295.49
743.579	281.45
743.979	365.71
744.379	269.75
744.78	295.49
745.18	269.75
745.58	304.85
745.98	309.54
746.38	344.64
746.78	307.2
747.18	297.83
747.58	316.56
747.98	309.54
748.38	227.62
748.779	293.15
749.179	349.32
749.578	293.15
749.978	318.9
750.377	318.9
750.777	300.17
751.176	244
751.575	361.03
751.975	300.17
752.374	375.07
752.773	267.41
753.172	295.49
753.571	349.32
753.97	300.17
754.369	342.3
754.768	349.32
755.166	354.01
755.565	286.13
755.964	356.35
756.362	288.47
756.761	272.09
757.159	283.79
757.558	349.32
757.956	286.13
758.354	335.28
758.753	314.22
759.151	267.41
759.549	304.85
759.947	241.66
760.345	349.32
760.743	316.56
761.141	363.37
761.539	279.11
761.936	265.07
762.334	323.58
762.732	283.79
763.129	410.18
763.527	279.11
763.924	328.26
764.322	297.83
764.719	258.04
765.117	316.56
765.514	274.43
765.911	229.96
