Data from Al_FLMS009871__646__15-00-35-396.txt Node

Date: Fri Mar 08 15:00:35 CST 2024
User: pe5414po
Spectrometer: FLMS00987
Trigger mode: 0
Integration Time (sec): 1.000000E-1
Scans to average: 1
Electric dark correction enabled: true
Nonlinearity correction enabled: false
Boxcar width: 0
XAxis mode: Wavelengths
Number of Pixels in Spectrum: 2048
>>>>>Begin Spectral Data<<<<<
188.938	-77.53
189.409	-77.53
189.879	-77.53
190.349	-147.75
190.819	-72.85
191.29	-58.81
191.76	-72.85
192.23	-68.17
192.7	-98.6
193.17	-14.34
193.64	-49.44
194.109	-107.96
194.579	-21.36
195.049	-19.02
195.519	18.43
195.988	81.63
196.458	60.56
196.927	67.58
197.397	39.5
197.866	128.44
198.336	114.39
198.805	163.54
199.274	210.36
199.744	219.72
200.213	170.57
200.682	205.67
201.151	196.31
201.62	238.44
202.089	238.44
202.558	308.66
203.027	296.96
203.495	226.74
203.964	247.8
204.433	247.8
204.902	250.14
205.37	273.55
205.839	215.04
206.307	229.08
206.776	299.3
207.244	259.51
207.712	261.85
208.181	325.04
208.649	275.89
209.117	357.81
209.585	268.87
210.053	236.1
210.521	264.19
210.989	280.57
211.457	280.57
211.925	311
212.393	308.66
212.861	229.08
213.328	287.59
213.796	217.38
214.264	289.93
214.731	250.14
215.199	215.04
215.666	236.1
216.133	252.49
216.601	259.51
217.068	250.14
217.535	329.72
218.003	252.49
218.47	292.27
218.937	268.87
219.404	296.96
219.871	210.36
220.338	301.64
220.805	275.89
221.271	226.74
221.738	268.87
222.205	229.08
222.671	313.34
223.138	327.38
223.605	233.76
224.071	240.78
224.538	233.76
225.004	266.53
225.47	222.06
225.937	222.06
226.403	282.91
226.869	226.74
227.335	289.93
227.801	231.42
228.267	311
228.733	280.57
229.199	261.85
229.665	226.74
230.131	254.83
230.597	299.3
231.062	268.87
231.528	236.1
231.994	289.93
232.459	247.8
232.925	311
233.39	320.36
233.856	327.38
234.321	306.32
234.786	275.89
235.252	271.21
235.717	257.17
236.182	254.83
236.647	236.1
237.112	215.04
237.577	236.1
238.042	280.57
238.507	238.44
238.972	238.44
239.436	226.74
239.901	257.17
240.366	278.23
240.83	303.98
241.295	318.02
241.76	275.89
242.224	257.17
242.688	296.96
243.153	257.17
243.617	287.59
244.081	252.49
244.545	289.93
245.01	217.38
245.474	285.25
245.938	259.51
246.402	245.46
246.866	231.42
247.33	280.57
247.793	238.44
248.257	250.14
248.721	215.04
249.185	245.46
249.648	240.78
250.112	275.89
250.575	287.59
251.039	320.36
251.502	215.04
251.965	268.87
252.429	210.36
252.892	264.19
253.355	294.61
253.818	250.14
254.281	254.83
254.744	299.3
255.207	271.21
255.67	252.49
256.133	254.83
256.596	266.53
257.059	296.96
257.522	376.53
257.984	254.83
258.447	275.89
258.909	303.98
259.372	189.29
259.834	322.7
260.297	261.85
260.759	261.85
261.221	252.49
261.684	271.21
262.146	275.89
262.608	292.27
263.07	250.14
263.532	296.96
263.994	362.49
264.456	285.25
264.918	280.57
265.38	273.55
265.842	278.23
266.303	296.96
266.765	280.57
267.227	245.46
267.688	303.98
268.15	273.55
268.611	315.68
269.072	245.46
269.534	210.36
269.995	341.43
270.456	271.21
270.918	306.32
271.379	308.66
271.84	294.61
272.301	280.57
272.762	287.59
273.223	339.09
273.684	259.51
274.144	346.11
274.605	334.4
275.066	254.83
275.527	261.85
275.987	212.7
276.448	282.91
276.908	287.59
277.369	280.57
277.829	296.96
278.289	268.87
278.75	318.02
279.21	301.64
279.67	320.36
280.13	315.68
280.59	240.78
281.05	250.14
281.51	243.12
281.97	280.57
282.43	292.27
282.89	282.91
283.35	254.83
283.809	329.72
284.269	292.27
284.729	308.66
285.188	336.74
285.648	285.25
286.107	285.25
286.567	303.98
287.026	282.91
287.485	301.64
287.944	336.74
288.404	332.06
288.863	275.89
289.322	299.3
289.781	336.74
290.24	273.55
290.699	289.93
291.158	318.02
291.616	320.36
292.075	245.46
292.534	252.49
292.992	306.32
293.451	325.04
293.91	285.25
294.368	266.53
294.827	315.68
295.285	315.68
295.743	357.81
296.202	299.3
296.66	346.11
297.118	292.27
297.576	282.91
298.034	280.57
298.492	311
298.95	273.55
299.408	266.53
299.866	308.66
300.324	264.19
300.781	247.8
301.239	285.25
301.697	313.34
302.154	231.42
302.612	332.06
303.069	280.57
303.527	308.66
303.984	336.74
304.441	306.32
304.899	350.79
305.356	278.23
305.813	311
306.27	292.27
306.727	282.91
307.184	313.34
307.641	296.96
308.098	303.98
308.555	303.98
309.012	275.89
309.468	252.49
309.925	306.32
310.382	303.98
310.838	332.06
311.295	243.12
311.751	282.91
312.208	296.96
312.664	294.61
313.12	271.21
313.577	311
314.033	327.38
314.489	273.55
314.945	271.21
315.401	348.45
315.857	299.3
316.313	301.64
316.769	318.02
317.225	292.27
317.681	299.3
318.136	339.09
318.592	238.44
319.048	278.23
319.503	271.21
319.959	268.87
320.414	285.25
320.869	280.57
321.325	292.27
321.78	254.83
322.235	353.13
322.691	318.02
323.146	296.96
323.601	299.3
324.056	308.66
324.511	343.77
324.966	315.68
325.421	278.23
325.875	259.51
326.33	296.96
326.785	306.32
327.24	278.23
327.694	231.42
328.149	334.4
328.603	236.1
329.058	254.83
329.512	287.59
329.966	315.68
330.421	268.87
330.875	313.34
331.329	318.02
331.783	254.83
332.237	292.27
332.691	296.96
333.145	299.3
333.599	292.27
334.053	332.06
334.507	294.61
334.96	376.53
335.414	311
335.868	332.06
336.321	247.8
336.775	285.25
337.228	332.06
337.682	229.08
338.135	266.53
338.588	327.38
339.042	252.49
339.495	313.34
339.948	374.19
340.401	308.66
340.854	325.04
341.307	282.91
341.76	308.66
342.213	348.45
342.666	301.64
343.119	278.23
343.571	294.61
344.024	315.68
344.477	289.93
344.929	341.43
345.382	339.09
345.834	294.61
346.287	320.36
346.739	226.74
347.191	238.44
347.644	238.44
348.096	303.98
348.548	252.49
349	299.3
349.452	303.98
349.904	350.79
350.356	257.17
350.808	278.23
351.26	287.59
351.711	322.7
352.163	299.3
352.615	285.25
353.066	282.91
353.518	273.55
353.969	299.3
354.421	245.46
354.872	332.06
355.324	327.38
355.775	289.93
356.226	329.72
356.677	275.89
357.128	285.25
357.579	301.64
358.03	264.19
358.481	224.4
358.932	261.85
359.383	294.61
359.834	308.66
360.285	271.21
360.735	325.04
361.186	306.32
361.637	266.53
362.087	292.27
362.538	278.23
362.988	254.83
363.438	287.59
363.889	327.38
364.339	313.34
364.789	282.91
365.239	303.98
365.689	278.23
366.139	273.55
366.589	261.85
367.039	318.02
367.489	285.25
367.939	292.27
368.389	280.57
368.839	315.68
369.288	311
369.738	294.61
370.187	285.25
370.637	371.85
371.086	320.36
371.536	271.21
371.985	346.11
372.434	294.61
372.884	329.72
373.333	289.93
373.782	320.36
374.231	311
374.68	280.57
375.129	271.21
375.578	296.96
376.027	266.53
376.475	336.74
376.924	264.19
377.373	311
377.822	315.68
378.27	303.98
378.719	343.77
379.167	303.98
379.616	336.74
380.064	362.49
380.512	299.3
380.961	311
381.409	336.74
381.857	329.72
382.305	282.91
382.753	343.77
383.201	294.61
383.649	273.55
384.097	322.7
384.545	322.7
384.992	250.14
385.44	308.66
385.888	364.83
386.335	303.98
386.783	252.49
387.231	320.36
387.678	282.91
388.125	301.64
388.573	336.74
389.02	278.23
389.467	355.47
389.914	313.34
390.362	280.57
390.809	334.4
391.256	301.64
391.703	296.96
392.15	275.89
392.596	339.09
393.043	292.27
393.49	257.17
393.937	325.04
394.383	247.8
394.83	289.93
395.276	308.66
395.723	289.93
396.169	343.77
396.616	313.34
397.062	259.51
397.508	292.27
397.954	315.68
398.401	334.4
398.847	271.21
399.293	325.04
399.739	318.02
400.185	329.72
400.631	264.19
401.076	282.91
401.522	273.55
401.968	362.49
402.414	322.7
402.859	308.66
403.305	285.25
403.75	327.38
404.196	357.81
404.641	318.02
405.086	311
405.532	364.83
405.977	329.72
406.422	346.11
406.867	329.72
407.312	299.3
407.757	278.23
408.202	341.43
408.647	278.23
409.092	322.7
409.537	301.64
409.982	306.32
410.426	364.83
410.871	278.23
411.316	322.7
411.76	355.47
412.205	320.36
412.649	296.96
413.093	278.23
413.538	280.57
413.982	296.96
414.426	271.21
414.87	325.04
415.314	315.68
415.758	362.49
416.202	315.68
416.646	306.32
417.09	381.21
417.534	320.36
417.978	282.91
418.421	301.64
418.865	296.96
419.309	339.09
419.752	294.61
420.196	355.47
420.639	289.93
421.083	306.32
421.526	332.06
421.969	318.02
422.412	315.68
422.856	329.72
423.299	306.32
423.742	341.43
424.185	292.27
424.628	292.27
425.071	313.34
425.513	292.27
425.956	322.7
426.399	341.43
426.842	313.34
427.284	327.38
427.727	252.49
428.169	318.02
428.612	346.11
429.054	313.34
429.497	282.91
429.939	292.27
430.381	259.51
430.823	278.23
431.265	383.56
431.707	303.98
432.149	332.06
432.591	357.81
433.033	264.19
433.475	343.77
433.917	303.98
434.359	299.3
434.8	350.79
435.242	341.43
435.684	273.55
436.125	238.44
436.567	292.27
437.008	271.21
437.449	336.74
437.891	289.93
438.332	369.51
438.773	355.47
439.214	259.51
439.656	240.78
440.097	325.04
440.538	336.74
440.978	315.68
441.419	287.59
441.86	268.87
442.301	325.04
442.742	329.72
443.182	343.77
443.623	357.81
444.063	296.96
444.504	278.23
444.944	303.98
445.385	278.23
445.825	332.06
446.265	357.81
446.706	259.51
447.146	364.83
447.586	371.85
448.026	336.74
448.466	406.96
448.906	329.72
449.346	334.4
449.786	329.72
450.225	329.72
450.665	350.79
451.105	332.06
451.544	292.27
451.984	294.61
452.424	392.92
452.863	303.98
453.302	346.11
453.742	299.3
454.181	378.87
454.62	339.09
455.059	350.79
455.499	390.58
455.938	292.27
456.377	360.15
456.816	289.93
457.254	318.02
457.693	292.27
458.132	318.02
458.571	318.02
459.01	282.91
459.448	339.09
459.887	313.34
460.325	212.7
460.764	320.36
461.202	275.89
461.641	313.34
462.079	308.66
462.517	329.72
462.955	327.38
463.393	313.34
463.832	275.89
464.27	334.4
464.708	289.93
465.145	343.77
465.583	266.53
466.021	294.61
466.459	311
466.897	296.96
467.334	320.36
467.772	332.06
468.209	360.15
468.647	275.89
469.084	315.68
469.522	271.21
469.959	243.12
470.396	294.61
470.833	294.61
471.271	278.23
471.708	287.59
472.145	301.64
472.582	336.74
473.019	280.57
473.456	301.64
473.892	282.91
474.329	327.38
474.766	362.49
475.202	343.77
475.639	280.57
476.076	355.47
476.512	325.04
476.949	367.17
477.385	301.64
477.821	334.4
478.258	282.91
478.694	353.13
479.13	299.3
479.566	289.93
480.002	278.23
480.438	243.12
480.874	357.81
481.31	296.96
481.746	273.55
482.181	320.36
482.617	348.45
483.053	294.61
483.488	296.96
483.924	313.34
484.36	280.57
484.795	271.21
485.23	294.61
485.666	282.91
486.101	322.7
486.536	306.32
486.971	343.77
487.407	341.43
487.842	350.79
488.277	374.19
488.712	292.27
489.146	343.77
489.581	341.43
490.016	322.7
490.451	278.23
490.885	313.34
491.32	278.23
491.755	313.34
492.189	364.83
492.624	339.09
493.058	327.38
493.492	273.55
493.927	327.38
494.361	273.55
494.795	313.34
495.229	268.87
495.663	318.02
496.097	296.96
496.531	271.21
496.965	350.79
497.399	268.87
497.833	329.72
498.266	329.72
498.7	343.77
499.134	299.3
499.567	311
500.001	322.7
500.434	350.79
500.868	325.04
501.301	306.32
501.734	308.66
502.168	355.47
502.601	318.02
503.034	278.23
503.467	231.42
503.9	306.32
504.333	311
504.766	282.91
505.199	287.59
505.632	306.32
506.064	348.45
506.497	336.74
506.93	341.43
507.362	390.58
507.795	339.09
508.227	257.17
508.66	306.32
509.092	369.51
509.524	268.87
509.956	346.11
510.389	289.93
510.821	296.96
511.253	280.57
511.685	320.36
512.117	292.27
512.549	301.64
512.981	348.45
513.412	339.09
513.844	299.3
514.276	374.19
514.707	322.7
515.139	355.47
515.571	332.06
516.002	264.19
516.433	353.13
516.865	289.93
517.296	268.87
517.727	313.34
518.159	285.25
518.59	329.72
519.021	278.23
519.452	273.55
519.883	355.47
520.314	294.61
520.744	332.06
521.175	343.77
521.606	308.66
522.037	212.7
522.467	285.25
522.898	238.44
523.328	240.78
523.759	306.32
524.189	357.81
524.62	313.34
525.05	355.47
525.48	273.55
525.91	292.27
526.341	308.66
526.771	299.3
527.201	250.14
527.631	318.02
528.061	299.3
528.49	287.59
528.92	329.72
529.35	343.77
529.78	306.32
530.209	292.27
530.639	179.93
531.068	355.47
531.498	296.96
531.927	287.59
532.357	327.38
532.786	388.24
533.215	306.32
533.644	273.55
534.074	306.32
534.503	348.45
534.932	303.98
535.361	282.91
535.79	266.53
536.218	278.23
536.647	252.49
537.076	266.53
537.505	285.25
537.933	294.61
538.362	325.04
538.79	245.46
539.219	341.43
539.647	322.7
540.076	271.21
540.504	292.27
540.932	308.66
541.36	336.74
541.788	294.61
542.217	353.13
542.645	275.89
543.073	287.59
543.5	296.96
543.928	327.38
544.356	282.91
544.784	336.74
545.211	282.91
545.639	353.13
546.067	325.04
546.494	341.43
546.922	371.85
547.349	308.66
547.776	371.85
548.204	311
548.631	360.15
549.058	278.23
549.485	296.96
549.912	329.72
550.339	299.3
550.766	322.7
551.193	273.55
551.62	292.27
552.047	346.11
552.474	296.96
552.9	285.25
553.327	318.02
553.754	271.21
554.18	254.83
554.607	353.13
555.033	346.11
555.459	357.81
555.886	311
556.312	303.98
556.738	273.55
557.164	334.4
557.59	289.93
558.016	402.28
558.442	275.89
558.868	308.66
559.294	395.26
559.72	311
560.145	343.77
560.571	294.61
560.997	287.59
561.422	308.66
561.848	336.74
562.273	329.72
562.699	294.61
563.124	264.19
563.549	320.36
563.974	357.81
564.4	303.98
564.825	313.34
565.25	289.93
565.675	308.66
566.1	285.25
566.525	299.3
566.95	336.74
567.374	315.68
567.799	334.4
568.224	303.98
568.648	240.78
569.073	357.81
569.497	292.27
569.922	357.81
570.346	318.02
570.771	282.91
571.195	327.38
571.619	289.93
572.043	364.83
572.467	231.42
572.891	313.34
573.315	273.55
573.739	367.17
574.163	376.53
574.587	296.96
575.011	299.3
575.435	378.87
575.858	266.53
576.282	322.7
576.705	287.59
577.129	292.27
577.552	308.66
577.976	332.06
578.399	355.47
578.822	273.55
579.245	280.57
579.669	334.4
580.092	313.34
580.515	306.32
580.938	266.53
581.361	409.3
581.784	357.81
582.206	299.3
582.629	325.04
583.052	336.74
583.474	376.53
583.897	233.76
584.32	325.04
584.742	339.09
585.165	315.68
585.587	355.47
586.009	296.96
586.431	320.36
586.854	327.38
587.276	296.96
587.698	334.4
588.12	315.68
588.542	318.02
588.964	301.64
589.386	292.27
589.807	320.36
590.229	259.51
590.651	334.4
591.073	318.02
591.494	271.21
591.916	294.61
592.337	334.4
592.759	315.68
593.18	320.36
593.601	320.36
594.022	266.53
594.444	254.83
594.865	311
595.286	289.93
595.707	318.02
596.128	322.7
596.549	303.98
596.97	346.11
597.39	320.36
597.811	301.64
598.232	299.3
598.652	336.74
599.073	315.68
599.494	289.93
599.914	243.12
600.334	306.32
600.755	264.19
601.175	315.68
601.595	301.64
602.015	367.17
602.436	320.36
602.856	477.18
603.276	325.04
603.696	369.51
604.115	313.34
604.535	327.38
604.955	362.49
605.375	311
605.794	299.3
606.214	303.98
606.634	329.72
607.053	348.45
607.473	294.61
607.892	334.4
608.311	318.02
608.731	303.98
609.15	303.98
609.569	313.34
609.988	268.87
610.407	292.27
610.826	346.11
611.245	360.15
611.664	261.85
612.083	343.77
612.501	289.93
612.92	301.64
613.339	346.11
613.757	292.27
614.176	306.32
614.594	301.64
615.013	313.34
615.431	353.13
615.85	303.98
616.268	268.87
616.686	303.98
617.104	336.74
617.522	315.68
617.94	369.51
618.358	325.04
618.776	233.76
619.194	334.4
619.612	385.9
620.03	318.02
620.447	315.68
620.865	334.4
621.282	273.55
621.7	327.38
622.117	287.59
622.535	367.17
622.952	278.23
623.369	327.38
623.787	362.49
624.204	282.91
624.621	238.44
625.038	292.27
625.455	362.49
625.872	278.23
626.289	327.38
626.706	313.34
627.123	219.72
627.539	301.64
627.956	236.1
628.373	306.32
628.789	346.11
629.206	303.98
629.622	313.34
630.038	308.66
630.455	325.04
630.871	282.91
631.287	294.61
631.703	313.34
632.12	311
632.536	367.17
632.952	374.19
633.368	289.93
633.783	308.66
634.199	336.74
634.615	336.74
635.031	278.23
635.446	315.68
635.862	343.77
636.277	287.59
636.693	296.96
637.108	348.45
637.524	371.85
637.939	287.59
638.354	282.91
638.77	334.4
639.185	341.43
639.6	259.51
640.015	348.45
640.43	346.11
640.845	296.96
641.259	341.43
641.674	301.64
642.089	233.76
642.504	296.96
642.918	343.77
643.333	294.61
643.747	303.98
644.162	329.72
644.576	320.36
644.991	301.64
645.405	313.34
645.819	303.98
646.233	336.74
646.647	266.53
647.061	332.06
647.475	378.87
647.889	303.98
648.303	296.96
648.717	346.11
649.131	280.57
649.545	402.28
649.958	332.06
650.372	367.17
650.785	296.96
651.199	282.91
651.612	334.4
652.026	289.93
652.439	271.21
652.852	381.21
653.266	271.21
653.679	292.27
654.092	311
654.505	292.27
654.918	282.91
655.331	278.23
655.744	294.61
656.156	369.51
656.569	355.47
656.982	313.34
657.394	353.13
657.807	280.57
658.22	289.93
658.632	367.17
659.044	318.02
659.457	353.13
659.869	264.19
660.281	282.91
660.693	261.85
661.106	311
661.518	287.59
661.93	266.53
662.342	266.53
662.754	306.32
663.165	318.02
663.577	259.51
663.989	257.17
664.401	280.57
664.812	329.72
665.224	273.55
665.635	264.19
666.047	257.17
666.458	259.51
666.869	294.61
667.281	299.3
667.692	308.66
668.103	238.44
668.514	301.64
668.925	266.53
669.336	371.85
669.747	292.27
670.158	332.06
670.569	336.74
670.979	233.76
671.39	292.27
671.801	294.61
672.211	299.3
672.622	268.87
673.032	334.4
673.443	313.34
673.853	318.02
674.263	348.45
674.674	306.32
675.084	273.55
675.494	299.3
675.904	236.1
676.314	327.38
676.724	245.46
677.134	322.7
677.544	278.23
677.953	271.21
678.363	343.77
678.773	332.06
679.182	285.25
679.592	273.55
680.001	315.68
680.411	329.72
680.82	299.3
681.23	332.06
681.639	271.21
682.048	278.23
682.457	308.66
682.866	339.09
683.275	346.11
683.684	250.14
684.093	296.96
684.502	334.4
684.911	327.38
685.32	315.68
685.728	268.87
686.137	339.09
686.546	395.26
686.954	306.32
687.363	306.32
687.771	325.04
688.179	318.02
688.588	327.38
688.996	343.77
689.404	339.09
689.812	325.04
690.22	296.96
690.628	399.94
691.036	339.09
691.444	336.74
691.852	287.59
692.26	329.72
692.667	301.64
693.075	299.3
693.483	311
693.89	292.27
694.298	360.15
694.705	275.89
695.112	315.68
695.52	327.38
695.927	266.53
696.334	346.11
696.741	336.74
697.148	301.64
697.555	301.64
697.962	294.61
698.369	268.87
698.776	339.09
699.183	360.15
699.59	308.66
699.996	271.21
700.403	339.09
700.81	322.7
701.216	313.34
701.623	353.13
702.029	357.81
702.435	322.7
702.842	294.61
703.248	346.11
703.654	311
704.06	336.74
704.466	392.92
704.872	275.89
705.278	367.17
705.684	294.61
706.09	311
706.496	287.59
706.901	346.11
707.307	327.38
707.712	369.51
708.118	332.06
708.523	339.09
708.929	334.4
709.334	292.27
709.74	355.47
710.145	271.21
710.55	374.19
710.955	264.19
711.36	350.79
711.765	325.04
712.17	296.96
712.575	329.72
712.98	804.85
713.385	341.43
713.789	329.72
714.194	362.49
714.599	346.11
715.003	311
715.408	289.93
715.812	280.57
716.217	409.3
716.621	334.4
717.025	299.3
717.429	287.59
717.833	371.85
718.238	329.72
718.642	325.04
719.046	282.91
719.449	325.04
719.853	287.59
720.257	271.21
720.661	320.36
721.065	318.02
721.468	329.72
721.872	273.55
722.275	296.96
722.679	294.61
723.082	348.45
723.485	271.21
723.889	285.25
724.292	273.55
724.695	341.43
725.098	299.3
725.501	320.36
725.904	285.25
726.307	350.79
726.71	313.34
727.113	268.87
727.516	303.98
727.918	271.21
728.321	308.66
728.724	303.98
729.126	306.32
729.529	280.57
729.931	320.36
730.333	362.49
730.736	285.25
731.138	301.64
731.54	395.26
731.942	332.06
732.344	329.72
732.746	378.87
733.148	303.98
733.55	336.74
733.952	271.21
734.354	313.34
734.756	266.53
735.157	280.57
735.559	301.64
735.96	362.49
736.362	275.89
736.763	261.85
737.165	282.91
737.566	294.61
737.967	311
738.368	322.7
738.77	311
739.171	247.8
739.572	346.11
739.973	294.61
740.374	318.02
740.774	303.98
741.175	257.17
741.576	282.91
741.977	285.25
742.377	315.68
742.778	318.02
743.178	303.98
743.579	374.19
743.979	257.17
744.379	320.36
744.78	306.32
745.18	346.11
745.58	306.32
745.98	299.3
746.38	332.06
746.78	296.96
747.18	282.91
747.58	311
747.98	301.64
748.38	336.74
748.779	311
749.179	308.66
749.578	308.66
749.978	322.7
750.377	268.87
750.777	275.89
751.176	278.23
751.575	315.68
751.975	322.7
752.374	329.72
752.773	336.74
753.172	339.09
753.571	339.09
753.97	336.74
754.369	318.02
754.768	282.91
755.166	308.66
755.565	266.53
755.964	287.59
756.362	282.91
756.761	327.38
757.159	306.32
757.558	332.06
757.956	287.59
758.354	275.89
758.753	320.36
759.151	357.81
759.549	299.3
759.947	259.51
760.345	332.06
760.743	275.89
761.141	299.3
761.539	348.45
761.936	292.27
762.334	332.06
762.732	303.98
763.129	343.77
763.527	313.34
763.924	322.7
764.322	327.38
764.719	289.93
765.117	362.49
765.514	346.11
765.911	360.15
766.308	320.36
766.705	357.81
