Data from Al_FLMS009871__658__15-00-36-596.txt Node

Date: Fri Mar 08 15:00:36 CST 2024
User: pe5414po
Spectrometer: FLMS00987
Trigger mode: 0
Integration Time (sec): 1.000000E-1
Scans to average: 1
Electric dark correction enabled: true
Nonlinearity correction enabled: false
Boxcar width: 0
XAxis mode: Wavelengths
Number of Pixels in Spectrum: 2048
>>>>>Begin Spectral Data<<<<<
188.938	-78.85
189.409	-78.85
189.879	-78.85
190.349	-106.93
190.819	-139.7
191.29	-62.46
191.76	-109.27
192.23	-78.85
192.7	-95.23
193.17	-92.89
193.64	-88.21
194.109	-17.99
194.579	-109.27
195.049	17.12
195.519	38.18
195.988	68.61
196.458	99.03
196.927	113.08
197.397	124.78
197.866	94.35
198.336	99.03
198.805	162.23
199.274	136.48
199.744	187.97
200.213	164.57
200.682	195
201.151	197.34
201.62	326.07
202.089	216.06
202.558	246.49
203.027	283.94
203.495	248.83
203.964	251.17
204.433	234.78
204.902	239.47
205.37	314.36
205.839	279.26
206.307	344.79
206.776	267.55
207.244	251.17
207.712	335.43
208.181	283.94
208.649	330.75
209.117	307.34
209.585	312.02
210.053	218.4
210.521	272.23
210.989	323.73
211.457	279.26
211.925	323.73
212.393	216.06
212.861	286.28
213.328	255.85
213.796	255.85
214.264	321.38
214.731	305
215.199	288.62
215.666	286.28
216.133	300.32
216.601	202.02
217.068	269.89
217.535	260.53
218.003	260.53
218.47	234.78
218.937	255.85
219.404	297.98
219.871	223.08
220.338	279.26
220.805	272.23
221.271	319.04
221.738	321.38
222.205	293.3
222.671	218.4
223.138	248.83
223.605	197.34
224.071	239.47
224.538	281.6
225.004	253.51
225.47	180.95
225.937	337.77
226.403	274.57
226.869	220.74
227.335	230.1
227.801	262.87
228.267	220.74
228.733	281.6
229.199	255.85
229.665	251.17
230.131	290.96
230.597	237.13
231.062	234.78
231.528	290.96
231.994	312.02
232.459	351.81
232.925	276.91
233.39	253.51
233.856	286.28
234.321	262.87
234.786	265.21
235.252	279.26
235.717	262.87
236.182	260.53
236.647	258.19
237.112	244.15
237.577	255.85
238.042	258.19
238.507	260.53
238.972	246.49
239.436	267.55
239.901	248.83
240.366	260.53
240.83	279.26
241.295	281.6
241.76	223.08
242.224	269.89
242.688	237.13
243.153	255.85
243.617	276.91
244.081	279.26
244.545	227.76
245.01	211.38
245.474	220.74
245.938	269.89
246.402	283.94
246.866	276.91
247.33	307.34
247.793	274.57
248.257	326.07
248.721	281.6
249.185	269.89
249.648	269.89
250.112	276.91
250.575	274.57
251.039	351.81
251.502	209.04
251.965	316.7
252.429	204.36
252.892	276.91
253.355	312.02
253.818	258.19
254.281	246.49
254.744	372.88
255.207	344.79
255.67	314.36
256.133	255.85
256.596	272.23
257.059	269.89
257.522	335.43
257.984	279.26
258.447	286.28
258.909	290.96
259.372	283.94
259.834	307.34
260.297	312.02
260.759	274.57
261.221	248.83
261.684	337.77
262.146	302.66
262.608	314.36
263.07	300.32
263.532	283.94
263.994	276.91
264.456	272.23
264.918	283.94
265.38	342.45
265.842	225.42
266.303	255.85
266.765	244.15
267.227	295.64
267.688	312.02
268.15	187.97
268.611	258.19
269.072	290.96
269.534	302.66
269.995	258.19
270.456	276.91
270.918	316.7
271.379	258.19
271.84	267.55
272.301	288.62
272.762	269.89
273.223	297.98
273.684	307.34
274.144	269.89
274.605	279.26
275.066	344.79
275.527	297.98
275.987	251.17
276.448	288.62
276.908	265.21
277.369	283.94
277.829	288.62
278.289	307.34
278.75	269.89
279.21	276.91
279.67	230.1
280.13	307.34
280.59	312.02
281.05	237.13
281.51	288.62
281.97	307.34
282.43	297.98
282.89	286.28
283.35	267.55
283.809	344.79
284.269	269.89
284.729	354.15
285.188	391.6
285.648	288.62
286.107	288.62
286.567	297.98
287.026	246.49
287.485	302.66
287.944	297.98
288.404	274.57
288.863	274.57
289.322	267.55
289.781	258.19
290.24	279.26
290.699	337.77
291.158	272.23
291.616	307.34
292.075	227.76
292.534	293.3
292.992	295.64
293.451	258.19
293.91	316.7
294.368	295.64
294.827	305
295.285	288.62
295.743	335.43
296.202	297.98
296.66	279.26
297.118	358.83
297.576	330.75
298.034	307.34
298.492	288.62
298.95	307.34
299.408	276.91
299.866	337.77
300.324	265.21
300.781	265.21
301.239	274.57
301.697	176.27
302.154	305
302.612	305
303.069	276.91
303.527	244.15
303.984	274.57
304.441	260.53
304.899	269.89
305.356	288.62
305.813	286.28
306.27	286.28
306.727	316.7
307.184	330.75
307.641	349.47
308.098	326.07
308.555	227.76
309.012	246.49
309.468	305
309.925	309.68
310.382	246.49
310.838	281.6
311.295	314.36
311.751	255.85
312.208	375.22
312.664	272.23
313.12	333.09
313.577	293.3
314.033	347.13
314.489	295.64
314.945	328.41
315.401	283.94
315.857	333.09
316.313	314.36
316.769	316.7
317.225	365.85
317.681	272.23
318.136	326.07
318.592	279.26
319.048	363.51
319.503	333.09
319.959	267.55
320.414	288.62
320.869	330.75
321.325	330.75
321.78	279.26
322.235	372.88
322.691	293.3
323.146	328.41
323.601	333.09
324.056	316.7
324.511	297.98
324.966	276.91
325.421	333.09
325.875	316.7
326.33	265.21
326.785	255.85
327.24	321.38
327.694	265.21
328.149	251.17
328.603	300.32
329.058	281.6
329.512	286.28
329.966	351.81
330.421	326.07
330.875	262.87
331.329	328.41
331.783	316.7
332.237	274.57
332.691	279.26
333.145	365.85
333.599	314.36
334.053	312.02
334.507	272.23
334.96	241.81
335.414	333.09
335.868	307.34
336.321	290.96
336.775	300.32
337.228	312.02
337.682	344.79
338.135	274.57
338.588	276.91
339.042	323.73
339.495	333.09
339.948	368.2
340.401	328.41
340.854	358.83
341.307	368.2
341.76	279.26
342.213	295.64
342.666	290.96
343.119	290.96
343.571	347.13
344.024	274.57
344.477	354.15
344.929	333.09
345.382	356.49
345.834	319.04
346.287	347.13
346.739	330.75
347.191	237.13
347.644	290.96
348.096	258.19
348.548	375.22
349	276.91
349.452	300.32
349.904	281.6
350.356	321.38
350.808	356.49
351.26	400.96
351.711	234.78
352.163	356.49
352.615	361.17
353.066	253.51
353.518	302.66
353.969	276.91
354.421	253.51
354.872	283.94
355.324	258.19
355.775	300.32
356.226	330.75
356.677	389.26
357.128	314.36
357.579	344.79
358.03	309.68
358.481	333.09
358.932	312.02
359.383	283.94
359.834	335.43
360.285	365.85
360.735	288.62
361.186	262.87
361.637	333.09
362.087	344.79
362.538	286.28
362.988	344.79
363.438	389.26
363.889	344.79
364.339	382.24
364.789	344.79
365.239	316.7
365.689	316.7
366.139	326.07
366.589	344.79
367.039	293.3
367.489	433.73
367.939	293.3
368.389	288.62
368.839	283.94
369.288	361.17
369.738	286.28
370.187	333.09
370.637	246.49
371.086	309.68
371.536	283.94
371.985	307.34
372.434	293.3
372.884	370.54
373.333	351.81
373.782	323.73
374.231	354.15
374.68	305
375.129	316.7
375.578	335.43
376.027	335.43
376.475	344.79
376.924	340.11
377.373	246.49
377.822	312.02
378.27	302.66
378.719	260.53
379.167	262.87
379.616	351.81
380.064	319.04
380.512	309.68
380.961	312.02
381.409	309.68
381.857	293.3
382.305	323.73
382.753	393.94
383.201	305
383.649	272.23
384.097	323.73
384.545	269.89
384.992	342.45
385.44	288.62
385.888	276.91
386.335	251.17
386.783	274.57
387.231	283.94
387.678	302.66
388.125	269.89
388.573	283.94
389.02	333.09
389.467	244.15
389.914	319.04
390.362	326.07
390.809	300.32
391.256	288.62
391.703	286.28
392.15	281.6
392.596	288.62
393.043	253.51
393.49	274.57
393.937	330.75
394.383	323.73
394.83	302.66
395.276	351.81
395.723	351.81
396.169	230.1
396.616	321.38
397.062	375.22
397.508	321.38
397.954	283.94
398.401	297.98
398.847	253.51
399.293	319.04
399.739	258.19
400.185	323.73
400.631	260.53
401.076	422.03
401.522	295.64
401.968	316.7
402.414	279.26
402.859	321.38
403.305	276.91
403.75	312.02
404.196	312.02
404.641	326.07
405.086	300.32
405.532	279.26
405.977	319.04
406.422	300.32
406.867	274.57
407.312	253.51
407.757	307.34
408.202	281.6
408.647	314.36
409.092	323.73
409.537	286.28
409.982	274.57
410.426	290.96
410.871	321.38
411.316	288.62
411.76	307.34
412.205	337.77
412.649	328.41
413.093	276.91
413.538	255.85
413.982	307.34
414.426	276.91
414.87	258.19
415.314	302.66
415.758	300.32
416.202	400.96
416.646	321.38
417.09	307.34
417.534	309.68
417.978	351.81
418.421	340.11
418.865	361.17
419.309	312.02
419.752	300.32
420.196	312.02
420.639	272.23
421.083	255.85
421.526	253.51
421.969	333.09
422.412	290.96
422.856	342.45
423.299	323.73
423.742	290.96
424.185	344.79
424.628	272.23
425.071	274.57
425.513	293.3
425.956	333.09
426.399	279.26
426.842	309.68
427.284	356.49
427.727	272.23
428.169	312.02
428.612	199.68
429.054	281.6
429.497	276.91
429.939	328.41
430.381	323.73
430.823	295.64
431.265	295.64
431.707	293.3
432.149	323.73
432.591	312.02
433.033	344.79
433.475	335.43
433.917	333.09
434.359	321.38
434.8	258.19
435.242	377.56
435.684	349.47
436.125	274.57
436.567	379.9
437.008	265.21
437.449	319.04
437.891	305
438.332	361.17
438.773	326.07
439.214	272.23
439.656	323.73
440.097	302.66
440.538	279.26
440.978	312.02
441.419	309.68
441.86	326.07
442.301	328.41
442.742	293.3
443.182	361.17
443.623	337.77
444.063	330.75
444.504	333.09
444.944	309.68
445.385	269.89
445.825	300.32
446.265	319.04
446.706	316.7
447.146	323.73
447.586	363.51
448.026	328.41
448.466	328.41
448.906	321.38
449.346	382.24
449.786	312.02
450.225	384.58
450.665	319.04
451.105	351.81
451.544	251.17
451.984	323.73
452.424	248.83
452.863	276.91
453.302	344.79
453.742	307.34
454.181	326.07
454.62	335.43
455.059	358.83
455.499	330.75
455.938	279.26
456.377	297.98
456.816	321.38
457.254	375.22
457.693	319.04
458.132	255.85
458.571	293.3
459.01	262.87
459.448	323.73
459.887	342.45
460.325	347.13
460.764	262.87
461.202	319.04
461.641	312.02
462.079	335.43
462.517	314.36
462.955	333.09
463.393	389.26
463.832	323.73
464.27	251.17
464.708	386.92
465.145	274.57
465.583	297.98
466.021	321.38
466.459	344.79
466.897	337.77
467.334	365.85
467.772	335.43
468.209	305
468.647	335.43
469.084	328.41
469.522	272.23
469.959	307.34
470.396	265.21
470.833	368.2
471.271	258.19
471.708	347.13
472.145	349.47
472.582	290.96
473.019	314.36
473.456	354.15
473.892	323.73
474.329	319.04
474.766	356.49
475.202	288.62
475.639	316.7
476.076	312.02
476.512	375.22
476.949	295.64
477.385	260.53
477.821	283.94
478.258	347.13
478.694	347.13
479.13	274.57
479.566	297.98
480.002	305
480.438	351.81
480.874	286.28
481.31	305
481.746	335.43
482.181	312.02
482.617	312.02
483.053	330.75
483.488	340.11
483.924	293.3
484.36	272.23
484.795	323.73
485.23	309.68
485.666	286.28
486.101	309.68
486.536	295.64
486.971	330.75
487.407	305
487.842	274.57
488.277	300.32
488.712	344.79
489.146	328.41
489.581	340.11
490.016	328.41
490.451	295.64
490.885	363.51
491.32	248.83
491.755	337.77
492.189	281.6
492.624	405.64
493.058	335.43
493.492	326.07
493.927	276.91
494.361	337.77
494.795	295.64
495.229	396.28
495.663	227.76
496.097	265.21
496.531	337.77
496.965	340.11
497.399	290.96
497.833	305
498.266	351.81
498.7	361.17
499.134	295.64
499.567	365.85
500.001	312.02
500.434	283.94
500.868	302.66
501.301	293.3
501.734	290.96
502.168	300.32
502.601	281.6
503.034	300.32
503.467	347.13
503.9	281.6
504.333	314.36
504.766	262.87
505.199	342.45
505.632	328.41
506.064	267.55
506.497	326.07
506.93	361.17
507.362	330.75
507.795	319.04
508.227	330.75
508.66	344.79
509.092	312.02
509.524	309.68
509.956	290.96
510.389	314.36
510.821	354.15
511.253	314.36
511.685	276.91
512.117	342.45
512.549	232.44
512.981	354.15
513.412	400.96
513.844	302.66
514.276	307.34
514.707	274.57
515.139	312.02
515.571	349.47
516.002	323.73
516.433	340.11
516.865	272.23
517.296	365.85
517.727	300.32
518.159	218.4
518.59	295.64
519.021	258.19
519.452	281.6
519.883	272.23
520.314	309.68
520.744	274.57
521.175	344.79
521.606	314.36
522.037	323.73
522.467	333.09
522.898	342.45
523.328	321.38
523.759	326.07
524.189	405.64
524.62	363.51
525.05	330.75
525.48	290.96
525.91	335.43
526.341	295.64
526.771	312.02
527.201	333.09
527.631	286.28
528.061	330.75
528.49	265.21
528.92	323.73
529.35	274.57
529.78	283.94
530.209	220.74
530.639	290.96
531.068	293.3
531.498	300.32
531.927	295.64
532.357	307.34
532.786	337.77
533.215	295.64
533.644	290.96
534.074	274.57
534.503	246.49
534.932	342.45
535.361	326.07
535.79	356.49
536.218	351.81
536.647	361.17
537.076	316.7
537.505	354.15
537.933	328.41
538.362	354.15
538.79	363.51
539.219	288.62
539.647	326.07
540.076	323.73
540.504	297.98
540.932	424.37
541.36	321.38
541.788	283.94
542.217	288.62
542.645	297.98
543.073	356.49
543.5	267.55
543.928	281.6
544.356	302.66
544.784	330.75
545.211	286.28
545.639	297.98
546.067	305
546.494	328.41
546.922	305
547.349	312.02
547.776	307.34
548.204	382.24
548.631	375.22
549.058	288.62
549.485	379.9
549.912	260.53
550.339	321.38
550.766	300.32
551.193	330.75
551.62	293.3
552.047	265.21
552.474	248.83
552.9	239.47
553.327	375.22
553.754	305
554.18	347.13
554.607	302.66
555.033	330.75
555.459	309.68
555.886	302.66
556.312	305
556.738	281.6
557.164	328.41
557.59	342.45
558.016	305
558.442	363.51
558.868	276.91
559.294	337.77
559.72	358.83
560.145	283.94
560.571	321.38
560.997	269.89
561.422	295.64
561.848	309.68
562.273	272.23
562.699	276.91
563.124	297.98
563.549	255.85
563.974	333.09
564.4	347.13
564.825	297.98
565.25	297.98
565.675	365.85
566.1	269.89
566.525	323.73
566.95	251.17
567.374	293.3
567.799	272.23
568.224	354.15
568.648	358.83
569.073	330.75
569.497	309.68
569.922	276.91
570.346	377.56
570.771	300.32
571.195	295.64
571.619	337.77
572.043	251.17
572.467	375.22
572.891	295.64
573.315	344.79
573.739	272.23
574.163	340.11
574.587	351.81
575.011	316.7
575.435	335.43
575.858	239.47
576.282	337.77
576.705	293.3
577.129	312.02
577.552	297.98
577.976	297.98
578.399	314.36
578.822	328.41
579.245	309.68
579.669	260.53
580.092	316.7
580.515	279.26
580.938	248.83
581.361	319.04
581.784	349.47
582.206	349.47
582.629	279.26
583.052	307.34
583.474	403.3
583.897	314.36
584.32	375.22
584.742	386.92
585.165	335.43
585.587	309.68
586.009	255.85
586.431	300.32
586.854	375.22
587.276	330.75
587.698	309.68
588.12	319.04
588.542	347.13
588.964	361.17
589.386	290.96
589.807	319.04
590.229	286.28
590.651	290.96
591.073	246.49
591.494	262.87
591.916	337.77
592.337	358.83
592.759	323.73
593.18	286.28
593.601	253.51
594.022	379.9
594.444	276.91
594.865	326.07
595.286	363.51
595.707	328.41
596.128	344.79
596.549	279.26
596.97	316.7
597.39	269.89
597.811	305
598.232	265.21
598.652	279.26
599.073	335.43
599.494	307.34
599.914	297.98
600.334	351.81
600.755	358.83
601.175	279.26
601.595	335.43
602.015	358.83
602.436	293.3
602.856	417.35
603.276	326.07
603.696	288.62
604.115	319.04
604.535	333.09
604.955	349.47
605.375	326.07
605.794	335.43
606.214	337.77
606.634	344.79
607.053	295.64
607.473	330.75
607.892	279.26
608.311	314.36
608.731	255.85
609.15	279.26
609.569	323.73
609.988	218.4
610.407	279.26
610.826	361.17
611.245	260.53
611.664	358.83
612.083	305
612.501	265.21
612.92	358.83
613.339	274.57
613.757	342.45
614.176	265.21
614.594	234.78
615.013	333.09
615.431	267.55
615.85	288.62
616.268	305
616.686	305
617.104	288.62
617.522	279.26
617.94	279.26
618.358	307.34
618.776	269.89
619.194	260.53
619.612	269.89
620.03	279.26
620.447	330.75
620.865	321.38
621.282	307.34
621.7	330.75
622.117	307.34
622.535	272.23
622.952	262.87
623.369	279.26
623.787	323.73
624.204	260.53
624.621	281.6
625.038	365.85
625.455	354.15
625.872	335.43
626.289	344.79
626.706	305
627.123	351.81
627.539	279.26
627.956	326.07
628.373	288.62
628.789	363.51
629.206	279.26
629.622	293.3
630.038	302.66
630.455	288.62
630.871	335.43
631.287	340.11
631.703	347.13
632.12	305
632.536	288.62
632.952	265.21
633.368	347.13
633.783	328.41
634.199	293.3
634.615	316.7
635.031	337.77
635.446	253.51
635.862	305
636.277	295.64
636.693	344.79
637.108	295.64
637.524	379.9
637.939	344.79
638.354	297.98
638.77	321.38
639.185	312.02
639.6	297.98
640.015	321.38
640.43	251.17
640.845	328.41
641.259	333.09
641.674	368.2
642.089	248.83
642.504	293.3
642.918	309.68
643.333	260.53
643.747	309.68
644.162	344.79
644.576	342.45
644.991	276.91
645.405	321.38
645.819	337.77
646.233	326.07
646.647	335.43
647.061	307.34
647.475	333.09
647.889	244.15
648.303	293.3
648.717	344.79
649.131	410.33
649.545	330.75
649.958	290.96
650.372	347.13
650.785	349.47
651.199	274.57
651.612	319.04
652.026	342.45
652.439	323.73
652.852	351.81
653.266	365.85
653.679	370.54
654.092	321.38
654.505	330.75
654.918	368.2
655.331	305
655.744	265.21
656.156	300.32
656.569	323.73
656.982	337.77
657.394	321.38
657.807	314.36
658.22	309.68
658.632	326.07
659.044	337.77
659.457	328.41
659.869	316.7
660.281	342.45
660.693	316.7
661.106	272.23
661.518	356.49
661.93	330.75
662.342	349.47
662.754	344.79
663.165	300.32
663.577	323.73
663.989	375.22
664.401	309.68
664.812	326.07
665.224	323.73
665.635	269.89
666.047	323.73
666.458	314.36
666.869	297.98
667.281	279.26
667.692	312.02
668.103	255.85
668.514	297.98
668.925	326.07
669.336	358.83
669.747	300.32
670.158	319.04
670.569	302.66
670.979	330.75
671.39	305
671.801	290.96
672.211	295.64
672.622	309.68
673.032	328.41
673.443	279.26
673.853	258.19
674.263	302.66
674.674	337.77
675.084	314.36
675.494	354.15
675.904	288.62
676.314	314.36
676.724	262.87
677.134	283.94
677.544	307.34
677.953	321.38
678.363	241.81
678.773	375.22
679.182	244.15
679.592	354.15
680.001	323.73
680.411	302.66
680.82	295.64
681.23	393.94
681.639	321.38
682.048	297.98
682.457	286.28
682.866	330.75
683.275	276.91
683.684	337.77
684.093	335.43
684.502	302.66
684.911	290.96
685.32	269.89
685.728	309.68
686.137	274.57
686.546	361.17
686.954	351.81
687.363	312.02
687.771	319.04
688.179	314.36
688.588	288.62
688.996	293.3
689.404	323.73
689.812	323.73
690.22	349.47
690.628	251.17
691.036	276.91
691.444	330.75
691.852	344.79
692.26	305
692.667	302.66
693.075	283.94
693.483	281.6
693.89	279.26
694.298	269.89
694.705	314.36
695.112	314.36
695.52	333.09
695.927	349.47
696.334	363.51
696.741	302.66
697.148	354.15
697.555	237.13
697.962	323.73
698.369	400.96
698.776	295.64
699.183	288.62
699.59	323.73
699.996	354.15
700.403	354.15
700.81	297.98
701.216	344.79
701.623	316.7
702.029	321.38
702.435	265.21
702.842	274.57
703.248	312.02
703.654	255.85
704.06	379.9
704.466	389.26
704.872	375.22
705.278	379.9
705.684	272.23
706.09	312.02
706.496	274.57
706.901	356.49
707.307	279.26
707.712	290.96
708.118	230.1
708.523	370.54
708.929	351.81
709.334	269.89
709.74	295.64
710.145	326.07
710.55	363.51
710.955	349.47
711.36	340.11
711.765	293.3
712.17	335.43
712.575	354.15
712.98	787.15
713.385	290.96
713.789	323.73
714.194	316.7
714.599	349.47
715.003	276.91
715.408	300.32
715.812	260.53
716.217	274.57
716.621	342.45
717.025	340.11
717.429	314.36
717.833	330.75
718.238	267.55
718.642	316.7
719.046	361.17
719.449	307.34
719.853	319.04
720.257	330.75
720.661	340.11
721.065	312.02
721.468	293.3
721.872	295.64
722.275	319.04
722.679	267.55
723.082	319.04
723.485	258.19
723.889	316.7
724.292	328.41
724.695	358.83
725.098	365.85
725.501	321.38
725.904	293.3
726.307	300.32
726.71	281.6
727.113	281.6
727.516	314.36
727.918	290.96
728.321	314.36
728.724	262.87
729.126	272.23
729.529	330.75
729.931	295.64
730.333	260.53
730.736	356.49
731.138	286.28
731.54	319.04
731.942	330.75
732.344	349.47
732.746	276.91
733.148	316.7
733.55	319.04
733.952	309.68
734.354	295.64
734.756	316.7
735.157	297.98
735.559	248.83
735.96	333.09
736.362	312.02
736.763	363.51
737.165	265.21
737.566	283.94
737.967	288.62
738.368	290.96
738.77	330.75
739.171	319.04
739.572	305
739.973	307.34
740.374	253.51
740.774	333.09
741.175	290.96
741.576	293.3
741.977	312.02
742.377	267.55
742.778	302.66
743.178	295.64
743.579	375.22
743.979	328.41
744.379	288.62
744.78	286.28
745.18	330.75
745.58	276.91
745.98	337.77
746.38	288.62
746.78	288.62
747.18	314.36
747.58	297.98
747.98	356.49
748.38	293.3
748.779	349.47
749.179	344.79
749.578	391.6
749.978	309.68
750.377	342.45
750.777	262.87
751.176	302.66
751.575	297.98
751.975	262.87
752.374	330.75
752.773	305
753.172	295.64
753.571	312.02
753.97	305
754.369	258.19
754.768	283.94
755.166	340.11
755.565	370.54
755.964	321.38
756.362	326.07
756.761	356.49
757.159	328.41
757.558	293.3
757.956	281.6
758.354	302.66
758.753	286.28
759.151	314.36
759.549	234.78
759.947	220.74
760.345	323.73
760.743	307.34
761.141	279.26
761.539	286.28
761.936	283.94
762.334	307.34
762.732	288.62
763.129	335.43
763.527	297.98
763.924	347.13
764.322	307.34
764.719	307.34
765.117	312.02
765.514	274.57
765.911	258.19
766.308	377.56
766.705	307.34
