Data from Al_FLMS009871__678__15-05-09-509.txt Node

Date: Fri Mar 08 15:05:09 CST 2024
User: pe5414po
Spectrometer: FLMS00987
Trigger mode: 0
Integration Time (sec): 1.000000E-1
Scans to average: 1
Electric dark correction enabled: true
Nonlinearity correction enabled: false
Boxcar width: 0
XAxis mode: Wavelengths
Number of Pixels in Spectrum: 2048
>>>>>Begin Spectral Data<<<<<
188.938	-79.87
189.409	-79.87
189.879	-79.87
190.349	-140.72
190.819	-112.64
191.29	-110.3
191.76	-72.85
192.23	-124.34
192.7	-56.47
193.17	-89.23
193.64	-40.08
194.109	-110.3
194.579	-23.7
195.049	-14.34
195.519	86.31
195.988	18.43
196.458	53.54
196.927	119.07
197.397	95.67
197.866	147.16
198.336	121.42
198.805	107.37
199.274	126.1
199.744	208.02
200.213	182.27
200.682	116.73
201.151	161.2
201.62	259.51
202.089	189.29
202.558	222.06
203.027	273.55
203.495	287.59
203.964	299.3
204.433	282.91
204.902	289.93
205.37	236.1
205.839	308.66
206.307	322.7
206.776	292.27
207.244	210.36
207.712	329.72
208.181	261.85
208.649	250.14
209.117	259.51
209.585	264.19
210.053	282.91
210.521	299.3
210.989	355.47
211.457	308.66
211.925	282.91
212.393	296.96
212.861	303.98
213.328	266.53
213.796	275.89
214.264	250.14
214.731	261.85
215.199	325.04
215.666	254.83
216.133	339.09
216.601	294.61
217.068	252.49
217.535	322.7
218.003	296.96
218.47	273.55
218.937	217.38
219.404	294.61
219.871	264.19
220.338	275.89
220.805	250.14
221.271	292.27
221.738	245.46
222.205	236.1
222.671	250.14
223.138	200.99
223.605	231.42
224.071	273.55
224.538	301.64
225.004	247.8
225.47	320.36
225.937	285.25
226.403	301.64
226.869	179.93
227.335	254.83
227.801	296.96
228.267	264.19
228.733	311
229.199	315.68
229.665	264.19
230.131	289.93
230.597	250.14
231.062	254.83
231.528	224.4
231.994	278.23
232.459	275.89
232.925	257.17
233.39	259.51
233.856	247.8
234.321	322.7
234.786	268.87
235.252	339.09
235.717	327.38
236.182	240.78
236.647	296.96
237.112	280.57
237.577	212.7
238.042	238.44
238.507	233.76
238.972	289.93
239.436	318.02
239.901	346.11
240.366	311
240.83	280.57
241.295	336.74
241.76	280.57
242.224	280.57
242.688	362.49
243.153	257.17
243.617	233.76
244.081	308.66
244.545	271.21
245.01	224.4
245.474	193.97
245.938	313.34
246.402	318.02
246.866	275.89
247.33	289.93
247.793	261.85
248.257	329.72
248.721	261.85
249.185	278.23
249.648	275.89
250.112	299.3
250.575	198.65
251.039	308.66
251.502	243.12
251.965	376.53
252.429	280.57
252.892	250.14
253.355	229.08
253.818	261.85
254.281	268.87
254.744	285.25
255.207	308.66
255.67	287.59
256.133	332.06
256.596	289.93
257.059	264.19
257.522	247.8
257.984	261.85
258.447	250.14
258.909	280.57
259.372	296.96
259.834	231.42
260.297	196.31
260.759	275.89
261.221	294.61
261.684	280.57
262.146	261.85
262.608	196.31
263.07	306.32
263.532	296.96
263.994	308.66
264.456	308.66
264.918	233.76
265.38	289.93
265.842	336.74
266.303	205.67
266.765	243.12
267.227	247.8
267.688	280.57
268.15	224.4
268.611	247.8
269.072	247.8
269.534	240.78
269.995	336.74
270.456	308.66
270.918	254.83
271.379	254.83
271.84	252.49
272.301	313.34
272.762	350.79
273.223	259.51
273.684	325.04
274.144	318.02
274.605	287.59
275.066	315.68
275.527	318.02
275.987	318.02
276.448	243.12
276.908	261.85
277.369	322.7
277.829	299.3
278.289	271.21
278.75	327.38
279.21	341.43
279.67	315.68
280.13	285.25
280.59	275.89
281.05	294.61
281.51	320.36
281.97	336.74
282.43	306.32
282.89	212.7
283.35	315.68
283.809	329.72
284.269	332.06
284.729	299.3
285.188	299.3
285.648	308.66
286.107	334.4
286.567	315.68
287.026	289.93
287.485	313.34
287.944	243.12
288.404	289.93
288.863	275.89
289.322	303.98
289.781	306.32
290.24	332.06
290.699	299.3
291.158	273.55
291.616	334.4
292.075	247.8
292.534	254.83
292.992	285.25
293.451	259.51
293.91	341.43
294.368	273.55
294.827	268.87
295.285	301.64
295.743	322.7
296.202	334.4
296.66	268.87
297.118	318.02
297.576	320.36
298.034	278.23
298.492	346.11
298.95	252.49
299.408	313.34
299.866	287.59
300.324	299.3
300.781	332.06
301.239	322.7
301.697	367.17
302.154	322.7
302.612	318.02
303.069	311
303.527	329.72
303.984	334.4
304.441	306.32
304.899	280.57
305.356	325.04
305.813	240.78
306.27	318.02
306.727	294.61
307.184	294.61
307.641	257.17
308.098	308.66
308.555	299.3
309.012	339.09
309.468	320.36
309.925	325.04
310.382	271.21
310.838	318.02
311.295	320.36
311.751	236.1
312.208	355.47
312.664	257.17
313.12	327.38
313.577	306.32
314.033	259.51
314.489	285.25
314.945	311
315.401	364.83
315.857	299.3
316.313	280.57
316.769	264.19
317.225	385.9
317.681	285.25
318.136	313.34
318.592	285.25
319.048	296.96
319.503	339.09
319.959	278.23
320.414	311
320.869	264.19
321.325	322.7
321.78	254.83
322.235	280.57
322.691	343.77
323.146	282.91
323.601	268.87
324.056	348.45
324.511	360.15
324.966	322.7
325.421	296.96
325.875	285.25
326.33	301.64
326.785	320.36
327.24	264.19
327.694	285.25
328.149	343.77
328.603	268.87
329.058	292.27
329.512	315.68
329.966	320.36
330.421	294.61
330.875	308.66
331.329	329.72
331.783	261.85
332.237	282.91
332.691	301.64
333.145	327.38
333.599	296.96
334.053	285.25
334.507	381.21
334.96	339.09
335.414	332.06
335.868	318.02
336.321	306.32
336.775	303.98
337.228	343.77
337.682	306.32
338.135	275.89
338.588	266.53
339.042	306.32
339.495	280.57
339.948	369.51
340.401	343.77
340.854	362.49
341.307	327.38
341.76	303.98
342.213	282.91
342.666	261.85
343.119	336.74
343.571	313.34
344.024	287.59
344.477	278.23
344.929	332.06
345.382	308.66
345.834	325.04
346.287	257.17
346.739	252.49
347.191	315.68
347.644	299.3
348.096	289.93
348.548	329.72
349	261.85
349.452	294.61
349.904	308.66
350.356	346.11
350.808	259.51
351.26	350.79
351.711	292.27
352.163	332.06
352.615	318.02
353.066	313.34
353.518	296.96
353.969	296.96
354.421	222.06
354.872	261.85
355.324	362.49
355.775	271.21
356.226	327.38
356.677	280.57
357.128	364.83
357.579	275.89
358.03	421
358.481	294.61
358.932	318.02
359.383	285.25
359.834	264.19
360.285	289.93
360.735	254.83
361.186	294.61
361.637	282.91
362.087	282.91
362.538	341.43
362.988	353.13
363.438	320.36
363.889	306.32
364.339	301.64
364.789	353.13
365.239	383.56
365.689	306.32
366.139	299.3
366.589	315.68
367.039	336.74
367.489	313.34
367.939	364.83
368.389	303.98
368.839	275.89
369.288	294.61
369.738	325.04
370.187	346.11
370.637	315.68
371.086	362.49
371.536	311
371.985	327.38
372.434	261.85
372.884	332.06
373.333	336.74
373.782	320.36
374.231	285.25
374.68	341.43
375.129	296.96
375.578	313.34
376.027	353.13
376.475	343.77
376.924	362.49
377.373	313.34
377.822	371.85
378.27	275.89
378.719	392.92
379.167	275.89
379.616	348.45
380.064	275.89
380.512	292.27
380.961	364.83
381.409	292.27
381.857	325.04
382.305	334.4
382.753	343.77
383.201	308.66
383.649	329.72
384.097	355.47
384.545	294.61
384.992	322.7
385.44	355.47
385.888	329.72
386.335	299.3
386.783	264.19
387.231	385.9
387.678	289.93
388.125	320.36
388.573	322.7
389.02	329.72
389.467	259.51
389.914	341.43
390.362	287.59
390.809	376.53
391.256	250.14
391.703	294.61
392.15	268.87
392.596	341.43
393.043	399.94
393.49	341.43
393.937	306.32
394.383	341.43
394.83	268.87
395.276	336.74
395.723	259.51
396.169	294.61
396.616	311
397.062	327.38
397.508	336.74
397.954	364.83
398.401	315.68
398.847	385.9
399.293	313.34
399.739	336.74
400.185	360.15
400.631	285.25
401.076	282.91
401.522	348.45
401.968	257.17
402.414	311
402.859	292.27
403.305	329.72
403.75	273.55
404.196	320.36
404.641	273.55
405.086	343.77
405.532	339.09
405.977	320.36
406.422	339.09
406.867	287.59
407.312	406.96
407.757	254.83
408.202	278.23
408.647	320.36
409.092	322.7
409.537	240.78
409.982	334.4
410.426	346.11
410.871	320.36
411.316	362.49
411.76	392.92
412.205	355.47
412.649	327.38
413.093	334.4
413.538	308.66
413.982	318.02
414.426	243.12
414.87	238.44
415.314	336.74
415.758	261.85
416.202	332.06
416.646	360.15
417.09	343.77
417.534	318.02
417.978	364.83
418.421	306.32
418.865	390.58
419.309	364.83
419.752	341.43
420.196	294.61
420.639	322.7
421.083	289.93
421.526	271.21
421.969	357.81
422.412	306.32
422.856	362.49
423.299	364.83
423.742	336.74
424.185	212.7
424.628	341.43
425.071	308.66
425.513	336.74
425.956	318.02
426.399	341.43
426.842	325.04
427.284	275.89
427.727	350.79
428.169	318.02
428.612	325.04
429.054	289.93
429.497	301.64
429.939	320.36
430.381	285.25
430.823	332.06
431.265	285.25
431.707	362.49
432.149	343.77
432.591	259.51
433.033	385.9
433.475	371.85
433.917	308.66
434.359	322.7
434.8	364.83
435.242	325.04
435.684	369.51
436.125	350.79
436.567	240.78
437.008	285.25
437.449	327.38
437.891	315.68
438.332	311
438.773	294.61
439.214	301.64
439.656	294.61
440.097	332.06
440.538	306.32
440.978	325.04
441.419	339.09
441.86	320.36
442.301	311
442.742	275.89
443.182	364.83
443.623	343.77
444.063	250.14
444.504	268.87
444.944	278.23
445.385	346.11
445.825	350.79
446.265	355.47
446.706	346.11
447.146	313.34
447.586	346.11
448.026	353.13
448.466	303.98
448.906	294.61
449.346	287.59
449.786	271.21
450.225	360.15
450.665	311
451.105	306.32
451.544	303.98
451.984	294.61
452.424	315.68
452.863	301.64
453.302	266.53
453.742	329.72
454.181	268.87
454.62	327.38
455.059	325.04
455.499	311
455.938	296.96
456.377	299.3
456.816	318.02
457.254	327.38
457.693	315.68
458.132	327.38
458.571	294.61
459.01	318.02
459.448	378.87
459.887	346.11
460.325	360.15
460.764	315.68
461.202	299.3
461.641	353.13
462.079	308.66
462.517	250.14
462.955	280.57
463.393	285.25
463.832	350.79
464.27	332.06
464.708	322.7
465.145	303.98
465.583	306.32
466.021	353.13
466.459	282.91
466.897	296.96
467.334	287.59
467.772	252.49
468.209	313.34
468.647	325.04
469.084	313.34
469.522	360.15
469.959	285.25
470.396	311
470.833	308.66
471.271	264.19
471.708	296.96
472.145	343.77
472.582	334.4
473.019	350.79
473.456	292.27
473.892	341.43
474.329	280.57
474.766	336.74
475.202	264.19
475.639	329.72
476.076	334.4
476.512	327.38
476.949	318.02
477.385	292.27
477.821	329.72
478.258	383.56
478.694	313.34
479.13	336.74
479.566	339.09
480.002	362.49
480.438	266.53
480.874	306.32
481.31	350.79
481.746	371.85
482.181	257.17
482.617	367.17
483.053	360.15
483.488	320.36
483.924	350.79
484.36	320.36
484.795	306.32
485.23	311
485.666	353.13
486.101	329.72
486.536	329.72
486.971	369.51
487.407	311
487.842	289.93
488.277	325.04
488.712	357.81
489.146	348.45
489.581	367.17
490.016	341.43
490.451	360.15
490.885	320.36
491.32	320.36
491.755	339.09
492.189	287.59
492.624	292.27
493.058	268.87
493.492	371.85
493.927	362.49
494.361	378.87
494.795	334.4
495.229	313.34
495.663	322.7
496.097	336.74
496.531	460.79
496.965	364.83
497.399	282.91
497.833	320.36
498.266	336.74
498.7	329.72
499.134	303.98
499.567	306.32
500.001	278.23
500.434	318.02
500.868	362.49
501.301	296.96
501.734	285.25
502.168	364.83
502.601	378.87
503.034	336.74
503.467	360.15
503.9	301.64
504.333	364.83
504.766	320.36
505.199	243.12
505.632	287.59
506.064	296.96
506.497	313.34
506.93	245.46
507.362	318.02
507.795	336.74
508.227	271.21
508.66	287.59
509.092	287.59
509.524	369.51
509.956	341.43
510.389	318.02
510.821	336.74
511.253	322.7
511.685	325.04
512.117	292.27
512.549	313.34
512.981	275.89
513.412	306.32
513.844	336.74
514.276	250.14
514.707	273.55
515.139	362.49
515.571	285.25
516.002	303.98
516.433	238.44
516.865	343.77
517.296	322.7
517.727	273.55
518.159	315.68
518.59	268.87
519.021	294.61
519.452	320.36
519.883	296.96
520.314	275.89
520.744	346.11
521.175	334.4
521.606	376.53
522.037	299.3
522.467	301.64
522.898	322.7
523.328	266.53
523.759	320.36
524.189	266.53
524.62	306.32
525.05	357.81
525.48	278.23
525.91	320.36
526.341	311
526.771	289.93
527.201	296.96
527.631	355.47
528.061	292.27
528.49	259.51
528.92	303.98
529.35	261.85
529.78	336.74
530.209	329.72
530.639	280.57
531.068	315.68
531.498	299.3
531.927	388.24
532.357	278.23
532.786	350.79
533.215	355.47
533.644	308.66
534.074	376.53
534.503	346.11
534.932	311
535.361	294.61
535.79	355.47
536.218	325.04
536.647	285.25
537.076	301.64
537.505	301.64
537.933	261.85
538.362	313.34
538.79	301.64
539.219	315.68
539.647	287.59
540.076	336.74
540.504	306.32
540.932	311
541.36	313.34
541.788	299.3
542.217	313.34
542.645	313.34
543.073	418.66
543.5	343.77
543.928	299.3
544.356	311
544.784	343.77
545.211	289.93
545.639	341.43
546.067	318.02
546.494	339.09
546.922	322.7
547.349	369.51
547.776	362.49
548.204	261.85
548.631	259.51
549.058	311
549.485	311
549.912	318.02
550.339	313.34
550.766	303.98
551.193	268.87
551.62	334.4
552.047	308.66
552.474	287.59
552.9	292.27
553.327	341.43
553.754	294.61
554.18	327.38
554.607	318.02
555.033	240.78
555.459	306.32
555.886	329.72
556.312	327.38
556.738	341.43
557.164	303.98
557.59	275.89
558.016	273.55
558.442	275.89
558.868	348.45
559.294	334.4
559.72	325.04
560.145	278.23
560.571	278.23
560.997	339.09
561.422	238.44
561.848	261.85
562.273	313.34
562.699	313.34
563.124	329.72
563.549	329.72
563.974	275.89
564.4	301.64
564.825	296.96
565.25	301.64
565.675	371.85
566.1	282.91
566.525	315.68
566.95	238.44
567.374	306.32
567.799	299.3
568.224	250.14
568.648	322.7
569.073	301.64
569.497	322.7
569.922	318.02
570.346	332.06
570.771	282.91
571.195	306.32
571.619	306.32
572.043	327.38
572.467	320.36
572.891	296.96
573.315	308.66
573.739	224.4
574.163	350.79
574.587	259.51
575.011	275.89
575.435	332.06
575.858	313.34
576.282	301.64
576.705	275.89
577.129	268.87
577.552	301.64
577.976	329.72
578.399	301.64
578.822	292.27
579.245	294.61
579.669	325.04
580.092	306.32
580.515	390.58
580.938	245.46
581.361	339.09
581.784	322.7
582.206	289.93
582.629	336.74
583.052	282.91
583.474	301.64
583.897	268.87
584.32	294.61
584.742	299.3
585.165	292.27
585.587	334.4
586.009	318.02
586.431	282.91
586.854	289.93
587.276	315.68
587.698	350.79
588.12	318.02
588.542	381.21
588.964	303.98
589.386	341.43
589.807	339.09
590.229	303.98
590.651	341.43
591.073	264.19
591.494	329.72
591.916	320.36
592.337	353.13
592.759	311
593.18	325.04
593.601	306.32
594.022	264.19
594.444	341.43
594.865	292.27
595.286	355.47
595.707	308.66
596.128	287.59
596.549	325.04
596.97	287.59
597.39	308.66
597.811	346.11
598.232	271.21
598.652	294.61
599.073	332.06
599.494	308.66
599.914	364.83
600.334	299.3
600.755	296.96
601.175	325.04
601.595	313.34
602.015	289.93
602.436	313.34
602.856	374.19
603.276	392.92
603.696	339.09
604.115	332.06
604.535	320.36
604.955	275.89
605.375	332.06
605.794	325.04
606.214	343.77
606.634	315.68
607.053	353.13
607.473	240.78
607.892	238.44
608.311	350.79
608.731	327.38
609.15	294.61
609.569	275.89
609.988	315.68
610.407	343.77
610.826	303.98
611.245	343.77
611.664	329.72
612.083	350.79
612.501	327.38
612.92	381.21
613.339	360.15
613.757	357.81
614.176	287.59
614.594	299.3
615.013	388.24
615.431	320.36
615.85	320.36
616.268	327.38
616.686	318.02
617.104	367.17
617.522	320.36
617.94	287.59
618.358	308.66
618.776	374.19
619.194	315.68
619.612	376.53
620.03	318.02
620.447	299.3
620.865	322.7
621.282	374.19
621.7	325.04
622.117	332.06
622.535	308.66
622.952	320.36
623.369	327.38
623.787	266.53
624.204	353.13
624.621	257.17
625.038	357.81
625.455	285.25
625.872	292.27
626.289	289.93
626.706	357.81
627.123	287.59
627.539	329.72
627.956	311
628.373	289.93
628.789	273.55
629.206	318.02
629.622	343.77
630.038	343.77
630.455	336.74
630.871	315.68
631.287	252.49
631.703	318.02
632.12	303.98
632.536	303.98
632.952	332.06
633.368	294.61
633.783	322.7
634.199	306.32
634.615	301.64
635.031	278.23
635.446	329.72
635.862	259.51
636.277	378.87
636.693	311
637.108	280.57
637.524	334.4
637.939	318.02
638.354	311
638.77	240.78
639.185	322.7
639.6	355.47
640.015	374.19
640.43	334.4
640.845	271.21
641.259	311
641.674	350.79
642.089	341.43
642.504	289.93
642.918	224.4
643.333	376.53
643.747	306.32
644.162	208.02
644.576	350.79
644.991	285.25
645.405	357.81
645.819	280.57
646.233	278.23
646.647	254.83
647.061	339.09
647.475	301.64
647.889	336.74
648.303	322.7
648.717	348.45
649.131	325.04
649.545	301.64
649.958	392.92
650.372	339.09
650.785	357.81
651.199	294.61
651.612	311
652.026	341.43
652.439	315.68
652.852	278.23
653.266	320.36
653.679	362.49
654.092	311
654.505	289.93
654.918	303.98
655.331	282.91
655.744	280.57
656.156	311
656.569	322.7
656.982	282.91
657.394	287.59
657.807	299.3
658.22	353.13
658.632	296.96
659.044	320.36
659.457	303.98
659.869	299.3
660.281	275.89
660.693	280.57
661.106	343.77
661.518	282.91
661.93	275.89
662.342	343.77
662.754	355.47
663.165	322.7
663.577	311
663.989	320.36
664.401	299.3
664.812	271.21
665.224	315.68
665.635	287.59
666.047	376.53
666.458	322.7
666.869	378.87
667.281	313.34
667.692	327.38
668.103	339.09
668.514	301.64
668.925	296.96
669.336	381.21
669.747	322.7
670.158	343.77
670.569	325.04
670.979	332.06
671.39	336.74
671.801	292.27
672.211	355.47
672.622	294.61
673.032	320.36
673.443	350.79
673.853	320.36
674.263	313.34
674.674	353.13
675.084	273.55
675.494	245.46
675.904	311
676.314	343.77
676.724	341.43
677.134	325.04
677.544	240.78
677.953	306.32
678.363	285.25
678.773	362.49
679.182	318.02
679.592	364.83
680.001	318.02
680.411	343.77
680.82	322.7
681.23	257.17
681.639	294.61
682.048	327.38
682.457	313.34
682.866	268.87
683.275	296.96
683.684	320.36
684.093	299.3
684.502	268.87
684.911	303.98
685.32	332.06
685.728	306.32
686.137	247.8
686.546	318.02
686.954	301.64
687.363	273.55
687.771	327.38
688.179	353.13
688.588	285.25
688.996	390.58
689.404	287.59
689.812	332.06
690.22	341.43
690.628	273.55
691.036	341.43
691.444	299.3
691.852	348.45
692.26	296.96
692.667	353.13
693.075	296.96
693.483	318.02
693.89	325.04
694.298	303.98
694.705	346.11
695.112	346.11
695.52	332.06
695.927	378.87
696.334	278.23
696.741	289.93
697.148	303.98
697.555	371.85
697.962	259.51
698.369	261.85
698.776	299.3
699.183	282.91
699.59	285.25
699.996	299.3
700.403	285.25
700.81	280.57
701.216	329.72
701.623	268.87
702.029	350.79
702.435	306.32
702.842	308.66
703.248	357.81
703.654	271.21
704.06	315.68
704.466	383.56
704.872	322.7
705.278	381.21
705.684	341.43
706.09	318.02
706.496	308.66
706.901	390.58
707.307	360.15
707.712	381.21
708.118	303.98
708.523	322.7
708.929	318.02
709.334	296.96
709.74	322.7
710.145	320.36
710.55	311
710.955	322.7
711.36	350.79
711.765	250.14
712.17	343.77
712.575	343.77
712.98	858.68
713.385	320.36
713.789	257.17
714.194	299.3
714.599	360.15
715.003	266.53
715.408	334.4
715.812	301.64
716.217	303.98
716.621	325.04
717.025	348.45
717.429	327.38
717.833	315.68
718.238	320.36
718.642	336.74
719.046	329.72
719.449	322.7
719.853	318.02
720.257	296.96
720.661	247.8
721.065	292.27
721.468	348.45
721.872	327.38
722.275	303.98
722.679	273.55
723.082	325.04
723.485	240.78
723.889	299.3
724.292	353.13
724.695	353.13
725.098	308.66
725.501	327.38
725.904	355.47
726.307	332.06
726.71	289.93
727.113	308.66
727.516	299.3
727.918	350.79
728.321	287.59
728.724	336.74
729.126	322.7
729.529	336.74
729.931	320.36
730.333	285.25
730.736	332.06
731.138	278.23
731.54	318.02
731.942	287.59
732.344	273.55
732.746	198.65
733.148	374.19
733.55	364.83
733.952	364.83
734.354	306.32
734.756	296.96
735.157	294.61
735.559	327.38
735.96	308.66
736.362	397.6
736.763	313.34
737.165	250.14
737.566	299.3
737.967	327.38
738.368	306.32
738.77	236.1
739.171	336.74
739.572	294.61
739.973	360.15
740.374	303.98
740.774	273.55
741.175	266.53
741.576	273.55
741.977	259.51
742.377	404.62
742.778	311
743.178	250.14
743.579	278.23
743.979	350.79
744.379	381.21
744.78	325.04
745.18	289.93
745.58	303.98
745.98	278.23
746.38	303.98
746.78	303.98
747.18	233.76
747.58	245.46
747.98	261.85
748.38	311
748.779	334.4
749.179	350.79
749.578	343.77
749.978	271.21
750.377	259.51
750.777	313.34
751.176	296.96
751.575	280.57
751.975	327.38
752.374	313.34
752.773	315.68
753.172	308.66
753.571	336.74
753.97	294.61
754.369	320.36
754.768	299.3
755.166	313.34
755.565	318.02
755.964	296.96
756.362	259.51
756.761	238.44
757.159	329.72
757.558	332.06
757.956	350.79
758.354	313.34
758.753	287.59
759.151	282.91
759.549	320.36
759.947	362.49
760.345	296.96
760.743	219.72
761.141	264.19
761.539	259.51
761.936	308.66
762.334	303.98
762.732	329.72
763.129	282.91
763.527	336.74
763.924	327.38
764.322	376.53
764.719	353.13
765.117	301.64
765.514	341.43
765.911	313.34
766.308	273.55
766.705	308.66
767.102	353.13
767.499	236.1
