Data from Al_FLMS009871__674__15-05-09-109.txt Node

Date: Fri Mar 08 15:05:09 CST 2024
User: pe5414po
Spectrometer: FLMS00987
Trigger mode: 0
Integration Time (sec): 1.000000E-1
Scans to average: 1
Electric dark correction enabled: true
Nonlinearity correction enabled: false
Boxcar width: 0
XAxis mode: Wavelengths
Number of Pixels in Spectrum: 2048
>>>>>Begin Spectral Data<<<<<
188.938	-45.93
189.409	-45.93
189.879	-45.93
190.349	-95.08
190.819	-57.64
191.29	-90.4
191.76	-116.15
192.23	-99.77
192.7	-50.61
193.17	-88.06
193.64	54.71
194.109	-3.8
194.579	3.22
195.049	5.56
195.519	5.56
195.988	28.96
196.458	-31.89
196.927	73.43
197.397	103.86
197.866	94.5
198.336	110.88
198.805	150.67
199.274	197.48
199.744	223.23
200.213	181.1
200.682	183.44
201.151	246.63
201.62	265.36
202.089	234.93
202.558	307.49
203.027	267.7
203.495	284.08
203.964	279.4
204.433	330.89
204.902	267.7
205.37	328.55
205.839	237.27
206.307	328.55
206.776	302.81
207.244	375.36
207.712	349.62
208.181	288.76
208.649	312.17
209.117	358.98
209.585	387.07
210.053	293.44
210.521	281.74
210.989	288.76
211.457	213.87
211.925	321.53
212.393	298.13
212.861	298.13
213.328	314.51
213.796	319.19
214.264	302.81
214.731	314.51
215.199	295.79
215.666	295.79
216.133	293.44
216.601	232.59
217.068	300.47
217.535	253.66
218.003	263.02
218.47	260.68
218.937	300.47
219.404	284.08
219.871	241.95
220.338	302.81
220.805	300.47
221.271	288.76
221.738	260.68
222.205	263.02
222.671	246.63
223.138	293.44
223.605	286.42
224.071	295.79
224.538	373.02
225.004	321.53
225.47	316.85
225.937	277.06
226.403	295.79
226.869	253.66
227.335	307.49
227.801	309.83
228.267	258.34
228.733	258.34
229.199	284.08
229.665	272.38
230.131	293.44
230.597	253.66
231.062	272.38
231.528	237.27
231.994	260.68
232.459	312.17
232.925	251.32
233.39	307.49
233.856	298.13
234.321	267.7
234.786	316.85
235.252	286.42
235.717	263.02
236.182	281.74
236.647	248.97
237.112	295.79
237.577	300.47
238.042	279.4
238.507	298.13
238.972	216.21
239.436	263.02
239.901	288.76
240.366	286.42
240.83	272.38
241.295	274.72
241.76	218.55
242.224	277.06
242.688	356.64
243.153	307.49
243.617	265.36
244.081	288.76
244.545	328.55
245.01	256
245.474	319.19
245.938	279.4
246.402	323.87
246.866	293.44
247.33	270.04
247.793	358.98
248.257	356.64
248.721	263.02
249.185	312.17
249.648	323.87
250.112	330.89
250.575	251.32
251.039	330.89
251.502	326.21
251.965	277.06
252.429	270.04
252.892	309.83
253.355	298.13
253.818	267.7
254.281	323.87
254.744	342.6
255.207	321.53
255.67	323.87
256.133	342.6
256.596	248.97
257.059	328.55
257.522	368.34
257.984	351.96
258.447	263.02
258.909	323.87
259.372	284.08
259.834	288.76
260.297	234.93
260.759	326.21
261.221	408.13
261.684	251.32
262.146	366
262.608	260.68
263.07	333.23
263.532	300.47
263.994	272.38
264.456	326.21
264.918	328.55
265.38	323.87
265.842	340.26
266.303	265.36
266.765	305.15
267.227	260.68
267.688	314.51
268.15	396.43
268.611	274.72
269.072	286.42
269.534	248.97
269.995	305.15
270.456	232.59
270.918	288.76
271.379	291.1
271.84	295.79
272.301	239.61
272.762	347.28
273.223	291.1
273.684	302.81
274.144	342.6
274.605	300.47
275.066	256
275.527	298.13
275.987	279.4
276.448	281.74
276.908	368.34
277.369	373.02
277.829	305.15
278.289	333.23
278.75	260.68
279.21	321.53
279.67	267.7
280.13	295.79
280.59	309.83
281.05	263.02
281.51	335.57
281.97	309.83
282.43	356.64
282.89	274.72
283.35	335.57
283.809	286.42
284.269	335.57
284.729	284.08
285.188	274.72
285.648	347.28
286.107	314.51
286.567	291.1
287.026	344.94
287.485	321.53
287.944	316.85
288.404	314.51
288.863	321.53
289.322	258.34
289.781	321.53
290.24	319.19
290.699	291.1
291.158	270.04
291.616	366
292.075	302.81
292.534	321.53
292.992	260.68
293.451	295.79
293.91	298.13
294.368	316.85
294.827	391.75
295.285	258.34
295.743	305.15
296.202	248.97
296.66	337.91
297.118	258.34
297.576	389.41
298.034	333.23
298.492	291.1
298.95	256
299.408	309.83
299.866	305.15
300.324	337.91
300.781	410.47
301.239	326.21
301.697	321.53
302.154	291.1
302.612	298.13
303.069	305.15
303.527	305.15
303.984	316.85
304.441	387.07
304.899	309.83
305.356	291.1
305.813	328.55
306.27	253.66
306.727	354.3
307.184	321.53
307.641	358.98
308.098	298.13
308.555	298.13
309.012	277.06
309.468	270.04
309.925	288.76
310.382	347.28
310.838	351.96
311.295	375.36
311.751	356.64
312.208	323.87
312.664	293.44
313.12	323.87
313.577	344.94
314.033	358.98
314.489	370.68
314.945	344.94
315.401	323.87
315.857	291.1
316.313	312.17
316.769	314.51
317.225	319.19
317.681	328.55
318.136	274.72
318.592	307.49
319.048	333.23
319.503	330.89
319.959	368.34
320.414	344.94
320.869	319.19
321.325	305.15
321.78	340.26
322.235	312.17
322.691	319.19
323.146	288.76
323.601	309.83
324.056	293.44
324.511	284.08
324.966	349.62
325.421	333.23
325.875	307.49
326.33	316.85
326.785	321.53
327.24	312.17
327.694	328.55
328.149	323.87
328.603	370.68
329.058	363.66
329.512	340.26
329.966	363.66
330.421	309.83
330.875	347.28
331.329	351.96
331.783	316.85
332.237	375.36
332.691	316.85
333.145	307.49
333.599	309.83
334.053	356.64
334.507	279.4
334.96	347.28
335.414	277.06
335.868	344.94
336.321	335.57
336.775	370.68
337.228	316.85
337.682	314.51
338.135	286.42
338.588	295.79
339.042	380.04
339.495	333.23
339.948	366
340.401	370.68
340.854	216.21
341.307	319.19
341.76	361.32
342.213	330.89
342.666	356.64
343.119	246.63
343.571	340.26
344.024	323.87
344.477	340.26
344.929	387.07
345.382	335.57
345.834	377.7
346.287	277.06
346.739	284.08
347.191	293.44
347.644	300.47
348.096	293.44
348.548	337.91
349	340.26
349.452	302.81
349.904	335.57
350.356	349.62
350.808	363.66
351.26	321.53
351.711	302.81
352.163	291.1
352.615	274.72
353.066	323.87
353.518	387.07
353.969	298.13
354.421	358.98
354.872	274.72
355.324	309.83
355.775	340.26
356.226	286.42
356.677	363.66
357.128	387.07
357.579	288.76
358.03	321.53
358.481	347.28
358.932	291.1
359.383	349.62
359.834	305.15
360.285	312.17
360.735	335.57
361.186	316.85
361.637	256
362.087	380.04
362.538	396.43
362.988	361.32
363.438	366
363.889	382.39
364.339	305.15
364.789	368.34
365.239	295.79
365.689	284.08
366.139	333.23
366.589	314.51
367.039	302.81
367.489	337.91
367.939	335.57
368.389	356.64
368.839	323.87
369.288	302.81
369.738	298.13
370.187	384.73
370.637	382.39
371.086	384.73
371.536	358.98
371.985	300.47
372.434	307.49
372.884	305.15
373.333	335.57
373.782	335.57
374.231	358.98
374.68	319.19
375.129	328.55
375.578	295.79
376.027	370.68
376.475	377.7
376.924	340.26
377.373	307.49
377.822	366
378.27	291.1
378.719	270.04
379.167	298.13
379.616	295.79
380.064	335.57
380.512	298.13
380.961	305.15
381.409	328.55
381.857	333.23
382.305	314.51
382.753	314.51
383.201	277.06
383.649	284.08
384.097	314.51
384.545	277.06
384.992	305.15
385.44	333.23
385.888	363.66
386.335	300.47
386.783	305.15
387.231	356.64
387.678	366
388.125	319.19
388.573	349.62
389.02	323.87
389.467	316.85
389.914	377.7
390.362	340.26
390.809	349.62
391.256	398.77
391.703	337.91
392.15	330.89
392.596	316.85
393.043	387.07
393.49	389.41
393.937	349.62
394.383	368.34
394.83	277.06
395.276	340.26
395.723	347.28
396.169	326.21
396.616	340.26
397.062	342.6
397.508	340.26
397.954	363.66
398.401	356.64
398.847	307.49
399.293	305.15
399.739	330.89
400.185	323.87
400.631	335.57
401.076	333.23
401.522	319.19
401.968	377.7
402.414	337.91
402.859	366
403.305	351.96
403.75	373.02
404.196	293.44
404.641	330.89
405.086	312.17
405.532	337.91
405.977	291.1
406.422	387.07
406.867	335.57
407.312	363.66
407.757	344.94
408.202	373.02
408.647	344.94
409.092	347.28
409.537	366
409.982	319.19
410.426	309.83
410.871	323.87
411.316	363.66
411.76	344.94
412.205	307.49
412.649	358.98
413.093	323.87
413.538	333.23
413.982	337.91
414.426	305.15
414.87	316.85
415.314	347.28
415.758	347.28
416.202	312.17
416.646	333.23
417.09	333.23
417.534	298.13
417.978	387.07
418.421	312.17
418.865	267.7
419.309	277.06
419.752	370.68
420.196	330.89
420.639	298.13
421.083	342.6
421.526	248.97
421.969	356.64
422.412	279.4
422.856	375.36
423.299	337.91
423.742	347.28
424.185	312.17
424.628	319.19
425.071	358.98
425.513	307.49
425.956	344.94
426.399	326.21
426.842	270.04
427.284	316.85
427.727	342.6
428.169	333.23
428.612	272.38
429.054	305.15
429.497	351.96
429.939	361.32
430.381	347.28
430.823	284.08
431.265	230.25
431.707	361.32
432.149	375.36
432.591	363.66
433.033	293.44
433.475	295.79
433.917	309.83
434.359	321.53
434.8	403.45
435.242	344.94
435.684	361.32
436.125	307.49
436.567	340.26
437.008	312.17
437.449	347.28
437.891	347.28
438.332	342.6
438.773	340.26
439.214	340.26
439.656	316.85
440.097	307.49
440.538	323.87
440.978	274.72
441.419	288.76
441.86	356.64
442.301	356.64
442.742	380.04
443.182	307.49
443.623	342.6
444.063	358.98
444.504	288.76
444.944	258.34
445.385	351.96
445.825	314.51
446.265	298.13
446.706	314.51
447.146	351.96
447.586	272.38
448.026	333.23
448.466	281.74
448.906	356.64
449.346	337.91
449.786	270.04
450.225	277.06
450.665	344.94
451.105	349.62
451.544	326.21
451.984	281.74
452.424	319.19
452.863	277.06
453.302	401.11
453.742	342.6
454.181	330.89
454.62	321.53
455.059	277.06
455.499	309.83
455.938	403.45
456.377	321.53
456.816	349.62
457.254	323.87
457.693	274.72
458.132	288.76
458.571	293.44
459.01	354.3
459.448	305.15
459.887	307.49
460.325	314.51
460.764	251.32
461.202	328.55
461.641	389.41
462.079	337.91
462.517	291.1
462.955	295.79
463.393	279.4
463.832	333.23
464.27	335.57
464.708	321.53
465.145	356.64
465.583	337.91
466.021	333.23
466.459	356.64
466.897	335.57
467.334	284.08
467.772	363.66
468.209	342.6
468.647	298.13
469.084	309.83
469.522	335.57
469.959	328.55
470.396	328.55
470.833	323.87
471.271	312.17
471.708	305.15
472.145	302.81
472.582	349.62
473.019	333.23
473.456	270.04
473.892	300.47
474.329	373.02
474.766	316.85
475.202	351.96
475.639	305.15
476.076	330.89
476.512	314.51
476.949	361.32
477.385	342.6
477.821	309.83
478.258	354.3
478.694	323.87
479.13	309.83
479.566	342.6
480.002	284.08
480.438	356.64
480.874	328.55
481.31	363.66
481.746	277.06
482.181	368.34
482.617	321.53
483.053	270.04
483.488	328.55
483.924	272.38
484.36	340.26
484.795	279.4
485.23	328.55
485.666	326.21
486.101	284.08
486.536	368.34
486.971	314.51
487.407	363.66
487.842	328.55
488.277	349.62
488.712	368.34
489.146	319.19
489.581	333.23
490.016	387.07
490.451	288.76
490.885	326.21
491.32	344.94
491.755	263.02
492.189	335.57
492.624	319.19
493.058	281.74
493.492	347.28
493.927	354.3
494.361	295.79
494.795	293.44
495.229	335.57
495.663	326.21
496.097	356.64
496.531	281.74
496.965	354.3
497.399	356.64
497.833	314.51
498.266	326.21
498.7	321.53
499.134	342.6
499.567	321.53
500.001	314.51
500.434	291.1
500.868	298.13
501.301	277.06
501.734	293.44
502.168	323.87
502.601	321.53
503.034	305.15
503.467	333.23
503.9	344.94
504.333	337.91
504.766	340.26
505.199	347.28
505.632	281.74
506.064	286.42
506.497	302.81
506.93	293.44
507.362	279.4
507.795	256
508.227	375.36
508.66	358.98
509.092	335.57
509.524	333.23
509.956	335.57
510.389	288.76
510.821	377.7
511.253	300.47
511.685	253.66
512.117	323.87
512.549	314.51
512.981	321.53
513.412	326.21
513.844	270.04
514.276	333.23
514.707	351.96
515.139	340.26
515.571	370.68
516.002	384.73
516.433	347.28
516.865	366
517.296	330.89
517.727	347.28
518.159	382.39
518.59	391.75
519.021	344.94
519.452	316.85
519.883	377.7
520.314	248.97
520.744	323.87
521.175	295.79
521.606	351.96
522.037	354.3
522.467	328.55
522.898	366
523.328	328.55
523.759	398.77
524.189	328.55
524.62	316.85
525.05	387.07
525.48	260.68
525.91	366
526.341	335.57
526.771	263.02
527.201	312.17
527.631	333.23
528.061	363.66
528.49	286.42
528.92	284.08
529.35	316.85
529.78	337.91
530.209	337.91
530.639	295.79
531.068	312.17
531.498	328.55
531.927	326.21
532.357	354.3
532.786	333.23
533.215	270.04
533.644	302.81
534.074	323.87
534.503	361.32
534.932	323.87
535.361	351.96
535.79	382.39
536.218	333.23
536.647	319.19
537.076	309.83
537.505	361.32
537.933	333.23
538.362	398.77
538.79	368.34
539.219	354.3
539.647	291.1
540.076	328.55
540.504	337.91
540.932	368.34
541.36	375.36
541.788	335.57
542.217	326.21
542.645	349.62
543.073	288.76
543.5	312.17
543.928	272.38
544.356	342.6
544.784	396.43
545.211	319.19
545.639	302.81
546.067	307.49
546.494	342.6
546.922	321.53
547.349	354.3
547.776	326.21
548.204	398.77
548.631	328.55
549.058	298.13
549.485	319.19
549.912	389.41
550.339	403.45
550.766	293.44
551.193	351.96
551.62	344.94
552.047	356.64
552.474	321.53
552.9	298.13
553.327	272.38
553.754	319.19
554.18	312.17
554.607	330.89
555.033	286.42
555.459	298.13
555.886	382.39
556.312	349.62
556.738	312.17
557.164	300.47
557.59	314.51
558.016	314.51
558.442	284.08
558.868	326.21
559.294	344.94
559.72	305.15
560.145	366
560.571	321.53
560.997	342.6
561.422	225.57
561.848	277.06
562.273	321.53
562.699	358.98
563.124	347.28
563.549	363.66
563.974	375.36
564.4	363.66
564.825	307.49
565.25	344.94
565.675	239.61
566.1	344.94
566.525	295.79
566.95	295.79
567.374	342.6
567.799	319.19
568.224	309.83
568.648	356.64
569.073	323.87
569.497	314.51
569.922	335.57
570.346	312.17
570.771	340.26
571.195	351.96
571.619	323.87
572.043	337.91
572.467	335.57
572.891	354.3
573.315	319.19
573.739	314.51
574.163	358.98
574.587	323.87
575.011	328.55
575.435	274.72
575.858	356.64
576.282	349.62
576.705	347.28
577.129	298.13
577.552	326.21
577.976	373.02
578.399	335.57
578.822	316.85
579.245	295.79
579.669	277.06
580.092	342.6
580.515	263.02
580.938	314.51
581.361	328.55
581.784	356.64
582.206	281.74
582.629	321.53
583.052	328.55
583.474	401.11
583.897	363.66
584.32	288.76
584.742	321.53
585.165	307.49
585.587	347.28
586.009	319.19
586.431	351.96
586.854	326.21
587.276	323.87
587.698	293.44
588.12	330.89
588.542	328.55
588.964	319.19
589.386	366
589.807	298.13
590.229	377.7
590.651	316.85
591.073	368.34
591.494	279.4
591.916	347.28
592.337	349.62
592.759	305.15
593.18	326.21
593.601	295.79
594.022	335.57
594.444	330.89
594.865	286.42
595.286	272.38
595.707	291.1
596.128	314.51
596.549	307.49
596.97	286.42
597.39	288.76
597.811	354.3
598.232	281.74
598.652	319.19
599.073	286.42
599.494	356.64
599.914	314.51
600.334	354.3
600.755	344.94
601.175	323.87
601.595	302.81
602.015	375.36
602.436	333.23
602.856	464.3
603.276	366
603.696	354.3
604.115	302.81
604.535	295.79
604.955	272.38
605.375	321.53
605.794	342.6
606.214	363.66
606.634	253.66
607.053	284.08
607.473	401.11
607.892	361.32
608.311	337.91
608.731	340.26
609.15	373.02
609.569	300.47
609.988	305.15
610.407	340.26
610.826	391.75
611.245	389.41
611.664	284.08
612.083	389.41
612.501	312.17
612.92	366
613.339	295.79
613.757	326.21
614.176	380.04
614.594	293.44
615.013	396.43
615.431	305.15
615.85	281.74
616.268	361.32
616.686	358.98
617.104	335.57
617.522	309.83
617.94	326.21
618.358	356.64
618.776	302.81
619.194	333.23
619.612	354.3
620.03	333.23
620.447	321.53
620.865	349.62
621.282	291.1
621.7	342.6
622.117	328.55
622.535	340.26
622.952	307.49
623.369	260.68
623.787	323.87
624.204	344.94
624.621	302.81
625.038	309.83
625.455	323.87
625.872	305.15
626.289	267.7
626.706	354.3
627.123	401.11
627.539	342.6
627.956	337.91
628.373	337.91
628.789	380.04
629.206	314.51
629.622	286.42
630.038	344.94
630.455	382.39
630.871	380.04
631.287	337.91
631.703	384.73
632.12	356.64
632.536	323.87
632.952	277.06
633.368	265.36
633.783	307.49
634.199	354.3
634.615	300.47
635.031	342.6
635.446	373.02
635.862	309.83
636.277	347.28
636.693	368.34
637.108	380.04
637.524	370.68
637.939	302.81
638.354	316.85
638.77	363.66
639.185	394.09
639.6	384.73
640.015	321.53
640.43	314.51
640.845	277.06
641.259	298.13
641.674	363.66
642.089	373.02
642.504	300.47
642.918	366
643.333	300.47
643.747	319.19
644.162	281.74
644.576	284.08
644.991	349.62
645.405	307.49
645.819	316.85
646.233	335.57
646.647	307.49
647.061	321.53
647.475	347.28
647.889	337.91
648.303	337.91
648.717	351.96
649.131	307.49
649.545	344.94
649.958	335.57
650.372	363.66
650.785	319.19
651.199	328.55
651.612	351.96
652.026	314.51
652.439	370.68
652.852	321.53
653.266	340.26
653.679	300.47
654.092	291.1
654.505	351.96
654.918	223.23
655.331	298.13
655.744	293.44
656.156	298.13
656.569	361.32
656.982	342.6
657.394	412.81
657.807	316.85
658.22	295.79
658.632	305.15
659.044	291.1
659.457	368.34
659.869	314.51
660.281	323.87
660.693	347.28
661.106	316.85
661.518	354.3
661.93	295.79
662.342	314.51
662.754	326.21
663.165	309.83
663.577	342.6
663.989	351.96
664.401	333.23
664.812	370.68
665.224	302.81
665.635	356.64
666.047	314.51
666.458	361.32
666.869	319.19
667.281	302.81
667.692	298.13
668.103	351.96
668.514	380.04
668.925	330.89
669.336	279.4
669.747	356.64
670.158	291.1
670.569	272.38
670.979	335.57
671.39	328.55
671.801	340.26
672.211	307.49
672.622	330.89
673.032	300.47
673.443	344.94
673.853	340.26
674.263	389.41
674.674	335.57
675.084	330.89
675.494	380.04
675.904	302.81
676.314	351.96
676.724	300.47
677.134	270.04
677.544	323.87
677.953	354.3
678.363	375.36
678.773	251.32
679.182	384.73
679.592	342.6
680.001	286.42
680.411	349.62
680.82	309.83
681.23	368.34
681.639	356.64
682.048	300.47
682.457	368.34
682.866	349.62
683.275	316.85
683.684	284.08
684.093	340.26
684.502	330.89
684.911	363.66
685.32	333.23
685.728	344.94
686.137	373.02
686.546	358.98
686.954	295.79
687.363	286.42
687.771	300.47
688.179	361.32
688.588	288.76
688.996	337.91
689.404	375.36
689.812	326.21
690.22	333.23
690.628	328.55
691.036	340.26
691.444	312.17
691.852	375.36
692.26	342.6
692.667	415.15
693.075	312.17
693.483	363.66
693.89	335.57
694.298	333.23
694.705	335.57
695.112	368.34
695.52	342.6
695.927	300.47
696.334	328.55
696.741	356.64
697.148	302.81
697.555	347.28
697.962	284.08
698.369	326.21
698.776	302.81
699.183	298.13
699.59	237.27
699.996	354.3
700.403	295.79
700.81	330.89
701.216	333.23
701.623	330.89
702.029	375.36
702.435	263.02
702.842	307.49
703.248	323.87
703.654	312.17
704.06	316.85
704.466	340.26
704.872	351.96
705.278	375.36
705.684	270.04
706.09	356.64
706.496	340.26
706.901	328.55
707.307	335.57
707.712	272.38
708.118	316.85
708.523	391.75
708.929	335.57
709.334	347.28
709.74	284.08
710.145	328.55
710.55	370.68
710.955	300.47
711.36	316.85
711.765	307.49
712.17	401.11
712.575	319.19
712.98	855.17
713.385	323.87
713.789	380.04
714.194	351.96
714.599	270.04
715.003	316.85
715.408	347.28
715.812	323.87
716.217	342.6
716.621	291.1
717.025	361.32
717.429	377.7
717.833	361.32
718.238	286.42
718.642	344.94
719.046	370.68
719.449	307.49
719.853	347.28
720.257	305.15
720.661	281.74
721.065	380.04
721.468	305.15
721.872	298.13
722.275	366
722.679	288.76
723.082	351.96
723.485	319.19
723.889	309.83
724.292	335.57
724.695	356.64
725.098	309.83
725.501	340.26
725.904	321.53
726.307	333.23
726.71	391.75
727.113	321.53
727.516	298.13
727.918	349.62
728.321	347.28
728.724	323.87
729.126	396.43
729.529	361.32
729.931	373.02
730.333	358.98
730.736	342.6
731.138	307.49
731.54	319.19
731.942	337.91
732.344	321.53
732.746	361.32
733.148	328.55
733.55	302.81
733.952	349.62
734.354	373.02
734.756	309.83
735.157	326.21
735.559	344.94
735.96	302.81
736.362	319.19
736.763	279.4
737.165	328.55
737.566	319.19
737.967	340.26
738.368	298.13
738.77	366
739.171	302.81
739.572	330.89
739.973	274.72
740.374	356.64
740.774	335.57
741.175	288.76
741.576	316.85
741.977	321.53
742.377	312.17
742.778	342.6
743.178	314.51
743.579	366
743.979	307.49
744.379	330.89
744.78	337.91
745.18	305.15
745.58	293.44
745.98	356.64
746.38	321.53
746.78	260.68
747.18	277.06
747.58	293.44
747.98	293.44
748.38	363.66
748.779	366
749.179	300.47
749.578	382.39
749.978	288.76
750.377	314.51
750.777	326.21
751.176	251.32
751.575	300.47
751.975	380.04
752.374	337.91
752.773	366
753.172	333.23
753.571	312.17
753.97	366
754.369	340.26
754.768	302.81
755.166	305.15
755.565	335.57
755.964	316.85
756.362	415.15
756.761	307.49
757.159	300.47
757.558	366
757.956	319.19
758.354	330.89
758.753	305.15
759.151	391.75
759.549	358.98
759.947	330.89
760.345	326.21
760.743	328.55
761.141	342.6
761.539	302.81
761.936	377.7
762.334	319.19
762.732	312.17
763.129	351.96
763.527	293.44
763.924	382.39
764.322	335.57
764.719	298.13
765.117	286.42
765.514	321.53
765.911	295.79
766.308	319.19
766.705	314.51
