Data from Al_FLMS009871__666__15-05-08-309.txt Node

Date: Fri Mar 08 15:05:08 CST 2024
User: pe5414po
Spectrometer: FLMS00987
Trigger mode: 0
Integration Time (sec): 1.000000E-1
Scans to average: 1
Electric dark correction enabled: true
Nonlinearity correction enabled: false
Boxcar width: 0
XAxis mode: Wavelengths
Number of Pixels in Spectrum: 2048
>>>>>Begin Spectral Data<<<<<
188.938	-126.68
189.409	-126.68
189.879	-126.68
190.349	-131.36
190.819	-161.79
191.29	-119.66
191.76	-84.55
192.23	-86.89
192.7	-65.83
193.17	-26.04
193.64	-19.02
194.109	-9.65
194.579	-44.76
195.049	-4.97
195.519	18.43
195.988	32.47
196.458	18.43
196.927	107.37
197.397	95.67
197.866	79.29
198.336	109.71
198.805	158.86
199.274	217.38
199.744	200.99
200.213	250.14
200.682	198.65
201.151	205.67
201.62	224.4
202.089	175.25
202.558	296.96
203.027	229.08
203.495	210.36
203.964	224.4
204.433	381.21
204.902	259.51
205.37	311
205.839	296.96
206.307	299.3
206.776	292.27
207.244	311
207.712	280.57
208.181	301.64
208.649	303.98
209.117	303.98
209.585	243.12
210.053	285.25
210.521	308.66
210.989	278.23
211.457	339.09
211.925	271.21
212.393	282.91
212.861	261.85
213.328	282.91
213.796	303.98
214.264	289.93
214.731	322.7
215.199	219.72
215.666	229.08
216.133	259.51
216.601	243.12
217.068	287.59
217.535	264.19
218.003	315.68
218.47	325.04
218.937	280.57
219.404	292.27
219.871	229.08
220.338	259.51
220.805	329.72
221.271	261.85
221.738	261.85
222.205	306.32
222.671	236.1
223.138	313.34
223.605	285.25
224.071	289.93
224.538	268.87
225.004	271.21
225.47	268.87
225.937	245.46
226.403	275.89
226.869	311
227.335	247.8
227.801	217.38
228.267	186.95
228.733	353.13
229.199	229.08
229.665	245.46
230.131	275.89
230.597	271.21
231.062	231.42
231.528	208.02
231.994	271.21
232.459	245.46
232.925	200.99
233.39	301.64
233.856	313.34
234.321	275.89
234.786	266.53
235.252	273.55
235.717	289.93
236.182	264.19
236.647	273.55
237.112	273.55
237.577	261.85
238.042	233.76
238.507	266.53
238.972	294.61
239.436	336.74
239.901	238.44
240.366	257.17
240.83	236.1
241.295	273.55
241.76	280.57
242.224	250.14
242.688	254.83
243.153	215.04
243.617	303.98
244.081	299.3
244.545	287.59
245.01	280.57
245.474	261.85
245.938	329.72
246.402	327.38
246.866	240.78
247.33	313.34
247.793	313.34
248.257	294.61
248.721	252.49
249.185	357.81
249.648	315.68
250.112	268.87
250.575	296.96
251.039	247.8
251.502	299.3
251.965	311
252.429	348.45
252.892	306.32
253.355	315.68
253.818	229.08
254.281	285.25
254.744	289.93
255.207	367.17
255.67	306.32
256.133	301.64
256.596	296.96
257.059	261.85
257.522	261.85
257.984	273.55
258.447	322.7
258.909	301.64
259.372	308.66
259.834	341.43
260.297	252.49
260.759	273.55
261.221	303.98
261.684	289.93
262.146	292.27
262.608	271.21
263.07	318.02
263.532	301.64
263.994	271.21
264.456	275.89
264.918	289.93
265.38	374.19
265.842	341.43
266.303	257.17
266.765	264.19
267.227	327.38
267.688	247.8
268.15	273.55
268.611	273.55
269.072	332.06
269.534	350.79
269.995	334.4
270.456	266.53
270.918	341.43
271.379	268.87
271.84	287.59
272.301	278.23
272.762	282.91
273.223	306.32
273.684	259.51
274.144	268.87
274.605	301.64
275.066	294.61
275.527	343.77
275.987	296.96
276.448	311
276.908	322.7
277.369	339.09
277.829	287.59
278.289	315.68
278.75	285.25
279.21	325.04
279.67	308.66
280.13	348.45
280.59	268.87
281.05	278.23
281.51	278.23
281.97	350.79
282.43	247.8
282.89	311
283.35	315.68
283.809	353.13
284.269	301.64
284.729	254.83
285.188	275.89
285.648	296.96
286.107	226.74
286.567	280.57
287.026	294.61
287.485	236.1
287.944	226.74
288.404	247.8
288.863	299.3
289.322	259.51
289.781	289.93
290.24	346.11
290.699	381.21
291.158	289.93
291.616	273.55
292.075	257.17
292.534	294.61
292.992	292.27
293.451	294.61
293.91	322.7
294.368	278.23
294.827	245.46
295.285	275.89
295.743	301.64
296.202	306.32
296.66	376.53
297.118	294.61
297.576	362.49
298.034	313.34
298.492	287.59
298.95	303.98
299.408	273.55
299.866	320.36
300.324	334.4
300.781	362.49
301.239	325.04
301.697	332.06
302.154	266.53
302.612	282.91
303.069	278.23
303.527	362.49
303.984	296.96
304.441	320.36
304.899	271.21
305.356	315.68
305.813	282.91
306.27	367.17
306.727	346.11
307.184	318.02
307.641	268.87
308.098	308.66
308.555	294.61
309.012	285.25
309.468	299.3
309.925	376.53
310.382	332.06
310.838	282.91
311.295	367.17
311.751	313.34
312.208	303.98
312.664	264.19
313.12	313.34
313.577	285.25
314.033	329.72
314.489	385.9
314.945	289.93
315.401	278.23
315.857	278.23
316.313	303.98
316.769	308.66
317.225	350.79
317.681	254.83
318.136	306.32
318.592	339.09
319.048	397.6
319.503	306.32
319.959	383.56
320.414	362.49
320.869	341.43
321.325	296.96
321.78	353.13
322.235	318.02
322.691	287.59
323.146	296.96
323.601	315.68
324.056	268.87
324.511	271.21
324.966	348.45
325.421	320.36
325.875	320.36
326.33	320.36
326.785	346.11
327.24	294.61
327.694	346.11
328.149	336.74
328.603	364.83
329.058	289.93
329.512	353.13
329.966	303.98
330.421	275.89
330.875	294.61
331.329	318.02
331.783	296.96
332.237	311
332.691	268.87
333.145	287.59
333.599	280.57
334.053	325.04
334.507	355.47
334.96	292.27
335.414	367.17
335.868	341.43
336.321	287.59
336.775	350.79
337.228	383.56
337.682	294.61
338.135	287.59
338.588	329.72
339.042	334.4
339.495	318.02
339.948	320.36
340.401	357.81
340.854	303.98
341.307	301.64
341.76	313.34
342.213	261.85
342.666	318.02
343.119	334.4
343.571	322.7
344.024	353.13
344.477	355.47
344.929	303.98
345.382	320.36
345.834	320.36
346.287	348.45
346.739	318.02
347.191	339.09
347.644	322.7
348.096	341.43
348.548	332.06
349	303.98
349.452	336.74
349.904	287.59
350.356	273.55
350.808	301.64
351.26	353.13
351.711	392.92
352.163	301.64
352.615	332.06
353.066	332.06
353.518	329.72
353.969	355.47
354.421	271.21
354.872	296.96
355.324	329.72
355.775	303.98
356.226	289.93
356.677	313.34
357.128	306.32
357.579	355.47
358.03	348.45
358.481	336.74
358.932	296.96
359.383	245.46
359.834	294.61
360.285	327.38
360.735	378.87
361.186	334.4
361.637	397.6
362.087	325.04
362.538	350.79
362.988	339.09
363.438	315.68
363.889	301.64
364.339	301.64
364.789	348.45
365.239	285.25
365.689	348.45
366.139	327.38
366.589	355.47
367.039	266.53
367.489	315.68
367.939	355.47
368.389	327.38
368.839	327.38
369.288	325.04
369.738	301.64
370.187	318.02
370.637	299.3
371.086	313.34
371.536	282.91
371.985	294.61
372.434	350.79
372.884	364.83
373.333	325.04
373.782	271.21
374.231	306.32
374.68	320.36
375.129	308.66
375.578	287.59
376.027	322.7
376.475	329.72
376.924	327.38
377.373	299.3
377.822	315.68
378.27	339.09
378.719	336.74
379.167	336.74
379.616	332.06
380.064	343.77
380.512	364.83
380.961	299.3
381.409	332.06
381.857	245.46
382.305	399.94
382.753	313.34
383.201	322.7
383.649	311
384.097	336.74
384.545	348.45
384.992	362.49
385.44	343.77
385.888	355.47
386.335	294.61
386.783	346.11
387.231	339.09
387.678	339.09
388.125	360.15
388.573	296.96
389.02	355.47
389.467	392.92
389.914	299.3
390.362	315.68
390.809	339.09
391.256	303.98
391.703	322.7
392.15	421
392.596	353.13
393.043	336.74
393.49	311
393.937	329.72
394.383	346.11
394.83	339.09
395.276	364.83
395.723	303.98
396.169	285.25
396.616	364.83
397.062	369.51
397.508	327.38
397.954	254.83
398.401	301.64
398.847	294.61
399.293	311
399.739	280.57
400.185	280.57
400.631	313.34
401.076	348.45
401.522	303.98
401.968	303.98
402.414	285.25
402.859	292.27
403.305	285.25
403.75	357.81
404.196	343.77
404.641	325.04
405.086	360.15
405.532	320.36
405.977	308.66
406.422	259.51
406.867	240.78
407.312	395.26
407.757	341.43
408.202	299.3
408.647	320.36
409.092	334.4
409.537	285.25
409.982	282.91
410.426	336.74
410.871	285.25
411.316	311
411.76	362.49
412.205	289.93
412.649	318.02
413.093	325.04
413.538	243.12
413.982	301.64
414.426	294.61
414.87	318.02
415.314	357.81
415.758	271.21
416.202	303.98
416.646	320.36
417.09	294.61
417.534	275.89
417.978	327.38
418.421	306.32
418.865	350.79
419.309	339.09
419.752	334.4
420.196	364.83
420.639	306.32
421.083	353.13
421.526	280.57
421.969	339.09
422.412	350.79
422.856	325.04
423.299	334.4
423.742	294.61
424.185	285.25
424.628	343.77
425.071	371.85
425.513	292.27
425.956	329.72
426.399	306.32
426.842	357.81
427.284	278.23
427.727	350.79
428.169	341.43
428.612	315.68
429.054	341.43
429.497	371.85
429.939	348.45
430.381	329.72
430.823	334.4
431.265	362.49
431.707	273.55
432.149	350.79
432.591	318.02
433.033	329.72
433.475	343.77
433.917	303.98
434.359	296.96
434.8	360.15
435.242	364.83
435.684	311
436.125	381.21
436.567	315.68
437.008	320.36
437.449	266.53
437.891	355.47
438.332	325.04
438.773	343.77
439.214	360.15
439.656	264.19
440.097	336.74
440.538	259.51
440.978	329.72
441.419	287.59
441.86	303.98
442.301	318.02
442.742	325.04
443.182	360.15
443.623	320.36
444.063	301.64
444.504	285.25
444.944	292.27
445.385	348.45
445.825	303.98
446.265	299.3
446.706	306.32
447.146	303.98
447.586	327.38
448.026	357.81
448.466	275.89
448.906	320.36
449.346	254.83
449.786	327.38
450.225	322.7
450.665	287.59
451.105	336.74
451.544	285.25
451.984	313.34
452.424	371.85
452.863	399.94
453.302	322.7
453.742	329.72
454.181	353.13
454.62	353.13
455.059	278.23
455.499	371.85
455.938	322.7
456.377	329.72
456.816	315.68
457.254	353.13
457.693	385.9
458.132	315.68
458.571	341.43
459.01	287.59
459.448	273.55
459.887	308.66
460.325	311
460.764	381.21
461.202	306.32
461.641	313.34
462.079	346.11
462.517	303.98
462.955	268.87
463.393	357.81
463.832	306.32
464.27	322.7
464.708	282.91
465.145	371.85
465.583	322.7
466.021	376.53
466.459	315.68
466.897	322.7
467.334	287.59
467.772	315.68
468.209	332.06
468.647	339.09
469.084	273.55
469.522	273.55
469.959	339.09
470.396	254.83
470.833	280.57
471.271	308.66
471.708	336.74
472.145	388.24
472.582	341.43
473.019	322.7
473.456	388.24
473.892	247.8
474.329	371.85
474.766	381.21
475.202	371.85
475.639	343.77
476.076	362.49
476.512	334.4
476.949	339.09
477.385	306.32
477.821	259.51
478.258	329.72
478.694	264.19
479.13	336.74
479.566	343.77
480.002	296.96
480.438	303.98
480.874	313.34
481.31	369.51
481.746	348.45
482.181	282.91
482.617	339.09
483.053	362.49
483.488	315.68
483.924	294.61
484.36	247.8
484.795	332.06
485.23	325.04
485.666	334.4
486.101	343.77
486.536	282.91
486.971	268.87
487.407	315.68
487.842	306.32
488.277	264.19
488.712	271.21
489.146	320.36
489.581	320.36
490.016	264.19
490.451	322.7
490.885	257.17
491.32	355.47
491.755	318.02
492.189	308.66
492.624	348.45
493.058	385.9
493.492	355.47
493.927	313.34
494.361	266.53
494.795	303.98
495.229	332.06
495.663	360.15
496.097	292.27
496.531	315.68
496.965	334.4
497.399	348.45
497.833	367.17
498.266	327.38
498.7	311
499.134	353.13
499.567	322.7
500.001	346.11
500.434	299.3
500.868	322.7
501.301	385.9
501.734	320.36
502.168	266.53
502.601	341.43
503.034	334.4
503.467	364.83
503.9	261.85
504.333	292.27
504.766	343.77
505.199	334.4
505.632	346.11
506.064	294.61
506.497	341.43
506.93	278.23
507.362	292.27
507.795	271.21
508.227	315.68
508.66	311
509.092	301.64
509.524	303.98
509.956	346.11
510.389	334.4
510.821	350.79
511.253	303.98
511.685	362.49
512.117	346.11
512.549	357.81
512.981	329.72
513.412	301.64
513.844	329.72
514.276	289.93
514.707	346.11
515.139	341.43
515.571	341.43
516.002	322.7
516.433	252.49
516.865	318.02
517.296	311
517.727	287.59
518.159	296.96
518.59	285.25
519.021	369.51
519.452	369.51
519.883	348.45
520.314	306.32
520.744	282.91
521.175	306.32
521.606	301.64
522.037	280.57
522.467	329.72
522.898	341.43
523.328	268.87
523.759	332.06
524.189	360.15
524.62	271.21
525.05	329.72
525.48	311
525.91	329.72
526.341	301.64
526.771	336.74
527.201	327.38
527.631	336.74
528.061	336.74
528.49	303.98
528.92	238.44
529.35	252.49
529.78	303.98
530.209	336.74
530.639	282.91
531.068	339.09
531.498	294.61
531.927	320.36
532.357	327.38
532.786	327.38
533.215	280.57
533.644	306.32
534.074	280.57
534.503	336.74
534.932	402.28
535.361	285.25
535.79	334.4
536.218	303.98
536.647	313.34
537.076	294.61
537.505	315.68
537.933	311
538.362	301.64
538.79	325.04
539.219	343.77
539.647	385.9
540.076	275.89
540.504	346.11
540.932	282.91
541.36	334.4
541.788	350.79
542.217	385.9
542.645	360.15
543.073	346.11
543.5	353.13
543.928	315.68
544.356	364.83
544.784	339.09
545.211	355.47
545.639	357.81
546.067	325.04
546.494	397.6
546.922	303.98
547.349	299.3
547.776	308.66
548.204	306.32
548.631	282.91
549.058	325.04
549.485	322.7
549.912	336.74
550.339	334.4
550.766	322.7
551.193	329.72
551.62	334.4
552.047	332.06
552.474	301.64
552.9	311
553.327	322.7
553.754	268.87
554.18	348.45
554.607	261.85
555.033	294.61
555.459	245.46
555.886	301.64
556.312	336.74
556.738	271.21
557.164	329.72
557.59	303.98
558.016	285.25
558.442	327.38
558.868	350.79
559.294	257.17
559.72	315.68
560.145	353.13
560.571	332.06
560.997	296.96
561.422	325.04
561.848	343.77
562.273	320.36
562.699	353.13
563.124	320.36
563.549	278.23
563.974	292.27
564.4	350.79
564.825	418.66
565.25	294.61
565.675	339.09
566.1	350.79
566.525	306.32
566.95	301.64
567.374	320.36
567.799	313.34
568.224	343.77
568.648	315.68
569.073	318.02
569.497	322.7
569.922	306.32
570.346	296.96
570.771	353.13
571.195	360.15
571.619	292.27
572.043	390.58
572.467	329.72
572.891	273.55
573.315	311
573.739	392.92
574.163	334.4
574.587	327.38
575.011	336.74
575.435	332.06
575.858	313.34
576.282	315.68
576.705	299.3
577.129	322.7
577.552	320.36
577.976	329.72
578.399	357.81
578.822	416.32
579.245	315.68
579.669	327.38
580.092	257.17
580.515	322.7
580.938	311
581.361	334.4
581.784	261.85
582.206	250.14
582.629	413.98
583.052	350.79
583.474	376.53
583.897	313.34
584.32	371.85
584.742	294.61
585.165	348.45
585.587	355.47
586.009	311
586.431	399.94
586.854	348.45
587.276	332.06
587.698	346.11
588.12	289.93
588.542	348.45
588.964	313.34
589.386	278.23
589.807	341.43
590.229	350.79
590.651	341.43
591.073	329.72
591.494	311
591.916	292.27
592.337	339.09
592.759	320.36
593.18	327.38
593.601	360.15
594.022	299.3
594.444	336.74
594.865	261.85
595.286	355.47
595.707	273.55
596.128	275.89
596.549	327.38
596.97	392.92
597.39	378.87
597.811	346.11
598.232	311
598.652	299.3
599.073	336.74
599.494	315.68
599.914	350.79
600.334	308.66
600.755	261.85
601.175	364.83
601.595	325.04
602.015	306.32
602.436	322.7
602.856	458.45
603.276	313.34
603.696	278.23
604.115	311
604.535	334.4
604.955	350.79
605.375	329.72
605.794	353.13
606.214	303.98
606.634	343.77
607.053	240.78
607.473	332.06
607.892	301.64
608.311	315.68
608.731	254.83
609.15	329.72
609.569	371.85
609.988	318.02
610.407	339.09
610.826	355.47
611.245	402.28
611.664	329.72
612.083	364.83
612.501	294.61
612.92	341.43
613.339	378.87
613.757	322.7
614.176	294.61
614.594	353.13
615.013	315.68
615.431	306.32
615.85	282.91
616.268	390.58
616.686	325.04
617.104	292.27
617.522	315.68
617.94	327.38
618.358	362.49
618.776	287.59
619.194	341.43
619.612	306.32
620.03	336.74
620.447	334.4
620.865	287.59
621.282	334.4
621.7	357.81
622.117	346.11
622.535	282.91
622.952	334.4
623.369	353.13
623.787	369.51
624.204	341.43
624.621	378.87
625.038	282.91
625.455	325.04
625.872	325.04
626.289	296.96
626.706	334.4
627.123	318.02
627.539	301.64
627.956	371.85
628.373	367.17
628.789	325.04
629.206	299.3
629.622	322.7
630.038	287.59
630.455	336.74
630.871	329.72
631.287	299.3
631.703	282.91
632.12	301.64
632.536	336.74
632.952	336.74
633.368	275.89
633.783	303.98
634.199	327.38
634.615	369.51
635.031	341.43
635.446	282.91
635.862	362.49
636.277	299.3
636.693	282.91
637.108	306.32
637.524	285.25
637.939	320.36
638.354	364.83
638.77	289.93
639.185	390.58
639.6	306.32
640.015	355.47
640.43	402.28
640.845	332.06
641.259	296.96
641.674	362.49
642.089	322.7
642.504	289.93
642.918	311
643.333	362.49
643.747	362.49
644.162	296.96
644.576	341.43
644.991	341.43
645.405	357.81
645.819	268.87
646.233	315.68
646.647	329.72
647.061	250.14
647.475	327.38
647.889	236.1
648.303	301.64
648.717	318.02
649.131	240.78
649.545	261.85
649.958	294.61
650.372	318.02
650.785	336.74
651.199	325.04
651.612	271.21
652.026	320.36
652.439	322.7
652.852	318.02
653.266	311
653.679	294.61
654.092	275.89
654.505	301.64
654.918	341.43
655.331	294.61
655.744	268.87
656.156	306.32
656.569	336.74
656.982	296.96
657.394	301.64
657.807	390.58
658.22	348.45
658.632	266.53
659.044	273.55
659.457	318.02
659.869	343.77
660.281	341.43
660.693	315.68
661.106	303.98
661.518	285.25
661.93	390.58
662.342	287.59
662.754	296.96
663.165	320.36
663.577	287.59
663.989	343.77
664.401	306.32
664.812	395.26
665.224	332.06
665.635	301.64
666.047	296.96
666.458	301.64
666.869	318.02
667.281	320.36
667.692	355.47
668.103	329.72
668.514	303.98
668.925	332.06
669.336	383.56
669.747	336.74
670.158	341.43
670.569	362.49
670.979	362.49
671.39	322.7
671.801	313.34
672.211	311
672.622	371.85
673.032	306.32
673.443	311
673.853	339.09
674.263	350.79
674.674	385.9
675.084	301.64
675.494	374.19
675.904	313.34
676.314	339.09
676.724	294.61
677.134	266.53
677.544	318.02
677.953	348.45
678.363	350.79
678.773	376.53
679.182	306.32
679.592	346.11
680.001	336.74
680.411	306.32
680.82	322.7
681.23	329.72
681.639	350.79
682.048	322.7
682.457	334.4
682.866	301.64
683.275	341.43
683.684	250.14
684.093	306.32
684.502	348.45
684.911	318.02
685.32	362.49
685.728	348.45
686.137	334.4
686.546	360.15
686.954	271.21
687.363	296.96
687.771	332.06
688.179	357.81
688.588	329.72
688.996	313.34
689.404	306.32
689.812	320.36
690.22	332.06
690.628	322.7
691.036	371.85
691.444	320.36
691.852	318.02
692.26	315.68
692.667	306.32
693.075	301.64
693.483	336.74
693.89	299.3
694.298	287.59
694.705	325.04
695.112	308.66
695.52	313.34
695.927	313.34
696.334	362.49
696.741	278.23
697.148	294.61
697.555	311
697.962	362.49
698.369	301.64
698.776	315.68
699.183	315.68
699.59	322.7
699.996	348.45
700.403	327.38
700.81	348.45
701.216	334.4
701.623	320.36
702.029	332.06
702.435	308.66
702.842	336.74
703.248	282.91
703.654	318.02
704.06	325.04
704.466	397.6
704.872	294.61
705.278	346.11
705.684	341.43
706.09	278.23
706.496	311
706.901	325.04
707.307	271.21
707.712	385.9
708.118	334.4
708.523	327.38
708.929	357.81
709.334	280.57
709.74	327.38
710.145	348.45
710.55	332.06
710.955	308.66
711.36	318.02
711.765	332.06
712.17	336.74
712.575	381.21
712.98	842.3
713.385	336.74
713.789	311
714.194	318.02
714.599	296.96
715.003	332.06
715.408	322.7
715.812	285.25
716.217	383.56
716.621	343.77
717.025	343.77
717.429	259.51
717.833	362.49
718.238	327.38
718.642	306.32
719.046	287.59
719.449	357.81
719.853	315.68
720.257	275.89
720.661	334.4
721.065	296.96
721.468	336.74
721.872	329.72
722.275	259.51
722.679	357.81
723.082	306.32
723.485	374.19
723.889	402.28
724.292	301.64
724.695	360.15
725.098	311
725.501	360.15
725.904	341.43
726.307	308.66
726.71	296.96
727.113	336.74
727.516	325.04
727.918	353.13
728.321	247.8
728.724	287.59
729.126	285.25
729.529	339.09
729.931	268.87
730.333	348.45
730.736	367.17
731.138	325.04
731.54	332.06
731.942	348.45
732.344	346.11
732.746	303.98
733.148	339.09
733.55	348.45
733.952	229.08
734.354	299.3
734.756	296.96
735.157	369.51
735.559	294.61
735.96	292.27
736.362	289.93
736.763	362.49
737.165	273.55
737.566	268.87
737.967	313.34
738.368	289.93
738.77	240.78
739.171	271.21
739.572	353.13
739.973	334.4
740.374	280.57
740.774	250.14
741.175	289.93
741.576	325.04
741.977	306.32
742.377	275.89
742.778	287.59
743.178	275.89
743.579	273.55
743.979	296.96
744.379	348.45
744.78	348.45
745.18	329.72
745.58	266.53
745.98	343.77
746.38	336.74
746.78	257.17
747.18	360.15
747.58	315.68
747.98	264.19
748.38	374.19
748.779	222.06
749.179	325.04
749.578	325.04
749.978	280.57
750.377	327.38
750.777	250.14
751.176	367.17
751.575	334.4
751.975	303.98
752.374	336.74
752.773	268.87
753.172	261.85
753.571	259.51
753.97	320.36
754.369	308.66
754.768	292.27
755.166	369.51
755.565	325.04
755.964	341.43
756.362	346.11
756.761	318.02
757.159	282.91
757.558	353.13
757.956	339.09
758.354	308.66
758.753	327.38
759.151	318.02
759.549	381.21
759.947	322.7
760.345	336.74
760.743	247.8
761.141	303.98
761.539	343.77
761.936	320.36
762.334	346.11
762.732	329.72
763.129	287.59
763.527	311
763.924	336.74
764.322	336.74
764.719	318.02
765.117	320.36
765.514	336.74
765.911	289.93
766.308	346.11
766.705	313.34
767.102	350.79
767.499	289.93
