Data from Al_FLMS009871__670__15-05-08-709.txt Node

Date: Fri Mar 08 15:05:08 CST 2024
User: pe5414po
Spectrometer: FLMS00987
Trigger mode: 0
Integration Time (sec): 1.000000E-1
Scans to average: 1
Electric dark correction enabled: true
Nonlinearity correction enabled: false
Boxcar width: 0
XAxis mode: Wavelengths
Number of Pixels in Spectrum: 2048
>>>>>Begin Spectral Data<<<<<
188.938	20.33
189.409	20.33
189.879	20.33
190.349	-110.74
190.819	-129.46
191.29	-138.82
191.76	-92.01
192.23	-73.29
192.7	-21.8
193.17	-54.56
193.64	-54.56
194.109	-35.84
194.579	-59.24
195.049	13.31
195.519	1.61
195.988	71.83
196.458	48.42
196.927	102.25
197.397	81.19
197.866	128
198.336	83.53
198.805	99.91
199.274	83.53
199.744	139.7
200.213	158.43
200.682	205.24
201.151	158.43
201.62	242.68
202.089	242.68
202.558	252.05
203.027	266.09
203.495	298.86
203.964	308.22
204.433	303.54
204.902	200.55
205.37	287.15
205.839	289.5
206.307	326.94
206.776	296.52
207.244	245.02
207.712	336.31
208.181	275.45
208.649	289.5
209.117	308.22
209.585	296.52
210.053	252.05
210.521	277.79
210.989	233.32
211.457	261.41
211.925	336.31
212.393	298.86
212.861	242.68
213.328	303.54
213.796	308.22
214.264	298.86
214.731	252.05
215.199	266.09
215.666	333.97
216.133	266.09
216.601	228.64
217.068	298.86
217.535	254.39
218.003	223.96
218.47	226.3
218.937	198.21
219.404	205.24
219.871	310.56
220.338	252.05
220.805	305.88
221.271	221.62
221.738	214.6
222.205	296.52
222.671	242.68
223.138	317.58
223.605	256.73
224.071	242.68
224.538	261.41
225.004	228.64
225.47	247.37
225.937	277.79
226.403	219.28
226.869	261.41
227.335	249.71
227.801	305.88
228.267	275.45
228.733	291.84
229.199	214.6
229.665	223.96
230.131	233.32
230.597	273.11
231.062	230.98
231.528	266.09
231.994	280.13
232.459	326.94
232.925	296.52
233.39	270.77
233.856	301.2
234.321	242.68
234.786	233.32
235.252	336.31
235.717	312.9
236.182	333.97
236.647	308.22
237.112	266.09
237.577	261.41
238.042	263.75
238.507	275.45
238.972	266.09
239.436	230.98
239.901	256.73
240.366	254.39
240.83	254.39
241.295	249.71
241.76	238
242.224	245.02
242.688	296.52
243.153	301.2
243.617	261.41
244.081	245.02
244.545	249.71
245.01	317.58
245.474	291.84
245.938	322.26
246.402	259.07
246.866	280.13
247.33	261.41
247.793	259.07
248.257	226.3
248.721	252.05
249.185	247.37
249.648	266.09
250.112	298.86
250.575	287.15
251.039	294.18
251.502	254.39
251.965	305.88
252.429	233.32
252.892	289.5
253.355	287.15
253.818	254.39
254.281	331.62
254.744	228.64
255.207	308.22
255.67	214.6
256.133	207.58
256.596	259.07
257.059	319.92
257.522	303.54
257.984	317.58
258.447	291.84
258.909	270.77
259.372	254.39
259.834	249.71
260.297	252.05
260.759	254.39
261.221	308.22
261.684	273.11
262.146	280.13
262.608	247.37
263.07	254.39
263.532	298.86
263.994	226.3
264.456	294.18
264.918	319.92
265.38	291.84
265.842	294.18
266.303	287.15
266.765	315.24
267.227	273.11
267.688	202.9
268.15	296.52
268.611	298.86
269.072	284.81
269.534	273.11
269.995	322.26
270.456	270.77
270.918	298.86
271.379	249.71
271.84	301.2
272.301	319.92
272.762	303.54
273.223	261.41
273.684	280.13
274.144	352.69
274.605	249.71
275.066	273.11
275.527	345.67
275.987	298.86
276.448	340.99
276.908	312.9
277.369	259.07
277.829	326.94
278.289	270.77
278.75	263.75
279.21	245.02
279.67	322.26
280.13	303.54
280.59	247.37
281.05	310.56
281.51	245.02
281.97	329.28
282.43	254.39
282.89	291.84
283.35	273.11
283.809	216.94
284.269	310.56
284.729	277.79
285.188	319.92
285.648	296.52
286.107	343.33
286.567	240.34
287.026	209.92
287.485	296.52
287.944	303.54
288.404	303.54
288.863	219.28
289.322	329.28
289.781	266.09
290.24	380.78
290.699	324.6
291.158	333.97
291.616	296.52
292.075	352.69
292.534	355.03
292.992	289.5
293.451	280.13
293.91	345.67
294.368	345.67
294.827	247.37
295.285	336.31
295.743	284.81
296.202	364.39
296.66	266.09
297.118	329.28
297.576	298.86
298.034	245.02
298.492	280.13
298.95	254.39
299.408	324.6
299.866	326.94
300.324	301.2
300.781	331.62
301.239	291.84
301.697	355.03
302.154	308.22
302.612	315.24
303.069	305.88
303.527	240.34
303.984	308.22
304.441	317.58
304.899	331.62
305.356	298.86
305.813	312.9
306.27	294.18
306.727	350.35
307.184	259.07
307.641	355.03
308.098	315.24
308.555	338.65
309.012	273.11
309.468	303.54
309.925	355.03
310.382	280.13
310.838	357.37
311.295	357.37
311.751	273.11
312.208	294.18
312.664	247.37
313.12	333.97
313.577	277.79
314.033	277.79
314.489	259.07
314.945	348.01
315.401	345.67
315.857	275.45
316.313	280.13
316.769	256.73
317.225	282.47
317.681	256.73
318.136	282.47
318.592	312.9
319.048	338.65
319.503	338.65
319.959	263.75
320.414	319.92
320.869	333.97
321.325	254.39
321.78	301.2
322.235	315.24
322.691	315.24
323.146	322.26
323.601	310.56
324.056	273.11
324.511	308.22
324.966	284.81
325.421	352.69
325.875	329.28
326.33	301.2
326.785	284.81
327.24	343.33
327.694	340.99
328.149	343.33
328.603	259.07
329.058	296.52
329.512	261.41
329.966	305.88
330.421	317.58
330.875	331.62
331.329	317.58
331.783	252.05
332.237	326.94
332.691	312.9
333.145	333.97
333.599	331.62
334.053	331.62
334.507	350.35
334.96	315.24
335.414	275.45
335.868	319.92
336.321	324.6
336.775	245.02
337.228	369.07
337.682	315.24
338.135	301.2
338.588	345.67
339.042	291.84
339.495	296.52
339.948	336.31
340.401	296.52
340.854	387.8
341.307	296.52
341.76	317.58
342.213	266.09
342.666	312.9
343.119	305.88
343.571	275.45
344.024	308.22
344.477	329.28
344.929	301.2
345.382	308.22
345.834	352.69
346.287	326.94
346.739	287.15
347.191	324.6
347.644	308.22
348.096	326.94
348.548	340.99
349	284.81
349.452	340.99
349.904	364.39
350.356	322.26
350.808	338.65
351.26	268.43
351.711	287.15
352.163	308.22
352.615	310.56
353.066	296.52
353.518	317.58
353.969	350.35
354.421	303.54
354.872	296.52
355.324	270.77
355.775	387.8
356.226	291.84
356.677	305.88
357.128	308.22
357.579	308.22
358.03	333.97
358.481	366.73
358.932	303.54
359.383	312.9
359.834	331.62
360.285	326.94
360.735	305.88
361.186	305.88
361.637	245.02
362.087	310.56
362.538	322.26
362.988	317.58
363.438	373.75
363.889	333.97
364.339	319.92
364.789	221.62
365.239	303.54
365.689	289.5
366.139	312.9
366.589	315.24
367.039	312.9
367.489	338.65
367.939	345.67
368.389	357.37
368.839	312.9
369.288	310.56
369.738	296.52
370.187	266.09
370.637	310.56
371.086	357.37
371.536	310.56
371.985	284.81
372.434	282.47
372.884	282.47
373.333	282.47
373.782	216.94
374.231	273.11
374.68	362.05
375.129	319.92
375.578	301.2
376.027	301.2
376.475	245.02
376.924	303.54
377.373	287.15
377.822	352.69
378.27	352.69
378.719	296.52
379.167	254.39
379.616	312.9
380.064	270.77
380.512	364.39
380.961	256.73
381.409	277.79
381.857	343.33
382.305	326.94
382.753	308.22
383.201	296.52
383.649	355.03
384.097	280.13
384.545	294.18
384.992	317.58
385.44	289.5
385.888	294.18
386.335	289.5
386.783	277.79
387.231	294.18
387.678	322.26
388.125	338.65
388.573	317.58
389.02	397.16
389.467	329.28
389.914	249.71
390.362	338.65
390.809	252.05
391.256	343.33
391.703	371.41
392.15	359.71
392.596	287.15
393.043	364.39
393.49	261.41
393.937	317.58
394.383	291.84
394.83	336.31
395.276	345.67
395.723	383.12
396.169	289.5
396.616	362.05
397.062	336.31
397.508	378.44
397.954	359.71
398.401	303.54
398.847	270.77
399.293	298.86
399.739	305.88
400.185	352.69
400.631	338.65
401.076	317.58
401.522	275.45
401.968	322.26
402.414	289.5
402.859	305.88
403.305	312.9
403.75	333.97
404.196	245.02
404.641	326.94
405.086	270.77
405.532	348.01
405.977	364.39
406.422	259.07
406.867	326.94
407.312	275.45
407.757	338.65
408.202	266.09
408.647	322.26
409.092	322.26
409.537	273.11
409.982	333.97
410.426	319.92
410.871	305.88
411.316	338.65
411.76	296.52
412.205	289.5
412.649	245.02
413.093	317.58
413.538	380.78
413.982	350.35
414.426	350.35
414.87	240.34
415.314	317.58
415.758	280.13
416.202	362.05
416.646	319.92
417.09	397.16
417.534	359.71
417.978	303.54
418.421	373.75
418.865	324.6
419.309	315.24
419.752	348.01
420.196	333.97
420.639	275.45
421.083	340.99
421.526	303.54
421.969	315.24
422.412	308.22
422.856	324.6
423.299	333.97
423.742	305.88
424.185	303.54
424.628	280.13
425.071	312.9
425.513	303.54
425.956	336.31
426.399	376.09
426.842	340.99
427.284	301.2
427.727	371.41
428.169	312.9
428.612	319.92
429.054	310.56
429.497	319.92
429.939	317.58
430.381	235.66
430.823	240.34
431.265	366.73
431.707	329.28
432.149	303.54
432.591	273.11
433.033	298.86
433.475	324.6
433.917	291.84
434.359	315.24
434.8	282.47
435.242	280.13
435.684	355.03
436.125	287.15
436.567	289.5
437.008	254.39
437.449	284.81
437.891	336.31
438.332	317.58
438.773	209.92
439.214	277.79
439.656	338.65
440.097	308.22
440.538	303.54
440.978	301.2
441.419	317.58
441.86	329.28
442.301	336.31
442.742	319.92
443.182	357.37
443.623	326.94
444.063	343.33
444.504	322.26
444.944	319.92
445.385	324.6
445.825	340.99
446.265	345.67
446.706	301.2
447.146	329.28
447.586	308.22
448.026	329.28
448.466	411.2
448.906	380.78
449.346	329.28
449.786	256.73
450.225	385.46
450.665	298.86
451.105	317.58
451.544	362.05
451.984	291.84
452.424	357.37
452.863	326.94
453.302	242.68
453.742	294.18
454.181	315.24
454.62	385.46
455.059	326.94
455.499	308.22
455.938	291.84
456.377	284.81
456.816	362.05
457.254	317.58
457.693	364.39
458.132	319.92
458.571	343.33
459.01	326.94
459.448	266.09
459.887	340.99
460.325	291.84
460.764	312.9
461.202	303.54
461.641	310.56
462.079	319.92
462.517	296.52
462.955	301.2
463.393	418.22
463.832	305.88
464.27	273.11
464.708	284.81
465.145	277.79
465.583	336.31
466.021	322.26
466.459	333.97
466.897	357.37
467.334	322.26
467.772	284.81
468.209	315.24
468.647	280.13
469.084	268.43
469.522	319.92
469.959	282.47
470.396	289.5
470.833	280.13
471.271	355.03
471.708	315.24
472.145	385.46
472.582	289.5
473.019	359.71
473.456	298.86
473.892	345.67
474.329	273.11
474.766	317.58
475.202	301.2
475.639	392.48
476.076	289.5
476.512	301.2
476.949	336.31
477.385	301.2
477.821	294.18
478.258	331.62
478.694	319.92
479.13	312.9
479.566	348.01
480.002	305.88
480.438	291.84
480.874	301.2
481.31	352.69
481.746	357.37
482.181	298.86
482.617	282.47
483.053	348.01
483.488	308.22
483.924	287.15
484.36	326.94
484.795	263.75
485.23	329.28
485.666	345.67
486.101	326.94
486.536	308.22
486.971	282.47
487.407	259.07
487.842	340.99
488.277	270.77
488.712	280.13
489.146	352.69
489.581	340.99
490.016	305.88
490.451	355.03
490.885	364.39
491.32	298.86
491.755	301.2
492.189	312.9
492.624	270.77
493.058	345.67
493.492	312.9
493.927	319.92
494.361	329.28
494.795	275.45
495.229	252.05
495.663	301.2
496.097	366.73
496.531	254.39
496.965	305.88
497.399	312.9
497.833	329.28
498.266	296.52
498.7	282.47
499.134	350.35
499.567	268.43
500.001	277.79
500.434	331.62
500.868	268.43
501.301	319.92
501.734	284.81
502.168	326.94
502.601	329.28
503.034	289.5
503.467	319.92
503.9	329.28
504.333	383.12
504.766	291.84
505.199	289.5
505.632	324.6
506.064	319.92
506.497	322.26
506.93	352.69
507.362	401.84
507.795	326.94
508.227	362.05
508.66	324.6
509.092	261.41
509.524	303.54
509.956	326.94
510.389	364.39
510.821	378.44
511.253	308.22
511.685	259.07
512.117	383.12
512.549	369.07
512.981	319.92
513.412	355.03
513.844	317.58
514.276	355.03
514.707	329.28
515.139	259.07
515.571	326.94
516.002	312.9
516.433	308.22
516.865	310.56
517.296	312.9
517.727	317.58
518.159	305.88
518.59	308.22
519.021	301.2
519.452	315.24
519.883	345.67
520.314	317.58
520.744	317.58
521.175	343.33
521.606	350.35
522.037	369.07
522.467	284.81
522.898	242.68
523.328	322.26
523.759	254.39
524.189	263.75
524.62	352.69
525.05	345.67
525.48	287.15
525.91	362.05
526.341	357.37
526.771	326.94
527.201	298.86
527.631	331.62
528.061	359.71
528.49	329.28
528.92	355.03
529.35	289.5
529.78	310.56
530.209	305.88
530.639	371.41
531.068	303.54
531.498	284.81
531.927	329.28
532.357	238
532.786	336.31
533.215	324.6
533.644	348.01
534.074	376.09
534.503	319.92
534.932	303.54
535.361	326.94
535.79	348.01
536.218	296.52
536.647	305.88
537.076	362.05
537.505	331.62
537.933	338.65
538.362	284.81
538.79	331.62
539.219	317.58
539.647	296.52
540.076	343.33
540.504	296.52
540.932	301.2
541.36	350.35
541.788	289.5
542.217	359.71
542.645	266.09
543.073	230.98
543.5	301.2
543.928	266.09
544.356	305.88
544.784	394.82
545.211	289.5
545.639	291.84
546.067	371.41
546.494	359.71
546.922	338.65
547.349	340.99
547.776	282.47
548.204	336.31
548.631	301.2
549.058	254.39
549.485	301.2
549.912	324.6
550.339	369.07
550.766	357.37
551.193	287.15
551.62	352.69
552.047	326.94
552.474	324.6
552.9	249.71
553.327	383.12
553.754	252.05
554.18	261.41
554.607	294.18
555.033	275.45
555.459	350.35
555.886	331.62
556.312	364.39
556.738	291.84
557.164	333.97
557.59	301.2
558.016	287.15
558.442	345.67
558.868	310.56
559.294	397.16
559.72	343.33
560.145	326.94
560.571	383.12
560.997	301.2
561.422	301.2
561.848	326.94
562.273	289.5
562.699	317.58
563.124	343.33
563.549	333.97
563.974	369.07
564.4	340.99
564.825	322.26
565.25	308.22
565.675	266.09
566.1	362.05
566.525	329.28
566.95	310.56
567.374	312.9
567.799	305.88
568.224	261.41
568.648	291.84
569.073	343.33
569.497	263.75
569.922	312.9
570.346	266.09
570.771	282.47
571.195	317.58
571.619	254.39
572.043	310.56
572.467	277.79
572.891	287.15
573.315	331.62
573.739	338.65
574.163	319.92
574.587	312.9
575.011	336.31
575.435	366.73
575.858	254.39
576.282	296.52
576.705	282.47
577.129	294.18
577.552	338.65
577.976	333.97
578.399	289.5
578.822	254.39
579.245	371.41
579.669	319.92
580.092	364.39
580.515	359.71
580.938	315.24
581.361	326.94
581.784	259.07
582.206	303.54
582.629	287.15
583.052	350.35
583.474	303.54
583.897	364.39
584.32	376.09
584.742	355.03
585.165	287.15
585.587	324.6
586.009	223.96
586.431	259.07
586.854	359.71
587.276	275.45
587.698	359.71
588.12	326.94
588.542	336.31
588.964	310.56
589.386	254.39
589.807	376.09
590.229	331.62
590.651	308.22
591.073	329.28
591.494	273.11
591.916	277.79
592.337	291.84
592.759	345.67
593.18	221.62
593.601	343.33
594.022	331.62
594.444	333.97
594.865	303.54
595.286	289.5
595.707	336.31
596.128	282.47
596.549	331.62
596.97	319.92
597.39	312.9
597.811	256.73
598.232	324.6
598.652	329.28
599.073	263.75
599.494	296.52
599.914	394.82
600.334	336.31
600.755	343.33
601.175	296.52
601.595	252.05
602.015	301.2
602.436	270.77
602.856	462.69
603.276	369.07
603.696	345.67
604.115	348.01
604.535	331.62
604.955	352.69
605.375	277.79
605.794	350.35
606.214	273.11
606.634	324.6
607.053	336.31
607.473	397.16
607.892	315.24
608.311	371.41
608.731	326.94
609.15	355.03
609.569	394.82
609.988	345.67
610.407	303.54
610.826	345.67
611.245	294.18
611.664	296.52
612.083	312.9
612.501	305.88
612.92	336.31
613.339	371.41
613.757	336.31
614.176	287.15
614.594	303.54
615.013	261.41
615.431	350.35
615.85	317.58
616.268	340.99
616.686	390.14
617.104	326.94
617.522	352.69
617.94	369.07
618.358	296.52
618.776	303.54
619.194	326.94
619.612	294.18
620.03	357.37
620.447	294.18
620.865	310.56
621.282	359.71
621.7	282.47
622.117	333.97
622.535	319.92
622.952	296.52
623.369	343.33
623.787	319.92
624.204	298.86
624.621	301.2
625.038	331.62
625.455	322.26
625.872	291.84
626.289	317.58
626.706	301.2
627.123	319.92
627.539	296.52
627.956	329.28
628.373	275.45
628.789	376.09
629.206	343.33
629.622	350.35
630.038	371.41
630.455	343.33
630.871	333.97
631.287	294.18
631.703	259.07
632.12	312.9
632.536	308.22
632.952	280.13
633.368	371.41
633.783	303.54
634.199	436.95
634.615	322.26
635.031	345.67
635.446	331.62
635.862	333.97
636.277	326.94
636.693	305.88
637.108	326.94
637.524	333.97
637.939	303.54
638.354	350.35
638.77	308.22
639.185	406.52
639.6	289.5
640.015	366.73
640.43	301.2
640.845	355.03
641.259	319.92
641.674	387.8
642.089	305.88
642.504	338.65
642.918	331.62
643.333	268.43
643.747	338.65
644.162	275.45
644.576	366.73
644.991	282.47
645.405	336.31
645.819	301.2
646.233	305.88
646.647	352.69
647.061	357.37
647.475	369.07
647.889	333.97
648.303	242.68
648.717	275.45
649.131	282.47
649.545	390.14
649.958	355.03
650.372	336.31
650.785	333.97
651.199	343.33
651.612	270.77
652.026	326.94
652.439	336.31
652.852	298.86
653.266	308.22
653.679	303.54
654.092	326.94
654.505	340.99
654.918	233.32
655.331	294.18
655.744	371.41
656.156	355.03
656.569	338.65
656.982	261.41
657.394	357.37
657.807	336.31
658.22	331.62
658.632	343.33
659.044	322.26
659.457	348.01
659.869	289.5
660.281	343.33
660.693	317.58
661.106	324.6
661.518	324.6
661.93	270.77
662.342	289.5
662.754	303.54
663.165	280.13
663.577	294.18
663.989	312.9
664.401	275.45
664.812	319.92
665.224	373.75
665.635	362.05
666.047	333.97
666.458	329.28
666.869	254.39
667.281	312.9
667.692	340.99
668.103	303.54
668.514	305.88
668.925	296.52
669.336	301.2
669.747	301.2
670.158	268.43
670.569	355.03
670.979	392.48
671.39	305.88
671.801	329.28
672.211	233.32
672.622	294.18
673.032	355.03
673.443	303.54
673.853	287.15
674.263	312.9
674.674	291.84
675.084	266.09
675.494	348.01
675.904	369.07
676.314	282.47
676.724	343.33
677.134	333.97
677.544	301.2
677.953	329.28
678.363	305.88
678.773	406.52
679.182	298.86
679.592	291.84
680.001	273.11
680.411	280.13
680.82	319.92
681.23	336.31
681.639	348.01
682.048	301.2
682.457	294.18
682.866	319.92
683.275	312.9
683.684	296.52
684.093	329.28
684.502	277.79
684.911	324.6
685.32	333.97
685.728	275.45
686.137	376.09
686.546	326.94
686.954	369.07
687.363	308.22
687.771	324.6
688.179	273.11
688.588	284.81
688.996	277.79
689.404	280.13
689.812	317.58
690.22	357.37
690.628	319.92
691.036	326.94
691.444	359.71
691.852	298.86
692.26	324.6
692.667	282.47
693.075	289.5
693.483	273.11
693.89	345.67
694.298	350.35
694.705	310.56
695.112	312.9
695.52	362.05
695.927	317.58
696.334	310.56
696.741	315.24
697.148	287.15
697.555	284.81
697.962	336.31
698.369	319.92
698.776	284.81
699.183	228.64
699.59	376.09
699.996	308.22
700.403	315.24
700.81	226.3
701.216	343.33
701.623	287.15
702.029	308.22
702.435	359.71
702.842	310.56
703.248	303.54
703.654	326.94
704.06	303.54
704.466	329.28
704.872	273.11
705.278	324.6
705.684	280.13
706.09	287.15
706.496	259.07
706.901	324.6
707.307	350.35
707.712	298.86
708.118	350.35
708.523	289.5
708.929	228.64
709.334	376.09
709.74	233.32
710.145	259.07
710.55	336.31
710.955	226.3
711.36	301.2
711.765	322.26
712.17	312.9
712.575	266.09
712.98	802.07
713.385	324.6
713.789	319.92
714.194	394.82
714.599	319.92
715.003	312.9
715.408	289.5
715.812	305.88
716.217	310.56
716.621	324.6
717.025	282.47
717.429	275.45
717.833	275.45
718.238	305.88
718.642	336.31
719.046	310.56
719.449	263.75
719.853	338.65
720.257	284.81
720.661	312.9
721.065	352.69
721.468	296.52
721.872	310.56
722.275	338.65
722.679	296.52
723.082	312.9
723.485	340.99
723.889	324.6
724.292	291.84
724.695	378.44
725.098	352.69
725.501	305.88
725.904	284.81
726.307	333.97
726.71	357.37
727.113	238
727.516	322.26
727.918	305.88
728.321	284.81
728.724	310.56
729.126	333.97
729.529	333.97
729.931	322.26
730.333	263.75
730.736	324.6
731.138	350.35
731.54	345.67
731.942	315.24
732.344	315.24
732.746	280.13
733.148	268.43
733.55	298.86
733.952	326.94
734.354	284.81
734.756	326.94
735.157	289.5
735.559	284.81
735.96	280.13
736.362	310.56
736.763	294.18
737.165	364.39
737.566	296.52
737.967	317.58
738.368	319.92
738.77	324.6
739.171	331.62
739.572	280.13
739.973	289.5
740.374	357.37
740.774	289.5
741.175	329.28
741.576	326.94
741.977	308.22
742.377	343.33
742.778	326.94
743.178	310.56
743.579	261.41
743.979	261.41
744.379	317.58
744.78	317.58
745.18	366.73
745.58	308.22
745.98	336.31
746.38	266.09
746.78	294.18
747.18	338.65
747.58	345.67
747.98	284.81
748.38	301.2
748.779	296.52
749.179	371.41
749.578	298.86
749.978	319.92
750.377	291.84
750.777	298.86
751.176	340.99
751.575	298.86
751.975	310.56
752.374	352.69
752.773	270.77
753.172	282.47
753.571	280.13
753.97	263.75
754.369	308.22
754.768	252.05
755.166	315.24
755.565	322.26
755.964	273.11
756.362	331.62
756.761	317.58
757.159	298.86
757.558	296.52
757.956	348.01
758.354	301.2
758.753	284.81
759.151	406.52
759.549	289.5
759.947	315.24
760.345	319.92
760.743	310.56
761.141	348.01
761.539	308.22
761.936	308.22
762.334	315.24
762.732	319.92
763.129	348.01
763.527	308.22
763.924	303.54
764.322	312.9
764.719	357.37
765.117	338.65
765.514	322.26
765.911	338.65
