Data from Al_FLMS009871__672__15-05-08-909.txt Node

Date: Fri Mar 08 15:05:08 CST 2024
User: pe5414po
Spectrometer: FLMS00987
Trigger mode: 0
Integration Time (sec): 1.000000E-1
Scans to average: 1
Electric dark correction enabled: true
Nonlinearity correction enabled: false
Boxcar width: 0
XAxis mode: Wavelengths
Number of Pixels in Spectrum: 2048
>>>>>Begin Spectral Data<<<<<
188.938	-68.46
189.409	-68.46
189.879	-68.46
190.349	-89.53
190.819	-89.53
191.29	-70.8
191.76	-35.69
192.23	-131.66
192.7	-28.67
193.17	-112.93
193.64	-70.8
194.109	-59.1
194.579	-49.74
195.049	48.57
195.519	-40.37
195.988	22.82
196.458	36.86
196.927	78.99
197.397	118.78
197.866	177.3
198.336	116.44
198.805	184.32
199.274	172.61
199.744	181.98
200.213	207.72
200.682	186.66
201.151	219.43
201.62	158.57
202.089	256.87
202.558	240.49
203.027	306.03
203.495	261.55
203.964	240.49
204.433	313.05
204.902	238.15
205.37	275.6
205.839	245.17
206.307	383.26
206.776	355.18
207.244	336.45
207.712	317.73
208.181	282.62
208.649	291.98
209.117	291.98
209.585	277.94
210.053	282.62
210.521	315.39
210.989	306.03
211.457	320.07
211.925	280.28
212.393	324.75
212.861	270.92
213.328	313.05
213.796	306.03
214.264	235.81
214.731	280.28
215.199	249.85
215.666	280.28
216.133	284.96
216.601	287.3
217.068	296.66
217.535	280.28
218.003	254.53
218.47	261.55
218.937	270.92
219.404	224.11
219.871	259.21
220.338	254.53
220.805	184.32
221.271	263.9
221.738	235.81
222.205	256.87
222.671	235.81
223.138	242.83
223.605	240.49
224.071	263.9
224.538	270.92
225.004	277.94
225.47	282.62
225.937	261.55
226.403	231.13
226.869	291.98
227.335	247.51
227.801	277.94
228.267	240.49
228.733	313.05
229.199	282.62
229.665	252.19
230.131	256.87
230.597	233.47
231.062	303.68
231.528	306.03
231.994	263.9
232.459	280.28
232.925	245.17
233.39	336.45
233.856	261.55
234.321	245.17
234.786	254.53
235.252	235.81
235.717	273.26
236.182	263.9
236.647	282.62
237.112	310.71
237.577	212.4
238.042	273.26
238.507	315.39
238.972	263.9
239.436	306.03
239.901	228.79
240.366	310.71
240.83	233.47
241.295	268.58
241.76	289.64
242.224	299
242.688	249.85
243.153	306.03
243.617	252.19
244.081	254.53
244.545	282.62
245.01	299
245.474	261.55
245.938	245.17
246.402	338.79
246.866	273.26
247.33	273.26
247.793	287.3
248.257	235.81
248.721	277.94
249.185	249.85
249.648	287.3
250.112	233.47
250.575	254.53
251.039	294.32
251.502	270.92
251.965	280.28
252.429	282.62
252.892	282.62
253.355	313.05
253.818	217.08
254.281	287.3
254.744	334.11
255.207	291.98
255.67	280.28
256.133	235.81
256.596	289.64
257.059	289.64
257.522	282.62
257.984	268.58
258.447	291.98
258.909	287.3
259.372	273.26
259.834	296.66
260.297	313.05
260.759	287.3
261.221	317.73
261.684	254.53
262.146	242.83
262.608	266.24
263.07	336.45
263.532	324.75
263.994	273.26
264.456	277.94
264.918	355.18
265.38	366.88
265.842	303.68
266.303	259.21
266.765	336.45
267.227	273.26
267.688	282.62
268.15	284.96
268.611	364.54
269.072	296.66
269.534	221.77
269.995	277.94
270.456	233.47
270.918	259.21
271.379	247.51
271.84	359.86
272.301	294.32
272.762	362.2
273.223	317.73
273.684	275.6
274.144	284.96
274.605	313.05
275.066	313.05
275.527	320.07
275.987	308.37
276.448	219.43
276.908	280.28
277.369	256.87
277.829	240.49
278.289	221.77
278.75	336.45
279.21	315.39
279.67	327.09
280.13	284.96
280.59	284.96
281.05	291.98
281.51	317.73
281.97	334.11
282.43	299
282.89	233.47
283.35	296.66
283.809	310.71
284.269	308.37
284.729	259.21
285.188	329.43
285.648	294.32
286.107	362.2
286.567	263.9
287.026	345.81
287.485	306.03
287.944	289.64
288.404	387.94
288.863	287.3
289.322	291.98
289.781	284.96
290.24	362.2
290.699	261.55
291.158	270.92
291.616	277.94
292.075	336.45
292.534	308.37
292.992	348.15
293.451	338.79
293.91	317.73
294.368	198.36
294.827	291.98
295.285	338.79
295.743	296.66
296.202	301.34
296.66	320.07
297.118	324.75
297.576	310.71
298.034	317.73
298.492	296.66
298.95	273.26
299.408	308.37
299.866	282.62
300.324	291.98
300.781	327.09
301.239	268.58
301.697	282.62
302.154	329.43
302.612	263.9
303.069	315.39
303.527	355.18
303.984	338.79
304.441	348.15
304.899	366.88
305.356	280.28
305.813	315.39
306.27	263.9
306.727	282.62
307.184	348.15
307.641	254.53
308.098	364.54
308.555	376.24
309.012	301.34
309.468	226.45
309.925	315.39
310.382	320.07
310.838	301.34
311.295	315.39
311.751	320.07
312.208	345.81
312.664	362.2
313.12	296.66
313.577	270.92
314.033	310.71
314.489	296.66
314.945	327.09
315.401	299
315.857	334.11
316.313	254.53
316.769	289.64
317.225	334.11
317.681	235.81
318.136	280.28
318.592	301.34
319.048	291.98
319.503	299
319.959	315.39
320.414	357.52
320.869	273.26
321.325	282.62
321.78	263.9
322.235	299
322.691	320.07
323.146	296.66
323.601	329.43
324.056	343.47
324.511	320.07
324.966	226.45
325.421	270.92
325.875	263.9
326.33	252.19
326.785	291.98
327.24	366.88
327.694	320.07
328.149	282.62
328.603	343.47
329.058	320.07
329.512	320.07
329.966	334.11
330.421	366.88
330.875	317.73
331.329	268.58
331.783	376.24
332.237	308.37
332.691	291.98
333.145	343.47
333.599	280.28
334.053	306.03
334.507	287.3
334.96	329.43
335.414	350.5
335.868	310.71
336.321	327.09
336.775	252.19
337.228	291.98
337.682	336.45
338.135	273.26
338.588	352.84
339.042	329.43
339.495	320.07
339.948	282.62
340.401	226.45
340.854	289.64
341.307	254.53
341.76	273.26
342.213	320.07
342.666	343.47
343.119	352.84
343.571	320.07
344.024	306.03
344.477	310.71
344.929	299
345.382	299
345.834	380.92
346.287	327.09
346.739	315.39
347.191	301.34
347.644	320.07
348.096	327.09
348.548	296.66
349	336.45
349.452	376.24
349.904	334.11
350.356	301.34
350.808	252.19
351.26	282.62
351.711	291.98
352.163	299
352.615	306.03
353.066	296.66
353.518	291.98
353.969	291.98
354.421	352.84
354.872	233.47
355.324	238.15
355.775	296.66
356.226	301.34
356.677	378.58
357.128	315.39
357.579	289.64
358.03	341.13
358.481	306.03
358.932	289.64
359.383	308.37
359.834	273.26
360.285	345.81
360.735	270.92
361.186	277.94
361.637	301.34
362.087	291.98
362.538	324.75
362.988	296.66
363.438	280.28
363.889	306.03
364.339	310.71
364.789	317.73
365.239	294.32
365.689	310.71
366.139	383.26
366.589	376.24
367.039	273.26
367.489	327.09
367.939	291.98
368.389	273.26
368.839	282.62
369.288	296.66
369.738	324.75
370.187	301.34
370.637	301.34
371.086	343.47
371.536	373.9
371.985	289.64
372.434	310.71
372.884	306.03
373.333	280.28
373.782	245.17
374.231	249.85
374.68	348.15
375.129	317.73
375.578	329.43
376.027	338.79
376.475	303.68
376.924	301.34
377.373	273.26
377.822	348.15
378.27	329.43
378.719	401.99
379.167	334.11
379.616	343.47
380.064	320.07
380.512	277.94
380.961	329.43
381.409	270.92
381.857	308.37
382.305	315.39
382.753	284.96
383.201	338.79
383.649	301.34
384.097	273.26
384.545	317.73
384.992	289.64
385.44	315.39
385.888	245.17
386.335	315.39
386.783	226.45
387.231	366.88
387.678	294.32
388.125	301.34
388.573	308.37
389.02	277.94
389.467	268.58
389.914	327.09
390.362	301.34
390.809	334.11
391.256	355.18
391.703	313.05
392.15	306.03
392.596	296.66
393.043	299
393.49	296.66
393.937	359.86
394.383	336.45
394.83	317.73
395.276	306.03
395.723	299
396.169	294.32
396.616	315.39
397.062	385.6
397.508	327.09
397.954	301.34
398.401	280.28
398.847	261.55
399.293	334.11
399.739	348.15
400.185	268.58
400.631	320.07
401.076	320.07
401.522	322.41
401.968	338.79
402.414	322.41
402.859	296.66
403.305	245.17
403.75	364.54
404.196	273.26
404.641	313.05
405.086	355.18
405.532	320.07
405.977	277.94
406.422	338.79
406.867	336.45
407.312	221.77
407.757	352.84
408.202	252.19
408.647	273.26
409.092	324.75
409.537	336.45
409.982	322.41
410.426	306.03
410.871	366.88
411.316	345.81
411.76	329.43
412.205	387.94
412.649	299
413.093	282.62
413.538	334.11
413.982	306.03
414.426	350.5
414.87	366.88
415.314	338.79
415.758	373.9
416.202	327.09
416.646	280.28
417.09	338.79
417.534	324.75
417.978	291.98
418.421	343.47
418.865	338.79
419.309	263.9
419.752	303.68
420.196	376.24
420.639	299
421.083	334.11
421.526	362.2
421.969	322.41
422.412	320.07
422.856	320.07
423.299	327.09
423.742	303.68
424.185	275.6
424.628	259.21
425.071	324.75
425.513	315.39
425.956	261.55
426.399	289.64
426.842	289.64
427.284	350.5
427.727	299
428.169	296.66
428.612	315.39
429.054	320.07
429.497	345.81
429.939	329.43
430.381	280.28
430.823	317.73
431.265	296.66
431.707	371.56
432.149	287.3
432.591	343.47
433.033	352.84
433.475	341.13
433.917	294.32
434.359	238.15
434.8	270.92
435.242	392.62
435.684	341.13
436.125	247.51
436.567	331.77
437.008	334.11
437.449	385.6
437.891	387.94
438.332	289.64
438.773	261.55
439.214	387.94
439.656	324.75
440.097	289.64
440.538	320.07
440.978	287.3
441.419	331.77
441.86	284.96
442.301	320.07
442.742	291.98
443.182	289.64
443.623	308.37
444.063	336.45
444.504	306.03
444.944	324.75
445.385	338.79
445.825	268.58
446.265	277.94
446.706	242.83
447.146	322.41
447.586	273.26
448.026	322.41
448.466	280.28
448.906	366.88
449.346	294.32
449.786	301.34
450.225	275.6
450.665	282.62
451.105	343.47
451.544	369.22
451.984	371.56
452.424	387.94
452.863	249.85
453.302	289.64
453.742	289.64
454.181	256.87
454.62	303.68
455.059	270.92
455.499	282.62
455.938	320.07
456.377	261.55
456.816	299
457.254	380.92
457.693	277.94
458.132	343.47
458.571	338.79
459.01	310.71
459.448	289.64
459.887	313.05
460.325	228.79
460.764	343.47
461.202	338.79
461.641	315.39
462.079	355.18
462.517	336.45
462.955	341.13
463.393	371.56
463.832	355.18
464.27	315.39
464.708	329.43
465.145	359.86
465.583	331.77
466.021	338.79
466.459	280.28
466.897	334.11
467.334	350.5
467.772	369.22
468.209	324.75
468.647	287.3
469.084	359.86
469.522	369.22
469.959	369.22
470.396	369.22
470.833	313.05
471.271	299
471.708	294.32
472.145	327.09
472.582	373.9
473.019	303.68
473.456	320.07
473.892	364.54
474.329	315.39
474.766	306.03
475.202	317.73
475.639	301.34
476.076	324.75
476.512	317.73
476.949	266.24
477.385	343.47
477.821	320.07
478.258	270.92
478.694	291.98
479.13	317.73
479.566	327.09
480.002	320.07
480.438	291.98
480.874	371.56
481.31	338.79
481.746	352.84
482.181	310.71
482.617	338.79
483.053	317.73
483.488	348.15
483.924	308.37
484.36	315.39
484.795	263.9
485.23	249.85
485.666	338.79
486.101	329.43
486.536	341.13
486.971	310.71
487.407	345.81
487.842	334.11
488.277	390.28
488.712	242.83
489.146	310.71
489.581	320.07
490.016	308.37
490.451	266.24
490.885	357.52
491.32	287.3
491.755	287.3
492.189	357.52
492.624	350.5
493.058	263.9
493.492	364.54
493.927	322.41
494.361	291.98
494.795	369.22
495.229	362.2
495.663	366.88
496.097	299
496.531	404.33
496.965	373.9
497.399	345.81
497.833	306.03
498.266	310.71
498.7	306.03
499.134	306.03
499.567	348.15
500.001	359.86
500.434	301.34
500.868	359.86
501.301	317.73
501.734	348.15
502.168	327.09
502.601	287.3
503.034	308.37
503.467	338.79
503.9	301.34
504.333	362.2
504.766	261.55
505.199	348.15
505.632	324.75
506.064	287.3
506.497	299
506.93	273.26
507.362	287.3
507.795	317.73
508.227	341.13
508.66	366.88
509.092	310.71
509.524	299
509.956	343.47
510.389	331.77
510.821	296.66
511.253	282.62
511.685	277.94
512.117	303.68
512.549	289.64
512.981	327.09
513.412	362.2
513.844	331.77
514.276	280.28
514.707	348.15
515.139	329.43
515.571	397.31
516.002	336.45
516.433	306.03
516.865	310.71
517.296	310.71
517.727	369.22
518.159	296.66
518.59	401.99
519.021	296.66
519.452	231.13
519.883	341.13
520.314	341.13
520.744	334.11
521.175	308.37
521.606	308.37
522.037	317.73
522.467	359.86
522.898	327.09
523.328	315.39
523.759	338.79
524.189	306.03
524.62	284.96
525.05	352.84
525.48	299
525.91	315.39
526.341	341.13
526.771	317.73
527.201	355.18
527.631	352.84
528.061	373.9
528.49	317.73
528.92	357.52
529.35	277.94
529.78	252.19
530.209	301.34
530.639	343.47
531.068	221.77
531.498	294.32
531.927	362.2
532.357	338.79
532.786	228.79
533.215	303.68
533.644	294.32
534.074	308.37
534.503	343.47
534.932	350.5
535.361	345.81
535.79	308.37
536.218	329.43
536.647	341.13
537.076	327.09
537.505	357.52
537.933	366.88
538.362	371.56
538.79	331.77
539.219	320.07
539.647	301.34
540.076	217.08
540.504	266.24
540.932	313.05
541.36	357.52
541.788	268.58
542.217	320.07
542.645	289.64
543.073	303.68
543.5	315.39
543.928	336.45
544.356	366.88
544.784	348.15
545.211	294.32
545.639	322.41
546.067	240.49
546.494	310.71
546.922	348.15
547.349	359.86
547.776	341.13
548.204	284.96
548.631	338.79
549.058	296.66
549.485	313.05
549.912	266.24
550.339	387.94
550.766	348.15
551.193	364.54
551.62	341.13
552.047	289.64
552.474	327.09
552.9	315.39
553.327	310.71
553.754	322.41
554.18	212.4
554.607	343.47
555.033	359.86
555.459	231.13
555.886	341.13
556.312	350.5
556.738	317.73
557.164	284.96
557.59	369.22
558.016	284.96
558.442	270.92
558.868	329.43
559.294	303.68
559.72	289.64
560.145	294.32
560.571	362.2
560.997	348.15
561.422	345.81
561.848	320.07
562.273	336.45
562.699	289.64
563.124	287.3
563.549	301.34
563.974	324.75
564.4	348.15
564.825	329.43
565.25	327.09
565.675	376.24
566.1	331.77
566.525	301.34
566.95	338.79
567.374	334.11
567.799	315.39
568.224	378.58
568.648	348.15
569.073	348.15
569.497	387.94
569.922	299
570.346	308.37
570.771	296.66
571.195	287.3
571.619	261.55
572.043	310.71
572.467	306.03
572.891	308.37
573.315	294.32
573.739	315.39
574.163	348.15
574.587	303.68
575.011	310.71
575.435	331.77
575.858	383.26
576.282	394.97
576.705	252.19
577.129	324.75
577.552	313.05
577.976	371.56
578.399	343.47
578.822	282.62
579.245	327.09
579.669	327.09
580.092	280.28
580.515	350.5
580.938	291.98
581.361	371.56
581.784	338.79
582.206	329.43
582.629	350.5
583.052	263.9
583.474	289.64
583.897	320.07
584.32	296.66
584.742	275.6
585.165	343.47
585.587	310.71
586.009	324.75
586.431	369.22
586.854	359.86
587.276	313.05
587.698	301.34
588.12	322.41
588.542	369.22
588.964	341.13
589.386	364.54
589.807	324.75
590.229	355.18
590.651	266.24
591.073	341.13
591.494	348.15
591.916	299
592.337	385.6
592.759	336.45
593.18	275.6
593.601	296.66
594.022	287.3
594.444	334.11
594.865	287.3
595.286	355.18
595.707	317.73
596.128	350.5
596.549	345.81
596.97	331.77
597.39	329.43
597.811	291.98
598.232	294.32
598.652	334.11
599.073	317.73
599.494	277.94
599.914	306.03
600.334	336.45
600.755	270.92
601.175	334.11
601.595	275.6
602.015	308.37
602.436	296.66
602.856	437.1
603.276	294.32
603.696	308.37
604.115	329.43
604.535	294.32
604.955	256.87
605.375	327.09
605.794	329.43
606.214	362.2
606.634	322.41
607.053	345.81
607.473	348.15
607.892	343.47
608.311	299
608.731	317.73
609.15	310.71
609.569	310.71
609.988	369.22
610.407	301.34
610.826	287.3
611.245	320.07
611.664	357.52
612.083	327.09
612.501	343.47
612.92	313.05
613.339	371.56
613.757	310.71
614.176	287.3
614.594	355.18
615.013	275.6
615.431	299
615.85	287.3
616.268	317.73
616.686	306.03
617.104	289.64
617.522	357.52
617.94	401.99
618.358	306.03
618.776	364.54
619.194	268.58
619.612	348.15
620.03	371.56
620.447	284.96
620.865	376.24
621.282	331.77
621.7	324.75
622.117	322.41
622.535	331.77
622.952	212.4
623.369	299
623.787	266.24
624.204	313.05
624.621	378.58
625.038	247.51
625.455	324.75
625.872	350.5
626.289	303.68
626.706	280.28
627.123	303.68
627.539	275.6
627.956	345.81
628.373	359.86
628.789	362.2
629.206	341.13
629.622	383.26
630.038	301.34
630.455	270.92
630.871	261.55
631.287	313.05
631.703	338.79
632.12	310.71
632.536	352.84
632.952	320.07
633.368	317.73
633.783	334.11
634.199	338.79
634.615	289.64
635.031	320.07
635.446	338.79
635.862	350.5
636.277	357.52
636.693	310.71
637.108	282.62
637.524	423.05
637.939	336.45
638.354	334.11
638.77	371.56
639.185	287.3
639.6	324.75
640.015	320.07
640.43	341.13
640.845	327.09
641.259	308.37
641.674	299
642.089	301.34
642.504	299
642.918	273.26
643.333	348.15
643.747	338.79
644.162	362.2
644.576	329.43
644.991	315.39
645.405	291.98
645.819	301.34
646.233	284.96
646.647	348.15
647.061	270.92
647.475	306.03
647.889	296.66
648.303	397.31
648.717	320.07
649.131	399.65
649.545	299
649.958	359.86
650.372	364.54
650.785	390.28
651.199	336.45
651.612	320.07
652.026	308.37
652.439	273.26
652.852	299
653.266	324.75
653.679	282.62
654.092	277.94
654.505	268.58
654.918	310.71
655.331	308.37
655.744	338.79
656.156	364.54
656.569	345.81
656.982	315.39
657.394	306.03
657.807	277.94
658.22	338.79
658.632	352.84
659.044	284.96
659.457	294.32
659.869	303.68
660.281	296.66
660.693	233.47
661.106	322.41
661.518	252.19
661.93	280.28
662.342	284.96
662.754	301.34
663.165	294.32
663.577	357.52
663.989	366.88
664.401	303.68
664.812	324.75
665.224	336.45
665.635	376.24
666.047	315.39
666.458	350.5
666.869	331.77
667.281	287.3
667.692	291.98
668.103	317.73
668.514	313.05
668.925	327.09
669.336	392.62
669.747	334.11
670.158	310.71
670.569	322.41
670.979	320.07
671.39	329.43
671.801	308.37
672.211	315.39
672.622	294.32
673.032	348.15
673.443	301.34
673.853	352.84
674.263	317.73
674.674	294.32
675.084	291.98
675.494	352.84
675.904	378.58
676.314	376.24
676.724	284.96
677.134	287.3
677.544	336.45
677.953	289.64
678.363	301.34
678.773	299
679.182	261.55
679.592	306.03
680.001	259.21
680.411	263.9
680.82	324.75
681.23	287.3
681.639	256.87
682.048	299
682.457	277.94
682.866	317.73
683.275	373.9
683.684	303.68
684.093	324.75
684.502	350.5
684.911	301.34
685.32	394.97
685.728	336.45
686.137	242.83
686.546	280.28
686.954	277.94
687.363	315.39
687.771	320.07
688.179	329.43
688.588	324.75
688.996	313.05
689.404	252.19
689.812	320.07
690.22	348.15
690.628	359.86
691.036	341.13
691.444	320.07
691.852	315.39
692.26	320.07
692.667	317.73
693.075	331.77
693.483	315.39
693.89	331.77
694.298	296.66
694.705	334.11
695.112	364.54
695.52	261.55
695.927	313.05
696.334	322.41
696.741	336.45
697.148	268.58
697.555	301.34
697.962	359.86
698.369	355.18
698.776	296.66
699.183	275.6
699.59	306.03
699.996	359.86
700.403	338.79
700.81	327.09
701.216	369.22
701.623	299
702.029	261.55
702.435	306.03
702.842	296.66
703.248	327.09
703.654	301.34
704.06	324.75
704.466	303.68
704.872	308.37
705.278	287.3
705.684	357.52
706.09	317.73
706.496	266.24
706.901	296.66
707.307	331.77
707.712	315.39
708.118	329.43
708.523	294.32
708.929	317.73
709.334	313.05
709.74	303.68
710.145	282.62
710.55	308.37
710.955	263.9
711.36	364.54
711.765	341.13
712.17	291.98
712.575	371.56
712.98	834.99
713.385	315.39
713.789	364.54
714.194	310.71
714.599	303.68
715.003	245.17
715.408	345.81
715.812	371.56
716.217	268.58
716.621	336.45
717.025	343.47
717.429	338.79
717.833	303.68
718.238	341.13
718.642	338.79
719.046	308.37
719.449	324.75
719.853	313.05
720.257	289.64
720.661	324.75
721.065	329.43
721.468	331.77
721.872	284.96
722.275	324.75
722.679	313.05
723.082	329.43
723.485	345.81
723.889	327.09
724.292	299
724.695	289.64
725.098	324.75
725.501	348.15
725.904	329.43
726.307	315.39
726.71	334.11
727.113	327.09
727.516	357.52
727.918	296.66
728.321	280.28
728.724	238.15
729.126	338.79
729.529	273.26
729.931	266.24
730.333	324.75
730.736	317.73
731.138	306.03
731.54	310.71
731.942	303.68
732.344	331.77
732.746	371.56
733.148	299
733.55	291.98
733.952	275.6
734.354	233.47
734.756	299
735.157	348.15
735.559	399.65
735.96	308.37
736.362	306.03
736.763	320.07
737.165	320.07
737.566	322.41
737.967	296.66
738.368	373.9
738.77	348.15
739.171	343.47
739.572	317.73
739.973	270.92
740.374	352.84
740.774	306.03
741.175	299
741.576	352.84
741.977	306.03
742.377	303.68
742.778	317.73
743.178	357.52
743.579	327.09
743.979	341.13
744.379	378.58
744.78	338.79
745.18	334.11
745.58	296.66
745.98	327.09
746.38	299
746.78	287.3
747.18	317.73
747.58	331.77
747.98	310.71
748.38	338.79
748.779	327.09
749.179	320.07
749.578	322.41
749.978	320.07
750.377	263.9
750.777	338.79
751.176	362.2
751.575	341.13
751.975	334.11
752.374	324.75
752.773	343.47
753.172	322.41
753.571	308.37
753.97	327.09
754.369	373.9
754.768	299
755.166	275.6
755.565	310.71
755.964	282.62
756.362	259.21
756.761	380.92
757.159	345.81
757.558	315.39
757.956	366.88
758.354	387.94
758.753	270.92
759.151	301.34
759.549	294.32
759.947	277.94
760.345	256.87
760.743	315.39
761.141	376.24
761.539	355.18
761.936	364.54
762.334	256.87
762.732	284.96
763.129	296.66
763.527	338.79
763.924	306.03
764.322	355.18
764.719	261.55
765.117	270.92
765.514	296.66
765.911	317.73
766.308	310.71
766.705	315.39
767.102	380.92
