Data from Al_FLMS009871__673__15-05-09-009.txt Node

Date: Fri Mar 08 15:05:09 CST 2024
User: pe5414po
Spectrometer: FLMS00987
Trigger mode: 0
Integration Time (sec): 1.000000E-1
Scans to average: 1
Electric dark correction enabled: true
Nonlinearity correction enabled: false
Boxcar width: 0
XAxis mode: Wavelengths
Number of Pixels in Spectrum: 2048
>>>>>Begin Spectral Data<<<<<
188.938	-56.32
189.409	-56.32
189.879	-56.32
190.349	-100.79
190.819	-98.45
191.29	-103.13
191.76	-107.81
192.23	-149.94
192.7	-86.75
193.17	-77.38
193.64	-0.15
194.109	2.19
194.579	41.98
195.049	-28.23
195.519	13.9
195.988	23.26
196.458	95.82
196.927	86.45
197.397	4.53
197.866	142.63
198.336	142.63
198.805	114.54
199.274	147.31
199.744	142.63
200.213	269.02
200.682	170.71
201.151	226.89
201.62	233.91
202.089	240.93
202.558	229.23
203.027	250.29
203.495	226.89
203.964	243.27
204.433	229.23
204.902	254.97
205.37	261.99
205.839	287.74
206.307	224.55
206.776	292.42
207.244	297.1
207.712	252.63
208.181	280.72
208.649	355.62
209.117	269.02
209.585	266.67
210.053	271.36
210.521	332.21
210.989	304.12
211.457	215.18
211.925	353.27
212.393	332.21
212.861	250.29
213.328	269.02
213.796	201.14
214.264	219.86
214.731	301.78
215.199	243.27
215.666	290.08
216.133	236.25
216.601	283.06
217.068	245.61
217.535	280.72
218.003	290.08
218.47	348.59
218.937	240.93
219.404	278.38
219.871	257.31
220.338	252.63
220.805	311.14
221.271	252.63
221.738	271.36
222.205	217.52
222.671	271.36
223.138	259.65
223.605	290.08
224.071	168.37
224.538	254.97
225.004	238.59
225.47	219.86
225.937	294.76
226.403	346.25
226.869	264.33
227.335	217.52
227.801	226.89
228.267	254.97
228.733	233.91
229.199	259.65
229.665	250.29
230.131	250.29
230.597	315.83
231.062	247.95
231.528	285.4
231.994	196.46
232.459	233.91
232.925	290.08
233.39	240.93
233.856	395.4
234.321	252.63
234.786	322.85
235.252	257.31
235.717	276.04
236.182	269.02
236.647	276.04
237.112	259.65
237.577	240.93
238.042	236.25
238.507	252.63
238.972	264.33
239.436	322.85
239.901	247.95
240.366	306.46
240.83	243.27
241.295	292.42
241.76	311.14
242.224	166.03
242.688	276.04
243.153	285.4
243.617	315.83
244.081	273.7
244.545	233.91
245.01	292.42
245.474	259.65
245.938	276.04
246.402	311.14
246.866	290.08
247.33	311.14
247.793	290.08
248.257	269.02
248.721	334.55
249.185	266.67
249.648	250.29
250.112	285.4
250.575	210.5
251.039	369.66
251.502	287.74
251.965	266.67
252.429	231.57
252.892	287.74
253.355	325.19
253.818	261.99
254.281	334.55
254.744	201.14
255.207	229.23
255.67	238.59
256.133	257.31
256.596	290.08
257.059	250.29
257.522	315.83
257.984	301.78
258.447	194.12
258.909	313.49
259.372	266.67
259.834	243.27
260.297	311.14
260.759	299.44
261.221	264.33
261.684	226.89
262.146	271.36
262.608	292.42
263.07	261.99
263.532	301.78
263.994	343.91
264.456	327.53
264.918	273.7
265.38	322.85
265.842	329.87
266.303	336.89
266.765	219.86
267.227	301.78
267.688	283.06
268.15	320.51
268.611	233.91
269.072	348.59
269.534	240.93
269.995	306.46
270.456	306.46
270.918	350.93
271.379	301.78
271.84	299.44
272.301	308.8
272.762	299.44
273.223	264.33
273.684	292.42
274.144	294.76
274.605	280.72
275.066	299.44
275.527	264.33
275.987	273.7
276.448	254.97
276.908	280.72
277.369	290.08
277.829	301.78
278.289	325.19
278.75	301.78
279.21	271.36
279.67	294.76
280.13	250.29
280.59	294.76
281.05	292.42
281.51	313.49
281.97	250.29
282.43	379.02
282.89	292.42
283.35	226.89
283.809	348.59
284.269	238.59
284.729	320.51
285.188	254.97
285.648	306.46
286.107	283.06
286.567	245.61
287.026	273.7
287.485	301.78
287.944	308.8
288.404	297.1
288.863	320.51
289.322	226.89
289.781	283.06
290.24	276.04
290.699	332.21
291.158	278.38
291.616	264.33
292.075	311.14
292.534	315.83
292.992	222.2
293.451	294.76
293.91	306.46
294.368	297.1
294.827	224.55
295.285	327.53
295.743	292.42
296.202	318.17
296.66	224.55
297.118	238.59
297.576	336.89
298.034	320.51
298.492	332.21
298.95	290.08
299.408	273.7
299.866	285.4
300.324	278.38
300.781	306.46
301.239	322.85
301.697	315.83
302.154	250.29
302.612	290.08
303.069	304.12
303.527	250.29
303.984	243.27
304.441	271.36
304.899	304.12
305.356	287.74
305.813	294.76
306.27	271.36
306.727	318.17
307.184	269.02
307.641	299.44
308.098	329.87
308.555	280.72
309.012	318.17
309.468	327.53
309.925	336.89
310.382	278.38
310.838	341.57
311.295	364.98
311.751	299.44
312.208	280.72
312.664	332.21
313.12	245.61
313.577	271.36
314.033	290.08
314.489	210.5
314.945	273.7
315.401	250.29
315.857	313.49
316.313	350.93
316.769	287.74
317.225	264.33
317.681	261.99
318.136	264.33
318.592	315.83
319.048	346.25
319.503	348.59
319.959	290.08
320.414	353.27
320.869	238.59
321.325	290.08
321.78	250.29
322.235	350.93
322.691	322.85
323.146	292.42
323.601	290.08
324.056	341.57
324.511	259.65
324.966	339.23
325.421	334.55
325.875	327.53
326.33	334.55
326.785	290.08
327.24	334.55
327.694	332.21
328.149	266.67
328.603	285.4
329.058	308.8
329.512	336.89
329.966	250.29
330.421	325.19
330.875	297.1
331.329	252.63
331.783	299.44
332.237	346.25
332.691	294.76
333.145	257.31
333.599	266.67
334.053	280.72
334.507	304.12
334.96	311.14
335.414	311.14
335.868	325.19
336.321	304.12
336.775	250.29
337.228	269.02
337.682	311.14
338.135	322.85
338.588	339.23
339.042	322.85
339.495	294.76
339.948	348.59
340.401	315.83
340.854	353.27
341.307	269.02
341.76	334.55
342.213	334.55
342.666	313.49
343.119	332.21
343.571	285.4
344.024	322.85
344.477	355.62
344.929	325.19
345.382	292.42
345.834	273.7
346.287	297.1
346.739	350.93
347.191	271.36
347.644	297.1
348.096	273.7
348.548	369.66
349	315.83
349.452	318.17
349.904	299.44
350.356	320.51
350.808	301.78
351.26	350.93
351.711	233.91
352.163	271.36
352.615	329.87
353.066	301.78
353.518	320.51
353.969	271.36
354.421	266.67
354.872	311.14
355.324	269.02
355.775	357.96
356.226	290.08
356.677	240.93
357.128	292.42
357.579	327.53
358.03	231.57
358.481	322.85
358.932	327.53
359.383	339.23
359.834	285.4
360.285	313.49
360.735	273.7
361.186	322.85
361.637	320.51
362.087	264.33
362.538	269.02
362.988	339.23
363.438	273.7
363.889	311.14
364.339	306.46
364.789	280.72
365.239	306.46
365.689	362.64
366.139	320.51
366.589	346.25
367.039	308.8
367.489	233.91
367.939	318.17
368.389	334.55
368.839	355.62
369.288	332.21
369.738	299.44
370.187	304.12
370.637	374.34
371.086	355.62
371.536	325.19
371.985	346.25
372.434	348.59
372.884	374.34
373.333	318.17
373.782	294.76
374.231	229.23
374.68	348.59
375.129	238.59
375.578	280.72
376.027	357.96
376.475	306.46
376.924	287.74
377.373	348.59
377.822	271.36
378.27	269.02
378.719	346.25
379.167	332.21
379.616	315.83
380.064	257.31
380.512	285.4
380.961	280.72
381.409	376.68
381.857	327.53
382.305	311.14
382.753	362.64
383.201	243.27
383.649	297.1
384.097	360.3
384.545	311.14
384.992	318.17
385.44	257.31
385.888	308.8
386.335	367.32
386.783	287.74
387.231	308.8
387.678	306.46
388.125	308.8
388.573	292.42
389.02	341.57
389.467	346.25
389.914	379.02
390.362	299.44
390.809	343.91
391.256	343.91
391.703	304.12
392.15	348.59
392.596	304.12
393.043	318.17
393.49	350.93
393.937	376.68
394.383	301.78
394.83	353.27
395.276	318.17
395.723	283.06
396.169	292.42
396.616	292.42
397.062	346.25
397.508	294.76
397.954	306.46
398.401	376.68
398.847	264.33
399.293	346.25
399.739	353.27
400.185	294.76
400.631	315.83
401.076	283.06
401.522	322.85
401.968	350.93
402.414	273.7
402.859	369.66
403.305	306.46
403.75	306.46
404.196	301.78
404.641	311.14
405.086	283.06
405.532	318.17
405.977	313.49
406.422	329.87
406.867	301.78
407.312	372
407.757	322.85
408.202	311.14
408.647	315.83
409.092	315.83
409.537	313.49
409.982	306.46
410.426	334.55
410.871	332.21
411.316	327.53
411.76	283.06
412.205	364.98
412.649	290.08
413.093	414.13
413.538	257.31
413.982	278.38
414.426	322.85
414.87	313.49
415.314	348.59
415.758	372
416.202	261.99
416.646	320.51
417.09	348.59
417.534	325.19
417.978	299.44
418.421	327.53
418.865	348.59
419.309	297.1
419.752	290.08
420.196	336.89
420.639	290.08
421.083	315.83
421.526	276.04
421.969	322.85
422.412	374.34
422.856	290.08
423.299	294.76
423.742	278.38
424.185	287.74
424.628	261.99
425.071	332.21
425.513	311.14
425.956	294.76
426.399	336.89
426.842	257.31
427.284	372
427.727	301.78
428.169	320.51
428.612	332.21
429.054	315.83
429.497	318.17
429.939	273.7
430.381	315.83
430.823	278.38
431.265	322.85
431.707	332.21
432.149	306.46
432.591	257.31
433.033	252.63
433.475	306.46
433.917	343.91
434.359	266.67
434.8	329.87
435.242	341.57
435.684	266.67
436.125	350.93
436.567	306.46
437.008	320.51
437.449	273.7
437.891	297.1
438.332	245.61
438.773	276.04
439.214	311.14
439.656	297.1
440.097	327.53
440.538	259.65
440.978	287.74
441.419	320.51
441.86	261.99
442.301	261.99
442.742	294.76
443.182	336.89
443.623	311.14
444.063	350.93
444.504	294.76
444.944	311.14
445.385	318.17
445.825	287.74
446.265	236.25
446.706	287.74
447.146	297.1
447.586	299.44
448.026	271.36
448.466	259.65
448.906	369.66
449.346	304.12
449.786	322.85
450.225	388.38
450.665	308.8
451.105	283.06
451.544	362.64
451.984	409.45
452.424	325.19
452.863	327.53
453.302	311.14
453.742	308.8
454.181	322.85
454.62	336.89
455.059	285.4
455.499	329.87
455.938	290.08
456.377	306.46
456.816	346.25
457.254	301.78
457.693	259.65
458.132	308.8
458.571	294.76
459.01	322.85
459.448	273.7
459.887	290.08
460.325	350.93
460.764	306.46
461.202	320.51
461.641	297.1
462.079	332.21
462.517	287.74
462.955	350.93
463.393	250.29
463.832	294.76
464.27	311.14
464.708	294.76
465.145	297.1
465.583	355.62
466.021	301.78
466.459	273.7
466.897	320.51
467.334	308.8
467.772	327.53
468.209	315.83
468.647	329.87
469.084	320.51
469.522	313.49
469.959	290.08
470.396	304.12
470.833	339.23
471.271	339.23
471.708	283.06
472.145	332.21
472.582	283.06
473.019	301.78
473.456	311.14
473.892	287.74
474.329	254.97
474.766	301.78
475.202	264.33
475.639	306.46
476.076	294.76
476.512	292.42
476.949	311.14
477.385	320.51
477.821	350.93
478.258	329.87
478.694	292.42
479.13	339.23
479.566	367.32
480.002	240.93
480.438	297.1
480.874	292.42
481.31	343.91
481.746	353.27
482.181	280.72
482.617	271.36
483.053	334.55
483.488	285.4
483.924	280.72
484.36	280.72
484.795	332.21
485.23	341.57
485.666	334.55
486.101	346.25
486.536	360.3
486.971	343.91
487.407	231.57
487.842	290.08
488.277	364.98
488.712	287.74
489.146	271.36
489.581	332.21
490.016	397.74
490.451	299.44
490.885	233.91
491.32	252.63
491.755	254.97
492.189	353.27
492.624	318.17
493.058	332.21
493.492	318.17
493.927	297.1
494.361	336.89
494.795	294.76
495.229	297.1
495.663	322.85
496.097	308.8
496.531	299.44
496.965	269.02
497.399	322.85
497.833	306.46
498.266	364.98
498.7	355.62
499.134	322.85
499.567	329.87
500.001	318.17
500.434	313.49
500.868	276.04
501.301	320.51
501.734	278.38
502.168	346.25
502.601	325.19
503.034	269.02
503.467	353.27
503.9	322.85
504.333	332.21
504.766	271.36
505.199	304.12
505.632	332.21
506.064	250.29
506.497	273.7
506.93	332.21
507.362	315.83
507.795	325.19
508.227	266.67
508.66	292.42
509.092	376.68
509.524	271.36
509.956	308.8
510.389	297.1
510.821	339.23
511.253	339.23
511.685	294.76
512.117	350.93
512.549	308.8
512.981	343.91
513.412	254.97
513.844	264.33
514.276	287.74
514.707	252.63
515.139	346.25
515.571	306.46
516.002	334.55
516.433	336.89
516.865	318.17
517.296	266.67
517.727	327.53
518.159	332.21
518.59	341.57
519.021	304.12
519.452	339.23
519.883	332.21
520.314	301.78
520.744	348.59
521.175	329.87
521.606	259.65
522.037	348.59
522.467	320.51
522.898	325.19
523.328	264.33
523.759	364.98
524.189	311.14
524.62	292.42
525.05	308.8
525.48	278.38
525.91	318.17
526.341	250.29
526.771	292.42
527.201	374.34
527.631	350.93
528.061	299.44
528.49	257.31
528.92	334.55
529.35	346.25
529.78	278.38
530.209	346.25
530.639	297.1
531.068	313.49
531.498	271.36
531.927	308.8
532.357	308.8
532.786	355.62
533.215	329.87
533.644	332.21
534.074	318.17
534.503	308.8
534.932	322.85
535.361	301.78
535.79	287.74
536.218	332.21
536.647	327.53
537.076	395.4
537.505	386.04
537.933	266.67
538.362	329.87
538.79	299.44
539.219	376.68
539.647	287.74
540.076	259.65
540.504	245.61
540.932	308.8
541.36	315.83
541.788	304.12
542.217	261.99
542.645	348.59
543.073	294.76
543.5	374.34
543.928	339.23
544.356	327.53
544.784	301.78
545.211	259.65
545.639	308.8
546.067	311.14
546.494	294.76
546.922	343.91
547.349	294.76
547.776	318.17
548.204	311.14
548.631	409.45
549.058	294.76
549.485	287.74
549.912	290.08
550.339	325.19
550.766	271.36
551.193	325.19
551.62	299.44
552.047	304.12
552.474	252.63
552.9	261.99
553.327	299.44
553.754	294.76
554.18	311.14
554.607	313.49
555.033	299.44
555.459	336.89
555.886	339.23
556.312	287.74
556.738	315.83
557.164	294.76
557.59	304.12
558.016	273.7
558.442	285.4
558.868	388.38
559.294	315.83
559.72	329.87
560.145	343.91
560.571	315.83
560.997	343.91
561.422	332.21
561.848	278.38
562.273	280.72
562.699	238.59
563.124	332.21
563.549	311.14
563.974	360.3
564.4	285.4
564.825	264.33
565.25	269.02
565.675	287.74
566.1	259.65
566.525	297.1
566.95	329.87
567.374	322.85
567.799	336.89
568.224	271.36
568.648	276.04
569.073	306.46
569.497	311.14
569.922	308.8
570.346	285.4
570.771	273.7
571.195	318.17
571.619	372
572.043	299.44
572.467	283.06
572.891	292.42
573.315	252.63
573.739	271.36
574.163	346.25
574.587	367.32
575.011	301.78
575.435	285.4
575.858	290.08
576.282	266.67
576.705	189.44
577.129	315.83
577.552	292.42
577.976	327.53
578.399	306.46
578.822	329.87
579.245	276.04
579.669	320.51
580.092	290.08
580.515	233.91
580.938	311.14
581.361	273.7
581.784	357.96
582.206	247.95
582.629	280.72
583.052	283.06
583.474	311.14
583.897	311.14
584.32	301.78
584.742	285.4
585.165	320.51
585.587	343.91
586.009	250.29
586.431	269.02
586.854	315.83
587.276	283.06
587.698	318.17
588.12	271.36
588.542	285.4
588.964	304.12
589.386	348.59
589.807	294.76
590.229	308.8
590.651	283.06
591.073	329.87
591.494	325.19
591.916	320.51
592.337	308.8
592.759	259.65
593.18	348.59
593.601	290.08
594.022	315.83
594.444	224.55
594.865	332.21
595.286	283.06
595.707	266.67
596.128	299.44
596.549	341.57
596.97	325.19
597.39	240.93
597.811	259.65
598.232	350.93
598.652	236.25
599.073	261.99
599.494	285.4
599.914	308.8
600.334	306.46
600.755	278.38
601.175	383.7
601.595	236.25
602.015	280.72
602.436	299.44
602.856	477.32
603.276	364.98
603.696	311.14
604.115	341.57
604.535	266.67
604.955	257.31
605.375	369.66
605.794	362.64
606.214	254.97
606.634	353.27
607.053	311.14
607.473	320.51
607.892	285.4
608.311	287.74
608.731	271.36
609.15	301.78
609.569	306.46
609.988	339.23
610.407	271.36
610.826	304.12
611.245	372
611.664	271.36
612.083	283.06
612.501	355.62
612.92	311.14
613.339	304.12
613.757	322.85
614.176	278.38
614.594	318.17
615.013	301.78
615.431	315.83
615.85	301.78
616.268	276.04
616.686	224.55
617.104	348.59
617.522	304.12
617.94	348.59
618.358	278.38
618.776	327.53
619.194	348.59
619.612	264.33
620.03	320.51
620.447	332.21
620.865	261.99
621.282	278.38
621.7	362.64
622.117	245.61
622.535	269.02
622.952	313.49
623.369	266.67
623.787	313.49
624.204	315.83
624.621	318.17
625.038	226.89
625.455	325.19
625.872	287.74
626.289	327.53
626.706	308.8
627.123	339.23
627.539	379.02
627.956	332.21
628.373	336.89
628.789	313.49
629.206	292.42
629.622	325.19
630.038	301.78
630.455	238.59
630.871	301.78
631.287	329.87
631.703	280.72
632.12	386.04
632.536	297.1
632.952	283.06
633.368	357.96
633.783	379.02
634.199	306.46
634.615	355.62
635.031	334.55
635.446	292.42
635.862	315.83
636.277	285.4
636.693	294.76
637.108	257.31
637.524	348.59
637.939	299.44
638.354	278.38
638.77	315.83
639.185	334.55
639.6	325.19
640.015	350.93
640.43	327.53
640.845	304.12
641.259	224.55
641.674	313.49
642.089	357.96
642.504	233.91
642.918	273.7
643.333	247.95
643.747	395.4
644.162	301.78
644.576	257.31
644.991	306.46
645.405	301.78
645.819	212.84
646.233	292.42
646.647	287.74
647.061	332.21
647.475	301.78
647.889	285.4
648.303	278.38
648.717	308.8
649.131	348.59
649.545	334.55
649.958	311.14
650.372	285.4
650.785	313.49
651.199	297.1
651.612	243.27
652.026	306.46
652.439	343.91
652.852	226.89
653.266	271.36
653.679	299.44
654.092	285.4
654.505	290.08
654.918	283.06
655.331	313.49
655.744	313.49
656.156	254.97
656.569	355.62
656.982	283.06
657.394	292.42
657.807	357.96
658.22	287.74
658.632	299.44
659.044	311.14
659.457	315.83
659.869	348.59
660.281	322.85
660.693	304.12
661.106	329.87
661.518	374.34
661.93	292.42
662.342	353.27
662.754	325.19
663.165	315.83
663.577	280.72
663.989	357.96
664.401	346.25
664.812	304.12
665.224	346.25
665.635	304.12
666.047	231.57
666.458	252.63
666.869	301.78
667.281	313.49
667.692	301.78
668.103	346.25
668.514	280.72
668.925	301.78
669.336	343.91
669.747	273.7
670.158	290.08
670.569	219.86
670.979	287.74
671.39	276.04
671.801	343.91
672.211	322.85
672.622	297.1
673.032	294.76
673.443	278.38
673.853	266.67
674.263	329.87
674.674	322.85
675.084	329.87
675.494	308.8
675.904	343.91
676.314	283.06
676.724	357.96
677.134	311.14
677.544	285.4
677.953	243.27
678.363	278.38
678.773	311.14
679.182	273.7
679.592	254.97
680.001	229.23
680.411	341.57
680.82	292.42
681.23	301.78
681.639	245.61
682.048	339.23
682.457	320.51
682.866	357.96
683.275	297.1
683.684	301.78
684.093	353.27
684.502	273.7
684.911	292.42
685.32	327.53
685.728	320.51
686.137	266.67
686.546	240.93
686.954	254.97
687.363	350.93
687.771	343.91
688.179	311.14
688.588	304.12
688.996	287.74
689.404	315.83
689.812	318.17
690.22	334.55
690.628	334.55
691.036	290.08
691.444	290.08
691.852	308.8
692.26	379.02
692.667	355.62
693.075	360.3
693.483	304.12
693.89	280.72
694.298	325.19
694.705	336.89
695.112	362.64
695.52	325.19
695.927	383.7
696.334	355.62
696.741	318.17
697.148	252.63
697.555	224.55
697.962	336.89
698.369	332.21
698.776	360.3
699.183	280.72
699.59	261.99
699.996	290.08
700.403	325.19
700.81	334.55
701.216	247.95
701.623	252.63
702.029	360.3
702.435	364.98
702.842	271.36
703.248	301.78
703.654	313.49
704.06	334.55
704.466	318.17
704.872	318.17
705.278	269.02
705.684	278.38
706.09	355.62
706.496	280.72
706.901	336.89
707.307	247.95
707.712	360.3
708.118	327.53
708.523	266.67
708.929	266.67
709.334	353.27
709.74	343.91
710.145	276.04
710.55	306.46
710.955	339.23
711.36	313.49
711.765	261.99
712.17	315.83
712.575	379.02
712.98	821.38
713.385	329.87
713.789	322.85
714.194	299.44
714.599	353.27
715.003	280.72
715.408	287.74
715.812	306.46
716.217	341.57
716.621	304.12
717.025	308.8
717.429	374.34
717.833	271.36
718.238	287.74
718.642	329.87
719.046	261.99
719.449	336.89
719.853	304.12
720.257	271.36
720.661	325.19
721.065	322.85
721.468	346.25
721.872	259.65
722.275	332.21
722.679	290.08
723.082	325.19
723.485	294.76
723.889	266.67
724.292	297.1
724.695	308.8
725.098	350.93
725.501	292.42
725.904	315.83
726.307	313.49
726.71	247.95
727.113	278.38
727.516	264.33
727.918	327.53
728.321	278.38
728.724	287.74
729.126	243.27
729.529	325.19
729.931	299.44
730.333	308.8
730.736	299.44
731.138	327.53
731.54	364.98
731.942	308.8
732.344	308.8
732.746	266.67
733.148	308.8
733.55	238.59
733.952	233.91
734.354	360.3
734.756	259.65
735.157	271.36
735.559	287.74
735.96	280.72
736.362	278.38
736.763	341.57
737.165	290.08
737.566	332.21
737.967	308.8
738.368	271.36
738.77	353.27
739.171	308.8
739.572	287.74
739.973	318.17
740.374	299.44
740.774	299.44
741.175	280.72
741.576	350.93
741.977	346.25
742.377	285.4
742.778	341.57
743.178	276.04
743.579	339.23
743.979	299.44
744.379	301.78
744.78	278.38
745.18	362.64
745.58	348.59
745.98	280.72
746.38	386.04
746.78	322.85
747.18	280.72
747.58	292.42
747.98	327.53
748.38	334.55
748.779	315.83
749.179	290.08
749.578	269.02
749.978	308.8
750.377	313.49
750.777	261.99
751.176	313.49
751.575	299.44
751.975	332.21
752.374	259.65
752.773	304.12
753.172	315.83
753.571	257.31
753.97	297.1
754.369	318.17
754.768	306.46
755.166	322.85
755.565	259.65
755.964	327.53
756.362	261.99
756.761	247.95
757.159	231.57
757.558	257.31
757.956	336.89
758.354	327.53
758.753	306.46
759.151	341.57
759.549	278.38
759.947	304.12
760.345	313.49
760.743	238.59
761.141	339.23
761.539	276.04
761.936	357.96
762.334	236.25
762.732	404.77
763.129	278.38
763.527	283.06
763.924	301.78
764.322	325.19
764.719	362.64
765.117	322.85
765.514	236.25
