Data from Al_FLMS009871__660__15-05-07-709.txt Node

Date: Fri Mar 08 15:05:07 CST 2024
User: pe5414po
Spectrometer: FLMS00987
Trigger mode: 0
Integration Time (sec): 1.000000E-1
Scans to average: 1
Electric dark correction enabled: true
Nonlinearity correction enabled: false
Boxcar width: 0
XAxis mode: Wavelengths
Number of Pixels in Spectrum: 2048
>>>>>Begin Spectral Data<<<<<
188.938	-109.27
189.409	-109.27
189.879	-109.27
190.349	-109.27
190.819	-130.34
191.29	-132.68
191.76	-88.21
192.23	-92.89
192.7	-137.36
193.17	-76.51
193.64	-13.31
194.109	-13.31
194.579	21.8
195.049	12.43
195.519	28.82
195.988	113.08
196.458	5.41
196.927	87.33
197.397	129.46
197.866	49.88
198.336	106.06
198.805	94.35
199.274	199.68
199.744	202.02
200.213	180.95
200.682	246.49
201.151	223.08
201.62	265.21
202.089	267.55
202.558	274.57
203.027	251.17
203.495	262.87
203.964	326.07
204.433	295.64
204.902	260.53
205.37	323.73
205.839	363.51
206.307	319.04
206.776	295.64
207.244	272.23
207.712	295.64
208.181	323.73
208.649	293.3
209.117	295.64
209.585	340.11
210.053	286.28
210.521	300.32
210.989	340.11
211.457	300.32
211.925	330.75
212.393	305
212.861	316.7
213.328	260.53
213.796	260.53
214.264	279.26
214.731	262.87
215.199	276.91
215.666	253.51
216.133	328.41
216.601	286.28
217.068	274.57
217.535	230.1
218.003	269.89
218.47	293.3
218.937	272.23
219.404	246.49
219.871	211.38
220.338	286.28
220.805	307.34
221.271	302.66
221.738	204.36
222.205	272.23
222.671	286.28
223.138	267.55
223.605	232.44
224.071	290.96
224.538	218.4
225.004	267.55
225.47	262.87
225.937	220.74
226.403	237.13
226.869	274.57
227.335	234.78
227.801	297.98
228.267	225.42
228.733	274.57
229.199	232.44
229.665	260.53
230.131	258.19
230.597	269.89
231.062	260.53
231.528	267.55
231.994	253.51
232.459	267.55
232.925	286.28
233.39	290.96
233.856	286.28
234.321	297.98
234.786	248.83
235.252	281.6
235.717	255.85
236.182	192.66
236.647	267.55
237.112	272.23
237.577	288.62
238.042	251.17
238.507	281.6
238.972	244.15
239.436	246.49
239.901	286.28
240.366	286.28
240.83	293.3
241.295	274.57
241.76	265.21
242.224	211.38
242.688	337.77
243.153	255.85
243.617	255.85
244.081	246.49
244.545	234.78
245.01	279.26
245.474	269.89
245.938	344.79
246.402	274.57
246.866	279.26
247.33	262.87
247.793	300.32
248.257	216.06
248.721	293.3
249.185	314.36
249.648	297.98
250.112	316.7
250.575	213.72
251.039	274.57
251.502	295.64
251.965	267.55
252.429	361.17
252.892	290.96
253.355	274.57
253.818	286.28
254.281	300.32
254.744	309.68
255.207	288.62
255.67	316.7
256.133	323.73
256.596	260.53
257.059	274.57
257.522	220.74
257.984	365.85
258.447	305
258.909	290.96
259.372	288.62
259.834	295.64
260.297	316.7
260.759	253.51
261.221	297.98
261.684	328.41
262.146	290.96
262.608	267.55
263.07	297.98
263.532	295.64
263.994	340.11
264.456	330.75
264.918	309.68
265.38	272.23
265.842	305
266.303	307.34
266.765	312.02
267.227	288.62
267.688	302.66
268.15	305
268.611	286.28
269.072	307.34
269.534	314.36
269.995	274.57
270.456	342.45
270.918	239.47
271.379	300.32
271.84	258.19
272.301	302.66
272.762	262.87
273.223	333.09
273.684	307.34
274.144	389.26
274.605	260.53
275.066	326.07
275.527	290.96
275.987	230.1
276.448	333.09
276.908	375.22
277.369	300.32
277.829	260.53
278.289	267.55
278.75	272.23
279.21	288.62
279.67	330.75
280.13	333.09
280.59	244.15
281.05	312.02
281.51	328.41
281.97	283.94
282.43	295.64
282.89	340.11
283.35	209.04
283.809	335.43
284.269	297.98
284.729	281.6
285.188	302.66
285.648	344.79
286.107	290.96
286.567	290.96
287.026	312.02
287.485	297.98
287.944	281.6
288.404	363.51
288.863	330.75
289.322	330.75
289.781	305
290.24	363.51
290.699	361.17
291.158	349.47
291.616	288.62
292.075	272.23
292.534	305
292.992	319.04
293.451	302.66
293.91	309.68
294.368	260.53
294.827	290.96
295.285	279.26
295.743	340.11
296.202	302.66
296.66	347.13
297.118	363.51
297.576	286.28
298.034	293.3
298.492	279.26
298.95	335.43
299.408	328.41
299.866	253.51
300.324	326.07
300.781	351.81
301.239	267.55
301.697	255.85
302.154	335.43
302.612	276.91
303.069	267.55
303.527	309.68
303.984	279.26
304.441	361.17
304.899	281.6
305.356	333.09
305.813	307.34
306.27	309.68
306.727	295.64
307.184	279.26
307.641	305
308.098	365.85
308.555	340.11
309.012	290.96
309.468	262.87
309.925	314.36
310.382	358.83
310.838	241.81
311.295	297.98
311.751	297.98
312.208	290.96
312.664	330.75
313.12	323.73
313.577	276.91
314.033	253.51
314.489	274.57
314.945	293.3
315.401	290.96
315.857	375.22
316.313	302.66
316.769	274.57
317.225	293.3
317.681	391.6
318.136	354.15
318.592	316.7
319.048	269.89
319.503	283.94
319.959	333.09
320.414	262.87
320.869	230.1
321.325	337.77
321.78	288.62
322.235	314.36
322.691	354.15
323.146	319.04
323.601	354.15
324.056	290.96
324.511	305
324.966	267.55
325.421	321.38
325.875	328.41
326.33	302.66
326.785	281.6
327.24	365.85
327.694	251.17
328.149	316.7
328.603	288.62
329.058	312.02
329.512	316.7
329.966	300.32
330.421	351.81
330.875	379.9
331.329	297.98
331.783	314.36
332.237	302.66
332.691	379.9
333.145	351.81
333.599	319.04
334.053	333.09
334.507	297.98
334.96	356.49
335.414	309.68
335.868	307.34
336.321	323.73
336.775	375.22
337.228	255.85
337.682	251.17
338.135	351.81
338.588	361.17
339.042	326.07
339.495	312.02
339.948	314.36
340.401	323.73
340.854	309.68
341.307	314.36
341.76	293.3
342.213	398.62
342.666	309.68
343.119	340.11
343.571	328.41
344.024	330.75
344.477	328.41
344.929	349.47
345.382	288.62
345.834	312.02
346.287	326.07
346.739	302.66
347.191	372.88
347.644	290.96
348.096	372.88
348.548	295.64
349	283.94
349.452	314.36
349.904	312.02
350.356	337.77
350.808	319.04
351.26	283.94
351.711	333.09
352.163	297.98
352.615	354.15
353.066	321.38
353.518	410.33
353.969	281.6
354.421	328.41
354.872	319.04
355.324	316.7
355.775	300.32
356.226	307.34
356.677	326.07
357.128	400.96
357.579	351.81
358.03	344.79
358.481	319.04
358.932	216.06
359.383	319.04
359.834	314.36
360.285	328.41
360.735	269.89
361.186	312.02
361.637	363.51
362.087	295.64
362.538	344.79
362.988	323.73
363.438	283.94
363.889	314.36
364.339	337.77
364.789	276.91
365.239	342.45
365.689	340.11
366.139	305
366.589	358.83
367.039	333.09
367.489	347.13
367.939	330.75
368.389	342.45
368.839	316.7
369.288	389.26
369.738	326.07
370.187	358.83
370.637	361.17
371.086	286.28
371.536	258.19
371.985	272.23
372.434	307.34
372.884	262.87
373.333	305
373.782	356.49
374.231	354.15
374.68	342.45
375.129	386.92
375.578	309.68
376.027	302.66
376.475	351.81
376.924	342.45
377.373	297.98
377.822	302.66
378.27	302.66
378.719	314.36
379.167	295.64
379.616	337.77
380.064	382.24
380.512	368.2
380.961	300.32
381.409	286.28
381.857	288.62
382.305	319.04
382.753	335.43
383.201	326.07
383.649	333.09
384.097	295.64
384.545	293.3
384.992	347.13
385.44	286.28
385.888	333.09
386.335	314.36
386.783	288.62
387.231	279.26
387.678	258.19
388.125	323.73
388.573	309.68
389.02	267.55
389.467	328.41
389.914	300.32
390.362	295.64
390.809	330.75
391.256	384.58
391.703	297.98
392.15	293.3
392.596	281.6
393.043	302.66
393.49	344.79
393.937	290.96
394.383	316.7
394.83	372.88
395.276	302.66
395.723	314.36
396.169	279.26
396.616	290.96
397.062	337.77
397.508	340.11
397.954	337.77
398.401	333.09
398.847	330.75
399.293	344.79
399.739	312.02
400.185	340.11
400.631	281.6
401.076	312.02
401.522	319.04
401.968	377.56
402.414	302.66
402.859	372.88
403.305	326.07
403.75	274.57
404.196	326.07
404.641	396.28
405.086	290.96
405.532	356.49
405.977	274.57
406.422	272.23
406.867	326.07
407.312	316.7
407.757	302.66
408.202	307.34
408.647	265.21
409.092	333.09
409.537	342.45
409.982	312.02
410.426	305
410.871	330.75
411.316	262.87
411.76	309.68
412.205	321.38
412.649	286.28
413.093	326.07
413.538	377.56
413.982	312.02
414.426	354.15
414.87	356.49
415.314	267.55
415.758	349.47
416.202	302.66
416.646	314.36
417.09	354.15
417.534	272.23
417.978	340.11
418.421	344.79
418.865	333.09
419.309	309.68
419.752	293.3
420.196	283.94
420.639	314.36
421.083	290.96
421.526	307.34
421.969	330.75
422.412	260.53
422.856	379.9
423.299	358.83
423.742	258.19
424.185	330.75
424.628	365.85
425.071	286.28
425.513	344.79
425.956	328.41
426.399	312.02
426.842	279.26
427.284	365.85
427.727	314.36
428.169	302.66
428.612	288.62
429.054	281.6
429.497	344.79
429.939	379.9
430.381	316.7
430.823	328.41
431.265	354.15
431.707	333.09
432.149	248.83
432.591	365.85
433.033	274.57
433.475	328.41
433.917	314.36
434.359	309.68
434.8	293.3
435.242	363.51
435.684	274.57
436.125	305
436.567	330.75
437.008	293.3
437.449	305
437.891	326.07
438.332	342.45
438.773	344.79
439.214	297.98
439.656	328.41
440.097	342.45
440.538	286.28
440.978	300.32
441.419	290.96
441.86	335.43
442.301	351.81
442.742	333.09
443.182	326.07
443.623	288.62
444.063	253.51
444.504	319.04
444.944	347.13
445.385	328.41
445.825	370.54
446.265	344.79
446.706	349.47
447.146	340.11
447.586	269.89
448.026	333.09
448.466	309.68
448.906	293.3
449.346	372.88
449.786	262.87
450.225	281.6
450.665	349.47
451.105	307.34
451.544	337.77
451.984	269.89
452.424	307.34
452.863	312.02
453.302	356.49
453.742	335.43
454.181	305
454.62	314.36
455.059	321.38
455.499	344.79
455.938	370.54
456.377	300.32
456.816	370.54
457.254	358.83
457.693	323.73
458.132	290.96
458.571	288.62
459.01	328.41
459.448	274.57
459.887	300.32
460.325	326.07
460.764	276.91
461.202	358.83
461.641	363.51
462.079	358.83
462.517	337.77
462.955	276.91
463.393	321.38
463.832	295.64
464.27	326.07
464.708	297.98
465.145	375.22
465.583	424.37
466.021	375.22
466.459	300.32
466.897	379.9
467.334	363.51
467.772	307.34
468.209	344.79
468.647	335.43
469.084	262.87
469.522	370.54
469.959	258.19
470.396	286.28
470.833	290.96
471.271	349.47
471.708	342.45
472.145	319.04
472.582	300.32
473.019	312.02
473.456	354.15
473.892	300.32
474.329	279.26
474.766	344.79
475.202	372.88
475.639	333.09
476.076	293.3
476.512	314.36
476.949	267.55
477.385	333.09
477.821	319.04
478.258	340.11
478.694	323.73
479.13	337.77
479.566	347.13
480.002	372.88
480.438	335.43
480.874	286.28
481.31	349.47
481.746	349.47
482.181	375.22
482.617	314.36
483.053	351.81
483.488	368.2
483.924	354.15
484.36	302.66
484.795	342.45
485.23	365.85
485.666	335.43
486.101	290.96
486.536	302.66
486.971	295.64
487.407	391.6
487.842	342.45
488.277	283.94
488.712	377.56
489.146	262.87
489.581	365.85
490.016	361.17
490.451	260.53
490.885	335.43
491.32	382.24
491.755	363.51
492.189	351.81
492.624	286.28
493.058	328.41
493.492	384.58
493.927	314.36
494.361	305
494.795	305
495.229	260.53
495.663	344.79
496.097	328.41
496.531	309.68
496.965	248.83
497.399	314.36
497.833	295.64
498.266	326.07
498.7	344.79
499.134	262.87
499.567	333.09
500.001	286.28
500.434	361.17
500.868	262.87
501.301	321.38
501.734	272.23
502.168	356.49
502.601	342.45
503.034	288.62
503.467	330.75
503.9	307.34
504.333	288.62
504.766	356.49
505.199	272.23
505.632	354.15
506.064	323.73
506.497	281.6
506.93	326.07
507.362	269.89
507.795	347.13
508.227	272.23
508.66	307.34
509.092	290.96
509.524	300.32
509.956	297.98
510.389	354.15
510.821	323.73
511.253	316.7
511.685	302.66
512.117	351.81
512.549	323.73
512.981	309.68
513.412	328.41
513.844	321.38
514.276	300.32
514.707	314.36
515.139	312.02
515.571	335.43
516.002	293.3
516.433	330.75
516.865	328.41
517.296	330.75
517.727	342.45
518.159	340.11
518.59	349.47
519.021	293.3
519.452	377.56
519.883	305
520.314	316.7
520.744	274.57
521.175	344.79
521.606	349.47
522.037	328.41
522.467	328.41
522.898	316.7
523.328	305
523.759	321.38
524.189	363.51
524.62	312.02
525.05	361.17
525.48	286.28
525.91	340.11
526.341	314.36
526.771	368.2
527.201	351.81
527.631	375.22
528.061	302.66
528.49	314.36
528.92	377.56
529.35	314.36
529.78	288.62
530.209	312.02
530.639	328.41
531.068	269.89
531.498	309.68
531.927	323.73
532.357	372.88
532.786	316.7
533.215	375.22
533.644	293.3
534.074	370.54
534.503	305
534.932	347.13
535.361	321.38
535.79	349.47
536.218	286.28
536.647	333.09
537.076	382.24
537.505	283.94
537.933	302.66
538.362	309.68
538.79	286.28
539.219	337.77
539.647	321.38
540.076	316.7
540.504	283.94
540.932	300.32
541.36	316.7
541.788	368.2
542.217	407.98
542.645	326.07
543.073	354.15
543.5	244.15
543.928	297.98
544.356	262.87
544.784	333.09
545.211	342.45
545.639	335.43
546.067	267.55
546.494	335.43
546.922	361.17
547.349	333.09
547.776	295.64
548.204	276.91
548.631	290.96
549.058	403.3
549.485	309.68
549.912	272.23
550.339	328.41
550.766	293.3
551.193	330.75
551.62	354.15
552.047	283.94
552.474	335.43
552.9	363.51
553.327	340.11
553.754	323.73
554.18	251.17
554.607	328.41
555.033	267.55
555.459	302.66
555.886	375.22
556.312	356.49
556.738	330.75
557.164	356.49
557.59	312.02
558.016	241.81
558.442	326.07
558.868	363.51
559.294	330.75
559.72	349.47
560.145	262.87
560.571	262.87
560.997	323.73
561.422	293.3
561.848	354.15
562.273	312.02
562.699	293.3
563.124	337.77
563.549	330.75
563.974	281.6
564.4	302.66
564.825	372.88
565.25	368.2
565.675	316.7
566.1	283.94
566.525	340.11
566.95	309.68
567.374	288.62
567.799	333.09
568.224	335.43
568.648	354.15
569.073	316.7
569.497	342.45
569.922	365.85
570.346	333.09
570.771	300.32
571.195	267.55
571.619	295.64
572.043	340.11
572.467	361.17
572.891	340.11
573.315	309.68
573.739	319.04
574.163	326.07
574.587	281.6
575.011	279.26
575.435	307.34
575.858	274.57
576.282	314.36
576.705	335.43
577.129	286.28
577.552	314.36
577.976	321.38
578.399	309.68
578.822	328.41
579.245	361.17
579.669	290.96
580.092	326.07
580.515	316.7
580.938	340.11
581.361	281.6
581.784	321.38
582.206	267.55
582.629	337.77
583.052	297.98
583.474	307.34
583.897	312.02
584.32	295.64
584.742	293.3
585.165	319.04
585.587	272.23
586.009	330.75
586.431	286.28
586.854	312.02
587.276	326.07
587.698	363.51
588.12	288.62
588.542	342.45
588.964	265.21
589.386	361.17
589.807	356.49
590.229	281.6
590.651	286.28
591.073	251.17
591.494	295.64
591.916	349.47
592.337	354.15
592.759	356.49
593.18	337.77
593.601	337.77
594.022	269.89
594.444	272.23
594.865	326.07
595.286	330.75
595.707	335.43
596.128	347.13
596.549	307.34
596.97	356.49
597.39	316.7
597.811	365.85
598.232	297.98
598.652	375.22
599.073	354.15
599.494	384.58
599.914	340.11
600.334	314.36
600.755	297.98
601.175	361.17
601.595	321.38
602.015	279.26
602.436	309.68
602.856	454.8
603.276	361.17
603.696	368.2
604.115	323.73
604.535	297.98
604.955	286.28
605.375	314.36
605.794	307.34
606.214	342.45
606.634	314.36
607.053	286.28
607.473	314.36
607.892	351.81
608.311	323.73
608.731	323.73
609.15	356.49
609.569	347.13
609.988	295.64
610.407	370.54
610.826	370.54
611.245	368.2
611.664	344.79
612.083	286.28
612.501	309.68
612.92	244.15
613.339	349.47
613.757	356.49
614.176	314.36
614.594	330.75
615.013	330.75
615.431	349.47
615.85	274.57
616.268	337.77
616.686	358.83
617.104	312.02
617.522	283.94
617.94	302.66
618.358	297.98
618.776	297.98
619.194	283.94
619.612	288.62
620.03	326.07
620.447	323.73
620.865	337.77
621.282	349.47
621.7	290.96
622.117	295.64
622.535	342.45
622.952	302.66
623.369	316.7
623.787	293.3
624.204	319.04
624.621	351.81
625.038	302.66
625.455	328.41
625.872	330.75
626.289	255.85
626.706	328.41
627.123	349.47
627.539	307.34
627.956	326.07
628.373	330.75
628.789	321.38
629.206	302.66
629.622	333.09
630.038	314.36
630.455	372.88
630.871	326.07
631.287	326.07
631.703	267.55
632.12	300.32
632.536	365.85
632.952	351.81
633.368	365.85
633.783	365.85
634.199	330.75
634.615	293.3
635.031	351.81
635.446	330.75
635.862	321.38
636.277	340.11
636.693	335.43
637.108	314.36
637.524	358.83
637.939	297.98
638.354	307.34
638.77	258.19
639.185	305
639.6	288.62
640.015	328.41
640.43	319.04
640.845	309.68
641.259	295.64
641.674	370.54
642.089	340.11
642.504	349.47
642.918	330.75
643.333	267.55
643.747	403.3
644.162	297.98
644.576	312.02
644.991	340.11
645.405	276.91
645.819	326.07
646.233	351.81
646.647	321.38
647.061	358.83
647.475	337.77
647.889	333.09
648.303	337.77
648.717	302.66
649.131	316.7
649.545	260.53
649.958	314.36
650.372	344.79
650.785	316.7
651.199	309.68
651.612	258.19
652.026	305
652.439	361.17
652.852	309.68
653.266	288.62
653.679	305
654.092	272.23
654.505	281.6
654.918	335.43
655.331	305
655.744	295.64
656.156	335.43
656.569	354.15
656.982	248.83
657.394	234.78
657.807	319.04
658.22	262.87
658.632	314.36
659.044	314.36
659.457	302.66
659.869	312.02
660.281	279.26
660.693	300.32
661.106	337.77
661.518	307.34
661.93	288.62
662.342	300.32
662.754	321.38
663.165	368.2
663.577	276.91
663.989	356.49
664.401	326.07
664.812	241.81
665.224	293.3
665.635	337.77
666.047	330.75
666.458	333.09
666.869	267.55
667.281	307.34
667.692	316.7
668.103	316.7
668.514	290.96
668.925	314.36
669.336	347.13
669.747	375.22
670.158	365.85
670.569	330.75
670.979	361.17
671.39	302.66
671.801	288.62
672.211	269.89
672.622	326.07
673.032	262.87
673.443	316.7
673.853	319.04
674.263	319.04
674.674	323.73
675.084	326.07
675.494	323.73
675.904	307.34
676.314	316.7
676.724	272.23
677.134	309.68
677.544	323.73
677.953	319.04
678.363	361.17
678.773	330.75
679.182	297.98
679.592	337.77
680.001	391.6
680.411	328.41
680.82	288.62
681.23	319.04
681.639	344.79
682.048	314.36
682.457	377.56
682.866	295.64
683.275	255.85
683.684	300.32
684.093	295.64
684.502	326.07
684.911	319.04
685.32	255.85
685.728	354.15
686.137	295.64
686.546	375.22
686.954	265.21
687.363	354.15
687.771	295.64
688.179	407.98
688.588	297.98
688.996	335.43
689.404	333.09
689.812	333.09
690.22	305
690.628	342.45
691.036	337.77
691.444	393.94
691.852	300.32
692.26	333.09
692.667	347.13
693.075	312.02
693.483	344.79
693.89	321.38
694.298	286.28
694.705	274.57
695.112	335.43
695.52	347.13
695.927	391.6
696.334	262.87
696.741	344.79
697.148	295.64
697.555	340.11
697.962	262.87
698.369	368.2
698.776	290.96
699.183	319.04
699.59	246.49
699.996	307.34
700.403	269.89
700.81	307.34
701.216	260.53
701.623	330.75
702.029	328.41
702.435	309.68
702.842	262.87
703.248	333.09
703.654	288.62
704.06	344.79
704.466	326.07
704.872	223.08
705.278	323.73
705.684	295.64
706.09	290.96
706.496	328.41
706.901	295.64
707.307	286.28
707.712	290.96
708.118	293.3
708.523	312.02
708.929	230.1
709.334	286.28
709.74	335.43
710.145	274.57
710.55	335.43
710.955	305
711.36	239.47
711.765	281.6
712.17	344.79
712.575	361.17
712.98	782.47
713.385	319.04
713.789	321.38
714.194	365.85
714.599	309.68
715.003	342.45
715.408	269.89
715.812	293.3
716.217	316.7
716.621	321.38
717.025	305
717.429	305
717.833	363.51
718.238	267.55
718.642	335.43
719.046	305
719.449	328.41
719.853	337.77
720.257	361.17
720.661	323.73
721.065	319.04
721.468	227.76
721.872	307.34
722.275	351.81
722.679	333.09
723.082	307.34
723.485	321.38
723.889	361.17
724.292	276.91
724.695	347.13
725.098	309.68
725.501	307.34
725.904	323.73
726.307	290.96
726.71	297.98
727.113	274.57
727.516	290.96
727.918	347.13
728.321	326.07
728.724	314.36
729.126	396.28
729.529	297.98
729.931	302.66
730.333	323.73
730.736	328.41
731.138	316.7
731.54	333.09
731.942	265.21
732.344	314.36
732.746	321.38
733.148	272.23
733.55	253.51
733.952	354.15
734.354	300.32
734.756	297.98
735.157	302.66
735.559	330.75
735.96	276.91
736.362	358.83
736.763	333.09
737.165	316.7
737.566	297.98
737.967	319.04
738.368	358.83
738.77	267.55
739.171	333.09
739.572	351.81
739.973	288.62
740.374	274.57
740.774	281.6
741.175	328.41
741.576	342.45
741.977	328.41
742.377	269.89
742.778	335.43
743.178	312.02
743.579	333.09
743.979	344.79
744.379	356.49
744.78	337.77
745.18	237.13
745.58	286.28
745.98	290.96
746.38	354.15
746.78	335.43
747.18	335.43
747.58	300.32
747.98	326.07
748.38	314.36
748.779	328.41
749.179	314.36
749.578	269.89
749.978	323.73
750.377	333.09
750.777	312.02
751.176	314.36
751.575	328.41
751.975	337.77
752.374	309.68
752.773	330.75
753.172	290.96
753.571	297.98
753.97	363.51
754.369	326.07
754.768	312.02
755.166	297.98
755.565	262.87
755.964	333.09
756.362	323.73
756.761	302.66
757.159	309.68
757.558	274.57
757.956	319.04
758.354	300.32
758.753	297.98
759.151	246.49
759.549	269.89
759.947	330.75
760.345	307.34
760.743	347.13
761.141	316.7
761.539	281.6
761.936	274.57
762.334	276.91
762.732	288.62
763.129	295.64
763.527	316.7
763.924	312.02
764.322	276.91
764.719	258.19
765.117	328.41
765.514	272.23
765.911	335.43
766.308	286.28
766.705	375.22
