Data from Al_FLMS009871__671__15-05-08-810.txt Node

Date: Fri Mar 08 15:05:08 CST 2024
User: pe5414po
Spectrometer: FLMS00987
Trigger mode: 0
Integration Time (sec): 1.000000E-1
Scans to average: 1
Electric dark correction enabled: true
Nonlinearity correction enabled: false
Boxcar width: 0
XAxis mode: Wavelengths
Number of Pixels in Spectrum: 2048
>>>>>Begin Spectral Data<<<<<
188.938	-83.67
189.409	-83.67
189.879	-83.67
190.349	-123.46
190.819	-78.99
191.29	-78.99
191.76	-90.7
192.23	-83.67
192.7	-25.16
193.17	-71.97
193.64	-57.93
194.109	-97.72
194.579	-50.91
195.049	-36.86
195.519	23.99
195.988	59.1
196.458	110.59
196.927	54.42
197.397	38.03
197.866	138.68
198.336	169.1
198.805	119.95
199.274	162.08
199.744	145.7
200.213	157.4
200.682	187.83
201.151	176.13
201.62	234.64
202.089	199.53
202.558	246.34
203.027	300.17
203.495	232.3
203.964	272.09
204.433	234.64
204.902	215.91
205.37	272.09
205.839	325.92
206.307	262.73
206.776	225.28
207.244	286.13
207.712	258.04
208.181	316.56
208.649	318.9
209.117	290.81
209.585	293.15
210.053	293.15
210.521	354.01
210.989	276.77
211.457	276.77
211.925	244
212.393	220.6
212.861	236.98
213.328	260.38
213.796	236.98
214.264	267.41
214.731	260.38
215.199	272.09
215.666	232.3
216.133	206.55
216.601	307.2
217.068	241.66
217.535	258.04
218.003	293.15
218.47	225.28
218.937	218.25
219.404	302.51
219.871	283.79
220.338	220.6
220.805	169.1
221.271	206.55
221.738	281.45
222.205	281.45
222.671	279.11
223.138	234.64
223.605	234.64
224.071	206.55
224.538	178.47
225.004	269.75
225.47	229.96
225.937	258.04
226.403	215.91
226.869	215.91
227.335	288.47
227.801	265.07
228.267	236.98
228.733	281.45
229.199	234.64
229.665	241.66
230.131	304.85
230.597	215.91
231.062	229.96
231.528	229.96
231.994	283.79
232.459	194.85
232.925	281.45
233.39	232.3
233.856	279.11
234.321	225.28
234.786	279.11
235.252	244
235.717	283.79
236.182	274.43
236.647	281.45
237.112	255.7
237.577	361.03
238.042	239.32
238.507	229.96
238.972	234.64
239.436	267.41
239.901	274.43
240.366	246.34
240.83	222.94
241.295	201.87
241.76	269.75
242.224	276.77
242.688	258.04
243.153	246.34
243.617	246.34
244.081	213.57
244.545	241.66
245.01	260.38
245.474	244
245.938	258.04
246.402	199.53
246.866	260.38
247.33	288.47
247.793	225.28
248.257	255.7
248.721	272.09
249.185	358.69
249.648	288.47
250.112	272.09
250.575	323.58
251.039	248.68
251.502	328.26
251.965	283.79
252.429	276.77
252.892	288.47
253.355	311.88
253.818	206.55
254.281	267.41
254.744	227.62
255.207	311.88
255.67	281.45
256.133	201.87
256.596	302.51
257.059	215.91
257.522	267.41
257.984	286.13
258.447	293.15
258.909	244
259.372	258.04
259.834	293.15
260.297	241.66
260.759	253.36
261.221	286.13
261.684	213.57
262.146	318.9
262.608	251.02
263.07	290.81
263.532	269.75
263.994	265.07
264.456	286.13
264.918	269.75
265.38	239.32
265.842	274.43
266.303	300.17
266.765	325.92
267.227	269.75
267.688	288.47
268.15	262.73
268.611	286.13
269.072	321.24
269.534	269.75
269.995	288.47
270.456	272.09
270.918	283.79
271.379	346.98
271.84	251.02
272.301	241.66
272.762	304.85
273.223	234.64
273.684	244
274.144	218.25
274.605	293.15
275.066	307.2
275.527	300.17
275.987	328.26
276.448	309.54
276.908	276.77
277.369	265.07
277.829	356.35
278.289	318.9
278.75	314.22
279.21	246.34
279.67	272.09
280.13	258.04
280.59	304.85
281.05	311.88
281.51	281.45
281.97	281.45
282.43	274.43
282.89	321.24
283.35	244
283.809	281.45
284.269	290.81
284.729	304.85
285.188	272.09
285.648	332.94
286.107	314.22
286.567	262.73
287.026	283.79
287.485	258.04
287.944	269.75
288.404	321.24
288.863	206.55
289.322	304.85
289.781	307.2
290.24	232.3
290.699	281.45
291.158	295.49
291.616	302.51
292.075	255.7
292.534	344.64
292.992	286.13
293.451	288.47
293.91	239.32
294.368	295.49
294.827	330.6
295.285	288.47
295.743	265.07
296.202	241.66
296.66	251.02
297.118	318.9
297.576	297.83
298.034	281.45
298.492	260.38
298.95	236.98
299.408	304.85
299.866	293.15
300.324	318.9
300.781	302.51
301.239	332.94
301.697	246.34
302.154	286.13
302.612	211.23
303.069	300.17
303.527	265.07
303.984	314.22
304.441	279.11
304.899	227.62
305.356	276.77
305.813	356.35
306.27	321.24
306.727	297.83
307.184	342.3
307.641	297.83
308.098	328.26
308.555	272.09
309.012	293.15
309.468	274.43
309.925	274.43
310.382	295.49
310.838	272.09
311.295	300.17
311.751	239.32
312.208	300.17
312.664	204.21
313.12	276.77
313.577	262.73
314.033	260.38
314.489	356.35
314.945	269.75
315.401	344.64
315.857	253.36
316.313	213.57
316.769	323.58
317.225	246.34
317.681	283.79
318.136	300.17
318.592	311.88
319.048	265.07
319.503	248.68
319.959	286.13
320.414	225.28
320.869	314.22
321.325	323.58
321.78	288.47
322.235	251.02
322.691	234.64
323.146	297.83
323.601	297.83
324.056	241.66
324.511	236.98
324.966	262.73
325.421	260.38
325.875	297.83
326.33	269.75
326.785	304.85
327.24	304.85
327.694	311.88
328.149	311.88
328.603	335.28
329.058	288.47
329.512	321.24
329.966	300.17
330.421	267.41
330.875	325.92
331.329	279.11
331.783	300.17
332.237	267.41
332.691	311.88
333.145	307.2
333.599	325.92
334.053	300.17
334.507	274.43
334.96	318.9
335.414	269.75
335.868	255.7
336.321	253.36
336.775	323.58
337.228	295.49
337.682	311.88
338.135	253.36
338.588	220.6
339.042	377.41
339.495	260.38
339.948	318.9
340.401	314.22
340.854	265.07
341.307	337.62
341.76	293.15
342.213	267.41
342.666	274.43
343.119	318.9
343.571	276.77
344.024	276.77
344.477	321.24
344.929	281.45
345.382	262.73
345.834	335.28
346.287	316.56
346.739	229.96
347.191	262.73
347.644	295.49
348.096	265.07
348.548	307.2
349	316.56
349.452	244
349.904	274.43
350.356	309.54
350.808	265.07
351.26	288.47
351.711	281.45
352.163	328.26
352.615	267.41
353.066	239.32
353.518	288.47
353.969	262.73
354.421	267.41
354.872	311.88
355.324	293.15
355.775	293.15
356.226	281.45
356.677	349.32
357.128	356.35
357.579	258.04
358.03	281.45
358.481	328.26
358.932	276.77
359.383	295.49
359.834	321.24
360.285	262.73
360.735	342.3
361.186	377.41
361.637	316.56
362.087	323.58
362.538	304.85
362.988	302.51
363.438	272.09
363.889	321.24
364.339	307.2
364.789	274.43
365.239	295.49
365.689	318.9
366.139	267.41
366.589	325.92
367.039	276.77
367.489	311.88
367.939	248.68
368.389	288.47
368.839	251.02
369.288	302.51
369.738	314.22
370.187	227.62
370.637	297.83
371.086	260.38
371.536	309.54
371.985	297.83
372.434	309.54
372.884	302.51
373.333	339.96
373.782	318.9
374.231	302.51
374.68	304.85
375.129	281.45
375.578	309.54
376.027	253.36
376.475	314.22
376.924	255.7
377.373	272.09
377.822	248.68
378.27	267.41
378.719	293.15
379.167	328.26
379.616	323.58
380.064	293.15
380.512	265.07
380.961	239.32
381.409	323.58
381.857	325.92
382.305	262.73
382.753	229.96
383.201	321.24
383.649	251.02
384.097	222.94
384.545	300.17
384.992	288.47
385.44	220.6
385.888	283.79
386.335	330.6
386.783	276.77
387.231	335.28
387.678	241.66
388.125	300.17
388.573	351.67
389.02	274.43
389.467	297.83
389.914	316.56
390.362	258.04
390.809	260.38
391.256	346.98
391.703	274.43
392.15	330.6
392.596	241.66
393.043	311.88
393.49	328.26
393.937	267.41
394.383	332.94
394.83	241.66
395.276	342.3
395.723	314.22
396.169	330.6
396.616	279.11
397.062	265.07
397.508	321.24
397.954	302.51
398.401	379.75
398.847	330.6
399.293	328.26
399.739	304.85
400.185	318.9
400.631	335.28
401.076	309.54
401.522	281.45
401.968	302.51
402.414	272.09
402.859	316.56
403.305	295.49
403.75	286.13
404.196	281.45
404.641	234.64
405.086	269.75
405.532	354.01
405.977	302.51
406.422	323.58
406.867	253.36
407.312	288.47
407.757	283.79
408.202	328.26
408.647	344.64
409.092	314.22
409.537	316.56
409.982	276.77
410.426	281.45
410.871	339.96
411.316	307.2
411.76	283.79
412.205	316.56
412.649	225.28
413.093	272.09
413.538	265.07
413.982	262.73
414.426	330.6
414.87	351.67
415.314	318.9
415.758	304.85
416.202	295.49
416.646	290.81
417.09	349.32
417.534	337.62
417.978	344.64
418.421	335.28
418.865	281.45
419.309	346.98
419.752	370.39
420.196	339.96
420.639	293.15
421.083	229.96
421.526	286.13
421.969	302.51
422.412	281.45
422.856	295.49
423.299	302.51
423.742	307.2
424.185	370.39
424.628	262.73
425.071	213.57
425.513	244
425.956	335.28
426.399	279.11
426.842	337.62
427.284	293.15
427.727	253.36
428.169	311.88
428.612	288.47
429.054	272.09
429.497	314.22
429.939	258.04
430.381	267.41
430.823	297.83
431.265	300.17
431.707	269.75
432.149	293.15
432.591	279.11
433.033	288.47
433.475	234.64
433.917	260.38
434.359	286.13
434.8	335.28
435.242	339.96
435.684	281.45
436.125	325.92
436.567	269.75
437.008	293.15
437.449	300.17
437.891	370.39
438.332	274.43
438.773	204.21
439.214	318.9
439.656	314.22
440.097	283.79
440.538	286.13
440.978	293.15
441.419	258.04
441.86	265.07
442.301	318.9
442.742	279.11
443.182	332.94
443.623	232.3
444.063	323.58
444.504	253.36
444.944	302.51
445.385	302.51
445.825	269.75
446.265	321.24
446.706	323.58
447.146	300.17
447.586	379.75
448.026	279.11
448.466	309.54
448.906	311.88
449.346	328.26
449.786	311.88
450.225	255.7
450.665	309.54
451.105	346.98
451.544	337.62
451.984	351.67
452.424	286.13
452.863	328.26
453.302	318.9
453.742	239.32
454.181	255.7
454.62	293.15
455.059	328.26
455.499	290.81
455.938	279.11
456.377	328.26
456.816	300.17
457.254	290.81
457.693	286.13
458.132	297.83
458.571	234.64
459.01	318.9
459.448	332.94
459.887	288.47
460.325	297.83
460.764	258.04
461.202	314.22
461.641	302.51
462.079	274.43
462.517	307.2
462.955	321.24
463.393	288.47
463.832	267.41
464.27	314.22
464.708	330.6
465.145	370.39
465.583	265.07
466.021	279.11
466.459	260.38
466.897	281.45
467.334	368.05
467.772	328.26
468.209	269.75
468.647	311.88
469.084	286.13
469.522	318.9
469.959	309.54
470.396	260.38
470.833	332.94
471.271	339.96
471.708	300.17
472.145	351.67
472.582	269.75
473.019	377.41
473.456	286.13
473.892	253.36
474.329	274.43
474.766	297.83
475.202	356.35
475.639	330.6
476.076	323.58
476.512	295.49
476.949	293.15
477.385	244
477.821	281.45
478.258	251.02
478.694	302.51
479.13	272.09
479.566	211.23
480.002	314.22
480.438	321.24
480.874	267.41
481.31	328.26
481.746	269.75
482.181	274.43
482.617	304.85
483.053	279.11
483.488	225.28
483.924	288.47
484.36	332.94
484.795	260.38
485.23	297.83
485.666	276.77
486.101	283.79
486.536	288.47
486.971	227.62
487.407	265.07
487.842	293.15
488.277	332.94
488.712	354.01
489.146	267.41
489.581	318.9
490.016	342.3
490.451	288.47
490.885	255.7
491.32	330.6
491.755	309.54
492.189	274.43
492.624	260.38
493.058	286.13
493.492	276.77
493.927	304.85
494.361	281.45
494.795	213.57
495.229	316.56
495.663	321.24
496.097	335.28
496.531	290.81
496.965	279.11
497.399	330.6
497.833	346.98
498.266	302.51
498.7	244
499.134	293.15
499.567	276.77
500.001	342.3
500.434	258.04
500.868	281.45
501.301	272.09
501.734	344.64
502.168	330.6
502.601	386.77
503.034	309.54
503.467	276.77
503.9	246.34
504.333	304.85
504.766	248.68
505.199	304.85
505.632	297.83
506.064	318.9
506.497	311.88
506.93	293.15
507.362	307.2
507.795	227.62
508.227	304.85
508.66	314.22
509.092	272.09
509.524	283.79
509.956	262.73
510.389	265.07
510.821	330.6
511.253	267.41
511.685	286.13
512.117	295.49
512.549	318.9
512.981	328.26
513.412	316.56
513.844	293.15
514.276	307.2
514.707	281.45
515.139	304.85
515.571	265.07
516.002	328.26
516.433	330.6
516.865	309.54
517.296	297.83
517.727	328.26
518.159	267.41
518.59	267.41
519.021	365.71
519.452	293.15
519.883	314.22
520.314	316.56
520.744	274.43
521.175	244
521.606	300.17
522.037	311.88
522.467	302.51
522.898	258.04
523.328	258.04
523.759	346.98
524.189	290.81
524.62	281.45
525.05	265.07
525.48	307.2
525.91	281.45
526.341	332.94
526.771	309.54
527.201	276.77
527.631	349.32
528.061	332.94
528.49	279.11
528.92	309.54
529.35	307.2
529.78	300.17
530.209	325.92
530.639	349.32
531.068	318.9
531.498	279.11
531.927	267.41
532.357	302.51
532.786	309.54
533.215	267.41
533.644	311.88
534.074	236.98
534.503	361.03
534.932	346.98
535.361	316.56
535.79	318.9
536.218	225.28
536.647	246.34
537.076	244
537.505	293.15
537.933	267.41
538.362	220.6
538.79	267.41
539.219	328.26
539.647	244
540.076	302.51
540.504	325.92
540.932	410.18
541.36	290.81
541.788	304.85
542.217	309.54
542.645	335.28
543.073	232.3
543.5	295.49
543.928	288.47
544.356	248.68
544.784	274.43
545.211	311.88
545.639	297.83
546.067	246.34
546.494	279.11
546.922	304.85
547.349	272.09
547.776	321.24
548.204	253.36
548.631	377.41
549.058	283.79
549.485	290.81
549.912	234.64
550.339	272.09
550.766	276.77
551.193	351.67
551.62	300.17
552.047	234.64
552.474	276.77
552.9	330.6
553.327	297.83
553.754	370.39
554.18	290.81
554.607	330.6
555.033	286.13
555.459	316.56
555.886	330.6
556.312	286.13
556.738	267.41
557.164	274.43
557.59	330.6
558.016	295.49
558.442	307.2
558.868	241.66
559.294	351.67
559.72	342.3
560.145	321.24
560.571	236.98
560.997	251.02
561.422	321.24
561.848	260.38
562.273	239.32
562.699	281.45
563.124	288.47
563.549	286.13
563.974	274.43
564.4	307.2
564.825	281.45
565.25	307.2
565.675	251.02
566.1	286.13
566.525	251.02
566.95	318.9
567.374	241.66
567.799	330.6
568.224	321.24
568.648	316.56
569.073	304.85
569.497	349.32
569.922	318.9
570.346	286.13
570.771	288.47
571.195	302.51
571.619	267.41
572.043	276.77
572.467	288.47
572.891	279.11
573.315	314.22
573.739	325.92
574.163	349.32
574.587	349.32
575.011	297.83
575.435	330.6
575.858	269.75
576.282	309.54
576.705	267.41
577.129	339.96
577.552	361.03
577.976	269.75
578.399	300.17
578.822	213.57
579.245	300.17
579.669	363.37
580.092	311.88
580.515	276.77
580.938	335.28
581.361	332.94
581.784	293.15
582.206	332.94
582.629	325.92
583.052	241.66
583.474	302.51
583.897	300.17
584.32	307.2
584.742	269.75
585.165	339.96
585.587	328.26
586.009	300.17
586.431	255.7
586.854	302.51
587.276	370.39
587.698	332.94
588.12	286.13
588.542	244
588.964	318.9
589.386	274.43
589.807	265.07
590.229	241.66
590.651	290.81
591.073	290.81
591.494	342.3
591.916	323.58
592.337	330.6
592.759	328.26
593.18	337.62
593.601	288.47
594.022	265.07
594.444	295.49
594.865	253.36
595.286	281.45
595.707	354.01
596.128	267.41
596.549	358.69
596.97	244
597.39	253.36
597.811	293.15
598.232	321.24
598.652	262.73
599.073	342.3
599.494	281.45
599.914	314.22
600.334	351.67
600.755	361.03
601.175	293.15
601.595	276.77
602.015	311.88
602.436	349.32
602.856	368.05
603.276	323.58
603.696	302.51
604.115	309.54
604.535	248.68
604.955	314.22
605.375	293.15
605.794	361.03
606.214	309.54
606.634	339.96
607.053	307.2
607.473	286.13
607.892	297.83
608.311	337.62
608.731	295.49
609.15	321.24
609.569	288.47
609.988	283.79
610.407	337.62
610.826	269.75
611.245	272.09
611.664	297.83
612.083	328.26
612.501	318.9
612.92	251.02
613.339	295.49
613.757	307.2
614.176	281.45
614.594	239.32
615.013	307.2
615.431	302.51
615.85	344.64
616.268	276.77
616.686	283.79
617.104	293.15
617.522	337.62
617.94	335.28
618.358	227.62
618.776	262.73
619.194	309.54
619.612	361.03
620.03	325.92
620.447	304.85
620.865	309.54
621.282	234.64
621.7	297.83
622.117	269.75
622.535	302.51
622.952	234.64
623.369	281.45
623.787	279.11
624.204	279.11
624.621	295.49
625.038	295.49
625.455	286.13
625.872	307.2
626.289	274.43
626.706	330.6
627.123	339.96
627.539	325.92
627.956	335.28
628.373	300.17
628.789	272.09
629.206	328.26
629.622	265.07
630.038	302.51
630.455	328.26
630.871	351.67
631.287	290.81
631.703	304.85
632.12	346.98
632.536	328.26
632.952	330.6
633.368	272.09
633.783	302.51
634.199	314.22
634.615	248.68
635.031	304.85
635.446	318.9
635.862	300.17
636.277	302.51
636.693	283.79
637.108	274.43
637.524	342.3
637.939	300.17
638.354	234.64
638.77	332.94
639.185	332.94
639.6	325.92
640.015	300.17
640.43	276.77
640.845	283.79
641.259	321.24
641.674	288.47
642.089	300.17
642.504	251.02
642.918	248.68
643.333	337.62
643.747	321.24
644.162	384.43
644.576	246.34
644.991	377.41
645.405	300.17
645.819	332.94
646.233	211.23
646.647	309.54
647.061	389.11
647.475	220.6
647.889	307.2
648.303	293.15
648.717	290.81
649.131	311.88
649.545	297.83
649.958	293.15
650.372	239.32
650.785	267.41
651.199	323.58
651.612	283.79
652.026	276.77
652.439	372.73
652.852	283.79
653.266	339.96
653.679	295.49
654.092	307.2
654.505	316.56
654.918	300.17
655.331	318.9
655.744	279.11
656.156	325.92
656.569	241.66
656.982	290.81
657.394	300.17
657.807	358.69
658.22	302.51
658.632	265.07
659.044	342.3
659.457	337.62
659.869	267.41
660.281	272.09
660.693	300.17
661.106	260.38
661.518	239.32
661.93	307.2
662.342	318.9
662.754	286.13
663.165	349.32
663.577	274.43
663.989	302.51
664.401	309.54
664.812	269.75
665.224	318.9
665.635	309.54
666.047	300.17
666.458	244
666.869	283.79
667.281	248.68
667.692	342.3
668.103	309.54
668.514	314.22
668.925	281.45
669.336	265.07
669.747	241.66
670.158	361.03
670.569	302.51
670.979	281.45
671.39	300.17
671.801	269.75
672.211	302.51
672.622	276.77
673.032	318.9
673.443	323.58
673.853	265.07
674.263	361.03
674.674	307.2
675.084	225.28
675.494	288.47
675.904	267.41
676.314	236.98
676.724	330.6
677.134	267.41
677.544	344.64
677.953	283.79
678.363	229.96
678.773	351.67
679.182	255.7
679.592	316.56
680.001	290.81
680.411	302.51
680.82	302.51
681.23	323.58
681.639	302.51
682.048	300.17
682.457	356.35
682.866	337.62
683.275	302.51
683.684	314.22
684.093	276.77
684.502	304.85
684.911	361.03
685.32	295.49
685.728	302.51
686.137	288.47
686.546	302.51
686.954	279.11
687.363	269.75
687.771	342.3
688.179	344.64
688.588	323.58
688.996	293.15
689.404	316.56
689.812	321.24
690.22	293.15
690.628	354.01
691.036	323.58
691.444	283.79
691.852	286.13
692.26	267.41
692.667	358.69
693.075	274.43
693.483	281.45
693.89	279.11
694.298	288.47
694.705	290.81
695.112	248.68
695.52	300.17
695.927	274.43
696.334	269.75
696.741	328.26
697.148	325.92
697.555	304.85
697.962	309.54
698.369	260.38
698.776	346.98
699.183	325.92
699.59	288.47
699.996	300.17
700.403	260.38
700.81	332.94
701.216	297.83
701.623	325.92
702.029	328.26
702.435	293.15
702.842	321.24
703.248	236.98
703.654	251.02
704.06	295.49
704.466	328.26
704.872	304.85
705.278	286.13
705.684	288.47
706.09	293.15
706.496	267.41
706.901	316.56
707.307	241.66
707.712	330.6
708.118	337.62
708.523	316.56
708.929	222.94
709.334	288.47
709.74	248.68
710.145	244
710.55	269.75
710.955	368.05
711.36	311.88
711.765	293.15
712.17	332.94
712.575	274.43
712.98	815.09
713.385	267.41
713.789	248.68
714.194	260.38
714.599	328.26
715.003	244
715.408	297.83
715.812	251.02
716.217	321.24
716.621	328.26
717.025	318.9
717.429	288.47
717.833	321.24
718.238	281.45
718.642	314.22
719.046	244
719.449	222.94
719.853	281.45
720.257	351.67
720.661	171.44
721.065	244
721.468	260.38
721.872	239.32
722.275	297.83
722.679	262.73
723.082	328.26
723.485	274.43
723.889	283.79
724.292	297.83
724.695	281.45
725.098	323.58
725.501	281.45
725.904	300.17
726.307	330.6
726.71	351.67
727.113	297.83
727.516	304.85
727.918	239.32
728.321	356.35
728.724	368.05
729.126	302.51
729.529	246.34
729.931	307.2
730.333	248.68
730.736	300.17
731.138	253.36
731.54	309.54
731.942	293.15
732.344	246.34
732.746	258.04
733.148	346.98
733.55	295.49
733.952	346.98
734.354	290.81
734.756	344.64
735.157	300.17
735.559	311.88
735.96	225.28
736.362	215.91
736.763	241.66
737.165	281.45
737.566	253.36
737.967	272.09
738.368	332.94
738.77	283.79
739.171	244
739.572	295.49
739.973	290.81
740.374	321.24
740.774	239.32
741.175	323.58
741.576	330.6
741.977	304.85
742.377	262.73
742.778	255.7
743.178	269.75
743.579	342.3
743.979	325.92
744.379	267.41
744.78	206.55
745.18	260.38
745.58	246.34
745.98	279.11
746.38	241.66
746.78	318.9
747.18	255.7
747.58	239.32
747.98	260.38
748.38	288.47
748.779	276.77
749.179	229.96
749.578	354.01
749.978	349.32
750.377	325.92
750.777	307.2
751.176	236.98
751.575	279.11
751.975	286.13
752.374	377.41
752.773	293.15
753.172	267.41
753.571	236.98
753.97	279.11
754.369	244
754.768	234.64
755.166	232.3
755.565	342.3
755.964	274.43
756.362	323.58
756.761	384.43
757.159	377.41
757.558	279.11
757.956	267.41
758.354	222.94
758.753	328.26
759.151	276.77
759.549	288.47
759.947	316.56
760.345	251.02
760.743	342.3
761.141	288.47
761.539	208.89
761.936	222.94
762.334	325.92
762.732	283.79
763.129	265.07
763.527	239.32
763.924	269.75
764.322	274.43
764.719	295.49
765.117	276.77
765.514	274.43
765.911	251.02
766.308	314.22
766.705	293.15
