Data from Al_FLMS009871__667__15-05-08-409.txt Node

Date: Fri Mar 08 15:05:08 CST 2024
User: pe5414po
Spectrometer: FLMS00987
Trigger mode: 0
Integration Time (sec): 1.000000E-1
Scans to average: 1
Electric dark correction enabled: true
Nonlinearity correction enabled: false
Boxcar width: 0
XAxis mode: Wavelengths
Number of Pixels in Spectrum: 2048
>>>>>Begin Spectral Data<<<<<
188.938	-100.06
189.409	-100.06
189.879	-100.06
190.349	-142.19
190.819	-71.97
191.29	-107.08
191.76	-153.89
192.23	-60.27
192.7	-86.01
193.17	-13.46
193.64	-22.82
194.109	-55.59
194.579	9.95
195.049	21.65
195.519	-46.23
195.988	28.67
196.458	101.23
196.927	59.1
197.397	80.16
197.866	166.76
198.336	77.82
198.805	105.91
199.274	159.74
199.744	169.1
200.213	222.94
200.682	253.36
201.151	229.96
201.62	265.07
202.089	251.02
202.558	255.7
203.027	269.75
203.495	220.6
203.964	286.13
204.433	255.7
204.902	244
205.37	321.24
205.839	220.6
206.307	239.32
206.776	365.71
207.244	288.47
207.712	309.54
208.181	286.13
208.649	295.49
209.117	321.24
209.585	293.15
210.053	325.92
210.521	272.09
210.989	258.04
211.457	281.45
211.925	244
212.393	330.6
212.861	208.89
213.328	300.17
213.796	279.11
214.264	274.43
214.731	244
215.199	290.81
215.666	265.07
216.133	311.88
216.601	253.36
217.068	316.56
217.535	251.02
218.003	337.62
218.47	328.26
218.937	307.2
219.404	232.3
219.871	293.15
220.338	279.11
220.805	279.11
221.271	227.62
221.738	227.62
222.205	229.96
222.671	283.79
223.138	241.66
223.605	304.85
224.071	281.45
224.538	239.32
225.004	239.32
225.47	246.34
225.937	248.68
226.403	222.94
226.869	211.23
227.335	272.09
227.801	225.28
228.267	267.41
228.733	227.62
229.199	229.96
229.665	274.43
230.131	288.47
230.597	286.13
231.062	286.13
231.528	229.96
231.994	234.64
232.459	307.2
232.925	248.68
233.39	244
233.856	286.13
234.321	251.02
234.786	297.83
235.252	229.96
235.717	335.28
236.182	314.22
236.647	232.3
237.112	218.25
237.577	365.71
238.042	283.79
238.507	258.04
238.972	288.47
239.436	244
239.901	246.34
240.366	300.17
240.83	295.49
241.295	236.98
241.76	288.47
242.224	281.45
242.688	279.11
243.153	304.85
243.617	229.96
244.081	316.56
244.545	241.66
245.01	293.15
245.474	229.96
245.938	304.85
246.402	232.3
246.866	260.38
247.33	281.45
247.793	234.64
248.257	262.73
248.721	218.25
249.185	283.79
249.648	297.83
250.112	227.62
250.575	246.34
251.039	272.09
251.502	295.49
251.965	274.43
252.429	281.45
252.892	234.64
253.355	269.75
253.818	281.45
254.281	229.96
254.744	288.47
255.207	265.07
255.67	316.56
256.133	307.2
256.596	300.17
257.059	316.56
257.522	281.45
257.984	311.88
258.447	293.15
258.909	344.64
259.372	260.38
259.834	265.07
260.297	323.58
260.759	267.41
261.221	283.79
261.684	302.51
262.146	314.22
262.608	304.85
263.07	337.62
263.532	272.09
263.994	286.13
264.456	328.26
264.918	276.77
265.38	297.83
265.842	260.38
266.303	304.85
266.765	269.75
267.227	304.85
267.688	274.43
268.15	260.38
268.611	262.73
269.072	302.51
269.534	281.45
269.995	229.96
270.456	325.92
270.918	325.92
271.379	314.22
271.84	255.7
272.301	220.6
272.762	302.51
273.223	260.38
273.684	225.28
274.144	276.77
274.605	304.85
275.066	234.64
275.527	297.83
275.987	246.34
276.448	295.49
276.908	248.68
277.369	297.83
277.829	311.88
278.289	239.32
278.75	272.09
279.21	323.58
279.67	236.98
280.13	300.17
280.59	272.09
281.05	330.6
281.51	304.85
281.97	272.09
282.43	325.92
282.89	293.15
283.35	290.81
283.809	328.26
284.269	255.7
284.729	307.2
285.188	314.22
285.648	363.37
286.107	302.51
286.567	337.62
287.026	325.92
287.485	290.81
287.944	265.07
288.404	323.58
288.863	349.32
289.322	311.88
289.781	265.07
290.24	295.49
290.699	375.07
291.158	258.04
291.616	346.98
292.075	304.85
292.534	356.35
292.992	330.6
293.451	258.04
293.91	321.24
294.368	361.03
294.827	302.51
295.285	272.09
295.743	281.45
296.202	244
296.66	300.17
297.118	286.13
297.576	297.83
298.034	232.3
298.492	260.38
298.95	316.56
299.408	323.58
299.866	311.88
300.324	283.79
300.781	325.92
301.239	274.43
301.697	318.9
302.154	262.73
302.612	356.35
303.069	279.11
303.527	323.58
303.984	288.47
304.441	321.24
304.899	293.15
305.356	316.56
305.813	300.17
306.27	307.2
306.727	332.94
307.184	244
307.641	321.24
308.098	330.6
308.555	307.2
309.012	295.49
309.468	354.01
309.925	309.54
310.382	328.26
310.838	325.92
311.295	276.77
311.751	279.11
312.208	358.69
312.664	297.83
313.12	283.79
313.577	244
314.033	311.88
314.489	356.35
314.945	358.69
315.401	267.41
315.857	279.11
316.313	309.54
316.769	316.56
317.225	314.22
317.681	272.09
318.136	293.15
318.592	293.15
319.048	255.7
319.503	253.36
319.959	302.51
320.414	300.17
320.869	323.58
321.325	356.35
321.78	283.79
322.235	290.81
322.691	363.37
323.146	309.54
323.601	260.38
324.056	290.81
324.511	354.01
324.966	316.56
325.421	311.88
325.875	293.15
326.33	316.56
326.785	325.92
327.24	325.92
327.694	304.85
328.149	318.9
328.603	330.6
329.058	316.56
329.512	335.28
329.966	276.77
330.421	251.02
330.875	356.35
331.329	354.01
331.783	307.2
332.237	328.26
332.691	321.24
333.145	288.47
333.599	321.24
334.053	274.43
334.507	302.51
334.96	304.85
335.414	251.02
335.868	337.62
336.321	323.58
336.775	337.62
337.228	356.35
337.682	325.92
338.135	265.07
338.588	300.17
339.042	354.01
339.495	255.7
339.948	283.79
340.401	295.49
340.854	293.15
341.307	325.92
341.76	276.77
342.213	351.67
342.666	309.54
343.119	379.75
343.571	335.28
344.024	332.94
344.477	300.17
344.929	302.51
345.382	318.9
345.834	316.56
346.287	332.94
346.739	274.43
347.191	304.85
347.644	241.66
348.096	269.75
348.548	332.94
349	248.68
349.452	342.3
349.904	363.37
350.356	297.83
350.808	370.39
351.26	309.54
351.711	323.58
352.163	358.69
352.615	330.6
353.066	332.94
353.518	288.47
353.969	356.35
354.421	356.35
354.872	328.26
355.324	309.54
355.775	265.07
356.226	321.24
356.677	260.38
357.128	344.64
357.579	279.11
358.03	318.9
358.481	295.49
358.932	354.01
359.383	307.2
359.834	325.92
360.285	344.64
360.735	323.58
361.186	368.05
361.637	316.56
362.087	358.69
362.538	260.38
362.988	304.85
363.438	300.17
363.889	316.56
364.339	318.9
364.789	396.14
365.239	295.49
365.689	344.64
366.139	372.73
366.589	302.51
367.039	300.17
367.489	375.07
367.939	358.69
368.389	335.28
368.839	351.67
369.288	293.15
369.738	269.75
370.187	276.77
370.637	307.2
371.086	337.62
371.536	304.85
371.985	339.96
372.434	290.81
372.884	297.83
373.333	391.45
373.782	295.49
374.231	309.54
374.68	288.47
375.129	288.47
375.578	339.96
376.027	346.98
376.475	293.15
376.924	339.96
377.373	377.41
377.822	361.03
378.27	339.96
378.719	375.07
379.167	323.58
379.616	323.58
380.064	304.85
380.512	300.17
380.961	236.98
381.409	314.22
381.857	337.62
382.305	267.41
382.753	307.2
383.201	337.62
383.649	393.8
384.097	349.32
384.545	295.49
384.992	307.2
385.44	372.73
385.888	255.7
386.335	300.17
386.783	258.04
387.231	288.47
387.678	274.43
388.125	258.04
388.573	279.11
389.02	304.85
389.467	311.88
389.914	262.73
390.362	318.9
390.809	339.96
391.256	295.49
391.703	239.32
392.15	311.88
392.596	279.11
393.043	323.58
393.49	281.45
393.937	403.16
394.383	262.73
394.83	330.6
395.276	318.9
395.723	274.43
396.169	321.24
396.616	269.75
397.062	300.17
397.508	354.01
397.954	351.67
398.401	314.22
398.847	339.96
399.293	368.05
399.739	396.14
400.185	300.17
400.631	276.77
401.076	281.45
401.522	290.81
401.968	276.77
402.414	269.75
402.859	267.41
403.305	316.56
403.75	349.32
404.196	290.81
404.641	316.56
405.086	276.77
405.532	363.37
405.977	351.67
406.422	283.79
406.867	279.11
407.312	375.07
407.757	204.21
408.202	290.81
408.647	309.54
409.092	339.96
409.537	321.24
409.982	325.92
410.426	311.88
410.871	316.56
411.316	304.85
411.76	342.3
412.205	302.51
412.649	281.45
413.093	354.01
413.538	281.45
413.982	309.54
414.426	295.49
414.87	321.24
415.314	339.96
415.758	288.47
416.202	358.69
416.646	295.49
417.09	290.81
417.534	328.26
417.978	293.15
418.421	286.13
418.865	328.26
419.309	269.75
419.752	358.69
420.196	323.58
420.639	309.54
421.083	307.2
421.526	330.6
421.969	337.62
422.412	346.98
422.856	297.83
423.299	344.64
423.742	267.41
424.185	251.02
424.628	325.92
425.071	241.66
425.513	325.92
425.956	276.77
426.399	302.51
426.842	358.69
427.284	363.37
427.727	321.24
428.169	346.98
428.612	295.49
429.054	300.17
429.497	349.32
429.939	309.54
430.381	274.43
430.823	309.54
431.265	330.6
431.707	295.49
432.149	311.88
432.591	290.81
433.033	349.32
433.475	375.07
433.917	351.67
434.359	304.85
434.8	279.11
435.242	314.22
435.684	316.56
436.125	290.81
436.567	318.9
437.008	279.11
437.449	304.85
437.891	316.56
438.332	297.83
438.773	288.47
439.214	297.83
439.656	309.54
440.097	288.47
440.538	335.28
440.978	316.56
441.419	293.15
441.86	297.83
442.301	400.82
442.742	396.14
443.182	325.92
443.623	272.09
444.063	358.69
444.504	283.79
444.944	295.49
445.385	316.56
445.825	246.34
446.265	384.43
446.706	323.58
447.146	384.43
447.586	293.15
448.026	276.77
448.466	297.83
448.906	276.77
449.346	311.88
449.786	323.58
450.225	286.13
450.665	339.96
451.105	290.81
451.544	248.68
451.984	342.3
452.424	295.49
452.863	295.49
453.302	246.34
453.742	304.85
454.181	300.17
454.62	337.62
455.059	337.62
455.499	351.67
455.938	318.9
456.377	354.01
456.816	297.83
457.254	354.01
457.693	342.3
458.132	358.69
458.571	283.79
459.01	293.15
459.448	372.73
459.887	342.3
460.325	332.94
460.764	356.35
461.202	304.85
461.641	311.88
462.079	356.35
462.517	276.77
462.955	283.79
463.393	342.3
463.832	384.43
464.27	354.01
464.708	262.73
465.145	318.9
465.583	342.3
466.021	293.15
466.459	269.75
466.897	255.7
467.334	297.83
467.772	290.81
468.209	281.45
468.647	339.96
469.084	318.9
469.522	339.96
469.959	386.77
470.396	302.51
470.833	229.96
471.271	293.15
471.708	276.77
472.145	342.3
472.582	323.58
473.019	290.81
473.456	346.98
473.892	346.98
474.329	318.9
474.766	295.49
475.202	297.83
475.639	222.94
476.076	265.07
476.512	302.51
476.949	290.81
477.385	293.15
477.821	316.56
478.258	234.64
478.694	370.39
479.13	297.83
479.566	314.22
480.002	316.56
480.438	236.98
480.874	314.22
481.31	274.43
481.746	332.94
482.181	321.24
482.617	309.54
483.053	337.62
483.488	356.35
483.924	323.58
484.36	356.35
484.795	330.6
485.23	349.32
485.666	293.15
486.101	337.62
486.536	302.51
486.971	361.03
487.407	300.17
487.842	295.49
488.277	358.69
488.712	332.94
489.146	281.45
489.581	260.38
490.016	328.26
490.451	370.39
490.885	281.45
491.32	311.88
491.755	293.15
492.189	288.47
492.624	262.73
493.058	297.83
493.492	281.45
493.927	276.77
494.361	307.2
494.795	386.77
495.229	307.2
495.663	335.28
496.097	351.67
496.531	358.69
496.965	304.85
497.399	283.79
497.833	339.96
498.266	346.98
498.7	290.81
499.134	262.73
499.567	356.35
500.001	234.64
500.434	311.88
500.868	316.56
501.301	330.6
501.734	330.6
502.168	279.11
502.601	300.17
503.034	339.96
503.467	328.26
503.9	332.94
504.333	307.2
504.766	269.75
505.199	323.58
505.632	377.41
506.064	290.81
506.497	260.38
506.93	265.07
507.362	342.3
507.795	300.17
508.227	279.11
508.66	269.75
509.092	314.22
509.524	323.58
509.956	325.92
510.389	321.24
510.821	354.01
511.253	304.85
511.685	314.22
512.117	288.47
512.549	314.22
512.981	349.32
513.412	290.81
513.844	300.17
514.276	311.88
514.707	248.68
515.139	300.17
515.571	358.69
516.002	297.83
516.433	314.22
516.865	309.54
517.296	358.69
517.727	290.81
518.159	316.56
518.59	346.98
519.021	307.2
519.452	304.85
519.883	349.32
520.314	325.92
520.744	288.47
521.175	283.79
521.606	332.94
522.037	323.58
522.467	227.62
522.898	330.6
523.328	375.07
523.759	332.94
524.189	300.17
524.62	258.04
525.05	389.11
525.48	316.56
525.91	393.8
526.341	279.11
526.771	309.54
527.201	272.09
527.631	293.15
528.061	363.37
528.49	358.69
528.92	316.56
529.35	279.11
529.78	323.58
530.209	335.28
530.639	295.49
531.068	316.56
531.498	279.11
531.927	248.68
532.357	274.43
532.786	244
533.215	302.51
533.644	344.64
534.074	393.8
534.503	342.3
534.932	302.51
535.361	365.71
535.79	297.83
536.218	349.32
536.647	389.11
537.076	337.62
537.505	330.6
537.933	344.64
538.362	253.36
538.79	276.77
539.219	321.24
539.647	304.85
540.076	260.38
540.504	307.2
540.932	276.77
541.36	304.85
541.788	346.98
542.217	274.43
542.645	274.43
543.073	300.17
543.5	304.85
543.928	255.7
544.356	375.07
544.784	304.85
545.211	316.56
545.639	304.85
546.067	281.45
546.494	339.96
546.922	314.22
547.349	335.28
547.776	304.85
548.204	311.88
548.631	290.81
549.058	300.17
549.485	325.92
549.912	337.62
550.339	323.58
550.766	316.56
551.193	321.24
551.62	255.7
552.047	368.05
552.474	286.13
552.9	358.69
553.327	351.67
553.754	332.94
554.18	323.58
554.607	346.98
555.033	365.71
555.459	309.54
555.886	346.98
556.312	370.39
556.738	358.69
557.164	302.51
557.59	339.96
558.016	255.7
558.442	272.09
558.868	281.45
559.294	323.58
559.72	365.71
560.145	286.13
560.571	307.2
560.997	358.69
561.422	346.98
561.848	368.05
562.273	286.13
562.699	321.24
563.124	351.67
563.549	265.07
563.974	365.71
564.4	309.54
564.825	290.81
565.25	304.85
565.675	318.9
566.1	241.66
566.525	288.47
566.95	274.43
567.374	314.22
567.799	251.02
568.224	316.56
568.648	321.24
569.073	314.22
569.497	346.98
569.922	307.2
570.346	354.01
570.771	337.62
571.195	281.45
571.619	339.96
572.043	344.64
572.467	330.6
572.891	349.32
573.315	307.2
573.739	290.81
574.163	354.01
574.587	337.62
575.011	314.22
575.435	349.32
575.858	325.92
576.282	335.28
576.705	297.83
577.129	295.49
577.552	318.9
577.976	246.34
578.399	372.73
578.822	293.15
579.245	244
579.669	344.64
580.092	323.58
580.515	283.79
580.938	346.98
581.361	255.7
581.784	363.37
582.206	295.49
582.629	342.3
583.052	307.2
583.474	300.17
583.897	358.69
584.32	309.54
584.742	318.9
585.165	274.43
585.587	363.37
586.009	337.62
586.431	325.92
586.854	330.6
587.276	281.45
587.698	316.56
588.12	344.64
588.542	232.3
588.964	332.94
589.386	293.15
589.807	325.92
590.229	293.15
590.651	255.7
591.073	328.26
591.494	300.17
591.916	321.24
592.337	286.13
592.759	318.9
593.18	302.51
593.601	274.43
594.022	398.48
594.444	304.85
594.865	293.15
595.286	370.39
595.707	290.81
596.128	309.54
596.549	323.58
596.97	304.85
597.39	272.09
597.811	321.24
598.232	335.28
598.652	337.62
599.073	332.94
599.494	311.88
599.914	304.85
600.334	227.62
600.755	325.92
601.175	361.03
601.595	272.09
602.015	258.04
602.436	314.22
602.856	545.93
603.276	328.26
603.696	302.51
604.115	342.3
604.535	276.77
604.955	281.45
605.375	316.56
605.794	342.3
606.214	290.81
606.634	407.84
607.053	293.15
607.473	288.47
607.892	361.03
608.311	293.15
608.731	328.26
609.15	290.81
609.569	330.6
609.988	337.62
610.407	323.58
610.826	316.56
611.245	307.2
611.664	314.22
612.083	241.66
612.501	328.26
612.92	274.43
613.339	302.51
613.757	309.54
614.176	288.47
614.594	288.47
615.013	286.13
615.431	332.94
615.85	335.28
616.268	274.43
616.686	236.98
617.104	332.94
617.522	314.22
617.94	293.15
618.358	337.62
618.776	267.41
619.194	286.13
619.612	356.35
620.03	337.62
620.447	302.51
620.865	314.22
621.282	323.58
621.7	321.24
622.117	349.32
622.535	309.54
622.952	286.13
623.369	300.17
623.787	318.9
624.204	346.98
624.621	363.37
625.038	276.77
625.455	311.88
625.872	311.88
626.289	325.92
626.706	377.41
627.123	332.94
627.539	290.81
627.956	276.77
628.373	293.15
628.789	342.3
629.206	290.81
629.622	311.88
630.038	300.17
630.455	290.81
630.871	314.22
631.287	311.88
631.703	272.09
632.12	283.79
632.536	316.56
632.952	323.58
633.368	300.17
633.783	255.7
634.199	318.9
634.615	307.2
635.031	328.26
635.446	241.66
635.862	304.85
636.277	265.07
636.693	339.96
637.108	311.88
637.524	330.6
637.939	337.62
638.354	300.17
638.77	304.85
639.185	365.71
639.6	286.13
640.015	349.32
640.43	335.28
640.845	351.67
641.259	349.32
641.674	300.17
642.089	365.71
642.504	335.28
642.918	262.73
643.333	300.17
643.747	302.51
644.162	297.83
644.576	265.07
644.991	297.83
645.405	391.45
645.819	309.54
646.233	293.15
646.647	332.94
647.061	325.92
647.475	307.2
647.889	311.88
648.303	342.3
648.717	290.81
649.131	358.69
649.545	330.6
649.958	389.11
650.372	286.13
650.785	293.15
651.199	309.54
651.612	318.9
652.026	267.41
652.439	342.3
652.852	328.26
653.266	311.88
653.679	325.92
654.092	309.54
654.505	314.22
654.918	316.56
655.331	318.9
655.744	363.37
656.156	377.41
656.569	309.54
656.982	349.32
657.394	307.2
657.807	311.88
658.22	342.3
658.632	377.41
659.044	328.26
659.457	265.07
659.869	332.94
660.281	318.9
660.693	318.9
661.106	339.96
661.518	318.9
661.93	342.3
662.342	302.51
662.754	344.64
663.165	361.03
663.577	349.32
663.989	342.3
664.401	286.13
664.812	297.83
665.224	300.17
665.635	314.22
666.047	300.17
666.458	234.64
666.869	419.54
667.281	321.24
667.692	309.54
668.103	307.2
668.514	358.69
668.925	293.15
669.336	389.11
669.747	316.56
670.158	339.96
670.569	323.58
670.979	300.17
671.39	267.41
671.801	293.15
672.211	342.3
672.622	342.3
673.032	316.56
673.443	342.3
673.853	318.9
674.263	281.45
674.674	342.3
675.084	349.32
675.494	332.94
675.904	344.64
676.314	335.28
676.724	323.58
677.134	304.85
677.544	276.77
677.953	335.28
678.363	335.28
678.773	300.17
679.182	342.3
679.592	342.3
680.001	274.43
680.411	311.88
680.82	349.32
681.23	262.73
681.639	295.49
682.048	300.17
682.457	304.85
682.866	393.8
683.275	339.96
683.684	286.13
684.093	288.47
684.502	328.26
684.911	279.11
685.32	318.9
685.728	276.77
686.137	297.83
686.546	279.11
686.954	297.83
687.363	335.28
687.771	309.54
688.179	316.56
688.588	335.28
688.996	297.83
689.404	311.88
689.812	339.96
690.22	288.47
690.628	311.88
691.036	279.11
691.444	309.54
691.852	281.45
692.26	344.64
692.667	342.3
693.075	283.79
693.483	325.92
693.89	269.75
694.298	349.32
694.705	281.45
695.112	351.67
695.52	283.79
695.927	279.11
696.334	342.3
696.741	274.43
697.148	351.67
697.555	304.85
697.962	330.6
698.369	328.26
698.776	300.17
699.183	304.85
699.59	258.04
699.996	300.17
700.403	330.6
700.81	307.2
701.216	342.3
701.623	337.62
702.029	344.64
702.435	398.48
702.842	316.56
703.248	332.94
703.654	311.88
704.06	297.83
704.466	342.3
704.872	293.15
705.278	248.68
705.684	314.22
706.09	344.64
706.496	229.96
706.901	295.49
707.307	328.26
707.712	272.09
708.118	236.98
708.523	384.43
708.929	361.03
709.334	311.88
709.74	288.47
710.145	356.35
710.55	335.28
710.955	276.77
711.36	295.49
711.765	330.6
712.17	307.2
712.575	274.43
712.98	866.58
713.385	370.39
713.789	304.85
714.194	213.57
714.599	258.04
715.003	356.35
715.408	332.94
715.812	342.3
716.217	339.96
716.621	300.17
717.025	339.96
717.429	332.94
717.833	281.45
718.238	332.94
718.642	311.88
719.046	281.45
719.449	309.54
719.853	297.83
720.257	290.81
720.661	346.98
721.065	344.64
721.468	274.43
721.872	311.88
722.275	316.56
722.679	311.88
723.082	325.92
723.485	239.32
723.889	318.9
724.292	325.92
724.695	258.04
725.098	307.2
725.501	309.54
725.904	293.15
726.307	321.24
726.71	332.94
727.113	339.96
727.516	349.32
727.918	267.41
728.321	346.98
728.724	290.81
729.126	295.49
729.529	304.85
729.931	351.67
730.333	288.47
730.736	354.01
731.138	361.03
731.54	276.77
731.942	309.54
732.344	288.47
732.746	325.92
733.148	332.94
733.55	304.85
733.952	349.32
734.354	302.51
734.756	349.32
735.157	337.62
735.559	290.81
735.96	361.03
736.362	323.58
736.763	332.94
737.165	279.11
737.566	288.47
737.967	267.41
738.368	318.9
738.77	337.62
739.171	269.75
739.572	344.64
739.973	332.94
740.374	279.11
740.774	339.96
741.175	325.92
741.576	325.92
741.977	300.17
742.377	279.11
742.778	356.35
743.178	302.51
743.579	302.51
743.979	372.73
744.379	307.2
744.78	227.62
745.18	318.9
745.58	337.62
745.98	391.45
746.38	288.47
746.78	314.22
747.18	330.6
747.58	339.96
747.98	307.2
748.38	330.6
748.779	337.62
749.179	370.39
749.578	281.45
749.978	325.92
750.377	286.13
750.777	316.56
751.176	351.67
751.575	330.6
751.975	335.28
752.374	290.81
752.773	302.51
753.172	318.9
753.571	304.85
753.97	311.88
754.369	349.32
754.768	300.17
755.166	293.15
755.565	318.9
755.964	309.54
756.362	300.17
756.761	288.47
757.159	323.58
757.558	335.28
757.956	344.64
758.354	297.83
758.753	293.15
759.151	295.49
759.549	311.88
759.947	335.28
760.345	330.6
760.743	370.39
761.141	365.71
761.539	351.67
761.936	368.05
762.334	281.45
762.732	304.85
763.129	251.02
763.527	290.81
763.924	314.22
764.322	251.02
764.719	304.85
765.117	288.47
765.514	302.51
765.911	290.81
