Data from Al_FLMS009871__912__16-18-08-923.txt Node

Date: Fri Mar 08 16:18:08 CST 2024
User: pe5414po
Spectrometer: FLMS00987
Trigger mode: 0
Integration Time (sec): 1.000000E-1
Scans to average: 1
Electric dark correction enabled: true
Nonlinearity correction enabled: false
Boxcar width: 0
XAxis mode: Wavelengths
Number of Pixels in Spectrum: 2048
>>>>>Begin Spectral Data<<<<<
188.938	-113.22
189.409	-113.22
189.879	-113.22
190.349	-89.82
190.819	-96.84
191.29	-80.46
191.76	-155.35
192.23	-122.59
192.7	-35.99
193.17	-78.12
193.64	52.95
194.109	-26.62
194.579	-57.05
195.049	13.17
195.519	57.64
195.988	34.23
196.458	41.25
196.927	45.93
197.397	127.85
197.866	102.11
198.336	81.04
198.805	188.71
199.274	139.55
199.744	193.39
200.213	205.09
200.682	244.88
201.151	233.18
201.62	336.16
202.089	287.01
202.558	298.71
203.027	317.44
203.495	256.58
203.964	251.9
204.433	287.01
204.902	279.99
205.37	331.48
205.839	380.63
206.307	336.16
206.776	287.01
207.244	322.12
207.712	258.92
208.181	282.33
208.649	317.44
209.117	291.69
209.585	287.01
210.053	352.54
210.521	265.94
210.989	294.03
211.457	317.44
211.925	258.92
212.393	282.33
212.861	305.73
213.328	258.92
213.796	284.67
214.264	277.65
214.731	298.71
215.199	319.78
215.666	254.24
216.133	296.37
216.601	258.92
217.068	331.48
217.535	303.39
218.003	326.8
218.47	235.52
218.937	347.86
219.404	319.78
219.871	291.69
220.338	298.71
220.805	308.07
221.271	284.67
221.738	298.71
222.205	312.75
222.671	308.07
223.138	270.62
223.605	296.37
224.071	214.45
224.538	268.28
225.004	251.9
225.47	317.44
225.937	329.14
226.403	308.07
226.869	282.33
227.335	242.54
227.801	322.12
228.267	317.44
228.733	289.35
229.199	326.8
229.665	237.86
230.131	230.84
230.597	200.41
231.062	237.86
231.528	233.18
231.994	277.65
232.459	263.6
232.925	291.69
233.39	333.82
233.856	284.67
234.321	296.37
234.786	326.8
235.252	261.26
235.717	305.73
236.182	244.88
236.647	324.46
237.112	275.31
237.577	247.22
238.042	282.33
238.507	247.22
238.972	249.56
239.436	216.79
239.901	282.33
240.366	251.9
240.83	291.69
241.295	305.73
241.76	326.8
242.224	294.03
242.688	261.26
243.153	322.12
243.617	324.46
244.081	298.71
244.545	310.41
245.01	298.71
245.474	301.05
245.938	305.73
246.402	322.12
246.866	233.18
247.33	322.12
247.793	298.71
248.257	291.69
248.721	315.09
249.185	350.2
249.648	305.73
250.112	289.35
250.575	289.35
251.039	296.37
251.502	244.88
251.965	287.01
252.429	354.88
252.892	270.62
253.355	319.78
253.818	265.94
254.281	315.09
254.744	326.8
255.207	261.26
255.67	322.12
256.133	357.22
256.596	291.69
257.059	312.75
257.522	256.58
257.984	301.05
258.447	312.75
258.909	322.12
259.372	319.78
259.834	338.5
260.297	279.99
260.759	291.69
261.221	287.01
261.684	303.39
262.146	364.25
262.608	289.35
263.07	340.84
263.532	254.24
263.994	310.41
264.456	298.71
264.918	294.03
265.38	301.05
265.842	265.94
266.303	322.12
266.765	265.94
267.227	380.63
267.688	308.07
268.15	296.37
268.611	268.28
269.072	240.2
269.534	277.65
269.995	279.99
270.456	301.05
270.918	268.28
271.379	244.88
271.84	188.71
272.301	340.84
272.762	289.35
273.223	268.28
273.684	219.13
274.144	265.94
274.605	329.14
275.066	336.16
275.527	371.27
275.987	263.6
276.448	315.09
276.908	326.8
277.369	294.03
277.829	310.41
278.289	303.39
278.75	249.56
279.21	205.09
279.67	315.09
280.13	289.35
280.59	291.69
281.05	296.37
281.51	275.31
281.97	389.99
282.43	322.12
282.89	303.39
283.35	291.69
283.809	287.01
284.269	272.96
284.729	319.78
285.188	319.78
285.648	312.75
286.107	333.82
286.567	289.35
287.026	326.8
287.485	317.44
287.944	272.96
288.404	329.14
288.863	294.03
289.322	275.31
289.781	294.03
290.24	411.06
290.699	265.94
291.158	305.73
291.616	366.59
292.075	319.78
292.534	350.2
292.992	268.28
293.451	263.6
293.91	247.22
294.368	345.52
294.827	230.84
295.285	394.67
295.743	279.99
296.202	310.41
296.66	284.67
297.118	347.86
297.576	251.9
298.034	228.49
298.492	312.75
298.95	272.96
299.408	317.44
299.866	308.07
300.324	319.78
300.781	315.09
301.239	294.03
301.697	312.75
302.154	317.44
302.612	312.75
303.069	310.41
303.527	296.37
303.984	296.37
304.441	251.9
304.899	291.69
305.356	308.07
305.813	268.28
306.27	432.12
306.727	336.16
307.184	350.2
307.641	322.12
308.098	324.46
308.555	317.44
309.012	378.29
309.468	338.5
309.925	291.69
310.382	343.18
310.838	336.16
311.295	385.31
311.751	326.8
312.208	364.25
312.664	343.18
313.12	326.8
313.577	289.35
314.033	294.03
314.489	359.56
314.945	338.5
315.401	298.71
315.857	289.35
316.313	380.63
316.769	324.46
317.225	284.67
317.681	392.33
318.136	345.52
318.592	329.14
319.048	324.46
319.503	310.41
319.959	340.84
320.414	368.93
320.869	294.03
321.325	315.09
321.78	289.35
322.235	333.82
322.691	347.86
323.146	343.18
323.601	371.27
324.056	331.48
324.511	291.69
324.966	303.39
325.421	319.78
325.875	329.14
326.33	319.78
326.785	270.62
327.24	235.52
327.694	317.44
328.149	317.44
328.603	336.16
329.058	308.07
329.512	284.67
329.966	345.52
330.421	294.03
330.875	308.07
331.329	322.12
331.783	291.69
332.237	322.12
332.691	329.14
333.145	364.25
333.599	352.54
334.053	364.25
334.507	310.41
334.96	275.31
335.414	308.07
335.868	371.27
336.321	261.26
336.775	303.39
337.228	352.54
337.682	331.48
338.135	277.65
338.588	322.12
339.042	277.65
339.495	366.59
339.948	343.18
340.401	329.14
340.854	254.24
341.307	291.69
341.76	364.25
342.213	347.86
342.666	401.69
343.119	303.39
343.571	331.48
344.024	303.39
344.477	275.31
344.929	303.39
345.382	324.46
345.834	254.24
346.287	319.78
346.739	347.86
347.191	305.73
347.644	319.78
348.096	331.48
348.548	359.56
349	303.39
349.452	338.5
349.904	322.12
350.356	310.41
350.808	352.54
351.26	329.14
351.711	265.94
352.163	324.46
352.615	340.84
353.066	338.5
353.518	345.52
353.969	282.33
354.421	315.09
354.872	361.91
355.324	275.31
355.775	308.07
356.226	317.44
356.677	329.14
357.128	338.5
357.579	333.82
358.03	354.88
358.481	359.56
358.932	354.88
359.383	308.07
359.834	287.01
360.285	336.16
360.735	319.78
361.186	223.81
361.637	373.61
362.087	324.46
362.538	261.26
362.988	354.88
363.438	317.44
363.889	354.88
364.339	375.95
364.789	308.07
365.239	317.44
365.689	354.88
366.139	289.35
366.589	345.52
367.039	322.12
367.489	298.71
367.939	350.2
368.389	336.16
368.839	326.8
369.288	361.91
369.738	340.84
370.187	380.63
370.637	415.74
371.086	298.71
371.536	352.54
371.985	291.69
372.434	333.82
372.884	315.09
373.333	345.52
373.782	343.18
374.231	265.94
374.68	315.09
375.129	324.46
375.578	359.56
376.027	380.63
376.475	296.37
376.924	357.22
377.373	324.46
377.822	357.22
378.27	301.05
378.719	324.46
379.167	247.22
379.616	338.5
380.064	373.61
380.512	322.12
380.961	282.33
381.409	343.18
381.857	279.99
382.305	308.07
382.753	343.18
383.201	237.86
383.649	333.82
384.097	359.56
384.545	289.35
384.992	296.37
385.44	333.82
385.888	315.09
386.335	343.18
386.783	326.8
387.231	333.82
387.678	310.41
388.125	352.54
388.573	361.91
389.02	317.44
389.467	296.37
389.914	354.88
390.362	333.82
390.809	333.82
391.256	251.9
391.703	329.14
392.15	312.75
392.596	380.63
393.043	319.78
393.49	345.52
393.937	331.48
394.383	347.86
394.83	380.63
395.276	275.31
395.723	317.44
396.169	324.46
396.616	308.07
397.062	315.09
397.508	272.96
397.954	336.16
398.401	249.56
398.847	350.2
399.293	296.37
399.739	261.26
400.185	392.33
400.631	324.46
401.076	315.09
401.522	329.14
401.968	303.39
402.414	308.07
402.859	296.37
403.305	357.22
403.75	312.75
404.196	296.37
404.641	233.18
405.086	305.73
405.532	350.2
405.977	296.37
406.422	291.69
406.867	354.88
407.312	301.05
407.757	287.01
408.202	296.37
408.647	336.16
409.092	336.16
409.537	336.16
409.982	338.5
410.426	315.09
410.871	317.44
411.316	359.56
411.76	331.48
412.205	326.8
412.649	375.95
413.093	364.25
413.538	319.78
413.982	268.28
414.426	350.2
414.87	265.94
415.314	322.12
415.758	336.16
416.202	272.96
416.646	301.05
417.09	272.96
417.534	357.22
417.978	345.52
418.421	397.01
418.865	354.88
419.309	261.26
419.752	322.12
420.196	326.8
420.639	305.73
421.083	326.8
421.526	322.12
421.969	305.73
422.412	308.07
422.856	366.59
423.299	265.94
423.742	338.5
424.185	282.33
424.628	364.25
425.071	312.75
425.513	357.22
425.956	336.16
426.399	373.61
426.842	359.56
427.284	333.82
427.727	294.03
428.169	392.33
428.612	378.29
429.054	352.54
429.497	352.54
429.939	315.09
430.381	354.88
430.823	319.78
431.265	244.88
431.707	371.27
432.149	324.46
432.591	298.71
433.033	275.31
433.475	294.03
433.917	315.09
434.359	366.59
434.8	308.07
435.242	333.82
435.684	333.82
436.125	319.78
436.567	317.44
437.008	326.8
437.449	347.86
437.891	366.59
438.332	275.31
438.773	331.48
439.214	317.44
439.656	312.75
440.097	364.25
440.538	329.14
440.978	319.78
441.419	336.16
441.86	319.78
442.301	322.12
442.742	322.12
443.182	275.31
443.623	373.61
444.063	289.35
444.504	310.41
444.944	333.82
445.385	282.33
445.825	350.2
446.265	326.8
446.706	364.25
447.146	333.82
447.586	265.94
448.026	347.86
448.466	279.99
448.906	378.29
449.346	361.91
449.786	366.59
450.225	368.93
450.665	261.26
451.105	380.63
451.544	436.8
451.984	336.16
452.424	329.14
452.863	326.8
453.302	338.5
453.742	385.31
454.181	401.69
454.62	289.35
455.059	331.48
455.499	364.25
455.938	382.97
456.377	368.93
456.816	331.48
457.254	338.5
457.693	331.48
458.132	298.71
458.571	333.82
459.01	338.5
459.448	359.56
459.887	315.09
460.325	392.33
460.764	272.96
461.202	322.12
461.641	333.82
462.079	319.78
462.517	270.62
462.955	312.75
463.393	305.73
463.832	315.09
464.27	322.12
464.708	382.97
465.145	380.63
465.583	305.73
466.021	324.46
466.459	366.59
466.897	312.75
467.334	343.18
467.772	366.59
468.209	329.14
468.647	279.99
469.084	357.22
469.522	380.63
469.959	322.12
470.396	354.88
470.833	340.84
471.271	326.8
471.708	324.46
472.145	357.22
472.582	284.67
473.019	357.22
473.456	326.8
473.892	305.73
474.329	345.52
474.766	343.18
475.202	294.03
475.639	308.07
476.076	310.41
476.512	387.65
476.949	268.28
477.385	389.99
477.821	308.07
478.258	317.44
478.694	343.18
479.13	319.78
479.566	385.31
480.002	322.12
480.438	303.39
480.874	347.86
481.31	298.71
481.746	308.07
482.181	347.86
482.617	347.86
483.053	303.39
483.488	340.84
483.924	312.75
484.36	308.07
484.795	331.48
485.23	333.82
485.666	357.22
486.101	352.54
486.536	373.61
486.971	338.5
487.407	357.22
487.842	326.8
488.277	249.56
488.712	303.39
489.146	312.75
489.581	359.56
490.016	317.44
490.451	343.18
490.885	301.05
491.32	301.05
491.755	361.91
492.189	303.39
492.624	291.69
493.058	289.35
493.492	345.52
493.927	338.5
494.361	296.37
494.795	312.75
495.229	331.48
495.663	303.39
496.097	336.16
496.531	324.46
496.965	357.22
497.399	324.46
497.833	357.22
498.266	317.44
498.7	347.86
499.134	294.03
499.567	329.14
500.001	387.65
500.434	326.8
500.868	359.56
501.301	277.65
501.734	289.35
502.168	258.92
502.601	392.33
503.034	385.31
503.467	287.01
503.9	298.71
504.333	310.41
504.766	364.25
505.199	322.12
505.632	254.24
506.064	359.56
506.497	317.44
506.93	401.69
507.362	254.24
507.795	340.84
508.227	263.6
508.66	289.35
509.092	331.48
509.524	326.8
509.956	338.5
510.389	270.62
510.821	368.93
511.253	333.82
511.685	368.93
512.117	345.52
512.549	294.03
512.981	296.37
513.412	315.09
513.844	287.01
514.276	298.71
514.707	272.96
515.139	305.73
515.571	291.69
516.002	282.33
516.433	359.56
516.865	261.26
517.296	385.31
517.727	312.75
518.159	265.94
518.59	296.37
519.021	359.56
519.452	294.03
519.883	329.14
520.314	310.41
520.744	282.33
521.175	301.05
521.606	282.33
522.037	340.84
522.467	294.03
522.898	270.62
523.328	275.31
523.759	298.71
524.189	329.14
524.62	333.82
525.05	256.58
525.48	389.99
525.91	275.31
526.341	322.12
526.771	315.09
527.201	371.27
527.631	329.14
528.061	375.95
528.49	268.28
528.92	305.73
529.35	422.76
529.78	298.71
530.209	354.88
530.639	333.82
531.068	315.09
531.498	326.8
531.927	345.52
532.357	247.22
532.786	371.27
533.215	338.5
533.644	322.12
534.074	322.12
534.503	282.33
534.932	375.95
535.361	331.48
535.79	305.73
536.218	296.37
536.647	368.93
537.076	345.52
537.505	319.78
537.933	315.09
538.362	357.22
538.79	258.92
539.219	298.71
539.647	345.52
540.076	301.05
540.504	261.26
540.932	352.54
541.36	382.97
541.788	331.48
542.217	373.61
542.645	294.03
543.073	333.82
543.5	322.12
543.928	315.09
544.356	298.71
544.784	268.28
545.211	319.78
545.639	319.78
546.067	305.73
546.494	326.8
546.922	338.5
547.349	350.2
547.776	294.03
548.204	319.78
548.631	364.25
549.058	322.12
549.485	319.78
549.912	333.82
550.339	392.33
550.766	340.84
551.193	272.96
551.62	270.62
552.047	375.95
552.474	331.48
552.9	310.41
553.327	312.75
553.754	298.71
554.18	312.75
554.607	272.96
555.033	322.12
555.459	277.65
555.886	275.31
556.312	315.09
556.738	331.48
557.164	338.5
557.59	315.09
558.016	310.41
558.442	343.18
558.868	371.27
559.294	345.52
559.72	282.33
560.145	326.8
560.571	329.14
560.997	361.91
561.422	364.25
561.848	336.16
562.273	322.12
562.699	336.16
563.124	291.69
563.549	270.62
563.974	308.07
564.4	301.05
564.825	331.48
565.25	336.16
565.675	322.12
566.1	312.75
566.525	336.16
566.95	333.82
567.374	373.61
567.799	301.05
568.224	296.37
568.648	312.75
569.073	375.95
569.497	326.8
569.922	331.48
570.346	375.95
570.771	333.82
571.195	312.75
571.619	331.48
572.043	389.99
572.467	322.12
572.891	347.86
573.315	287.01
573.739	296.37
574.163	347.86
574.587	305.73
575.011	336.16
575.435	371.27
575.858	371.27
576.282	322.12
576.705	282.33
577.129	359.56
577.552	315.09
577.976	366.59
578.399	361.91
578.822	317.44
579.245	361.91
579.669	361.91
580.092	401.69
580.515	315.09
580.938	308.07
581.361	343.18
581.784	324.46
582.206	354.88
582.629	296.37
583.052	312.75
583.474	315.09
583.897	333.82
584.32	326.8
584.742	347.86
585.165	380.63
585.587	366.59
586.009	385.31
586.431	340.84
586.854	284.67
587.276	305.73
587.698	368.93
588.12	270.62
588.542	329.14
588.964	361.91
589.386	380.63
589.807	296.37
590.229	336.16
590.651	317.44
591.073	343.18
591.494	371.27
591.916	296.37
592.337	303.39
592.759	289.35
593.18	380.63
593.601	347.86
594.022	338.5
594.444	315.09
594.865	368.93
595.286	333.82
595.707	303.39
596.128	308.07
596.549	329.14
596.97	333.82
597.39	301.05
597.811	329.14
598.232	312.75
598.652	298.71
599.073	301.05
599.494	308.07
599.914	364.25
600.334	287.01
600.755	326.8
601.175	298.71
601.595	322.12
602.015	308.07
602.436	287.01
602.856	439.14
603.276	340.84
603.696	352.54
604.115	382.97
604.535	272.96
604.955	340.84
605.375	338.5
605.794	404.03
606.214	350.2
606.634	303.39
607.053	305.73
607.473	331.48
607.892	340.84
608.311	361.91
608.731	375.95
609.15	315.09
609.569	291.69
609.988	399.35
610.407	268.28
610.826	368.93
611.245	333.82
611.664	308.07
612.083	385.31
612.501	357.22
612.92	352.54
613.339	343.18
613.757	279.99
614.176	368.93
614.594	312.75
615.013	315.09
615.431	305.73
615.85	336.16
616.268	226.15
616.686	324.46
617.104	258.92
617.522	371.27
617.94	392.33
618.358	312.75
618.776	338.5
619.194	291.69
619.612	305.73
620.03	326.8
620.447	324.46
620.865	354.88
621.282	345.52
621.7	375.95
622.117	345.52
622.535	347.86
622.952	331.48
623.369	294.03
623.787	294.03
624.204	308.07
624.621	303.39
625.038	394.67
625.455	329.14
625.872	380.63
626.289	326.8
626.706	366.59
627.123	317.44
627.539	406.38
627.956	291.69
628.373	350.2
628.789	284.67
629.206	331.48
629.622	291.69
630.038	345.52
630.455	240.2
630.871	338.5
631.287	315.09
631.703	312.75
632.12	317.44
632.536	329.14
632.952	345.52
633.368	357.22
633.783	305.73
634.199	345.52
634.615	340.84
635.031	340.84
635.446	340.84
635.862	305.73
636.277	336.16
636.693	338.5
637.108	389.99
637.524	375.95
637.939	399.35
638.354	364.25
638.77	373.61
639.185	291.69
639.6	340.84
640.015	287.01
640.43	364.25
640.845	340.84
641.259	378.29
641.674	310.41
642.089	291.69
642.504	322.12
642.918	291.69
643.333	333.82
643.747	392.33
644.162	368.93
644.576	375.95
644.991	331.48
645.405	338.5
645.819	289.35
646.233	361.91
646.647	284.67
647.061	319.78
647.475	317.44
647.889	303.39
648.303	301.05
648.717	301.05
649.131	411.06
649.545	340.84
649.958	305.73
650.372	350.2
650.785	350.2
651.199	345.52
651.612	343.18
652.026	361.91
652.439	301.05
652.852	329.14
653.266	251.9
653.679	329.14
654.092	338.5
654.505	345.52
654.918	368.93
655.331	378.29
655.744	354.88
656.156	322.12
656.569	289.35
656.982	324.46
657.394	343.18
657.807	322.12
658.22	357.22
658.632	261.26
659.044	319.78
659.457	272.96
659.869	343.18
660.281	270.62
660.693	331.48
661.106	294.03
661.518	368.93
661.93	282.33
662.342	261.26
662.754	268.28
663.165	343.18
663.577	333.82
663.989	289.35
664.401	308.07
664.812	343.18
665.224	296.37
665.635	347.86
666.047	392.33
666.458	294.03
666.869	291.69
667.281	347.86
667.692	289.35
668.103	345.52
668.514	324.46
668.925	326.8
669.336	312.75
669.747	345.52
670.158	340.84
670.569	347.86
670.979	354.88
671.39	272.96
671.801	275.31
672.211	291.69
672.622	345.52
673.032	345.52
673.443	336.16
673.853	287.01
674.263	364.25
674.674	275.31
675.084	298.71
675.494	331.48
675.904	305.73
676.314	294.03
676.724	338.5
677.134	331.48
677.544	385.31
677.953	277.65
678.363	263.6
678.773	420.42
679.182	329.14
679.592	317.44
680.001	352.54
680.411	401.69
680.82	317.44
681.23	294.03
681.639	294.03
682.048	375.95
682.457	303.39
682.866	354.88
683.275	380.63
683.684	329.14
684.093	317.44
684.502	282.33
684.911	303.39
685.32	375.95
685.728	354.88
686.137	368.93
686.546	336.16
686.954	329.14
687.363	279.99
687.771	303.39
688.179	375.95
688.588	284.67
688.996	251.9
689.404	294.03
689.812	333.82
690.22	284.67
690.628	272.96
691.036	340.84
691.444	371.27
691.852	347.86
692.26	329.14
692.667	298.71
693.075	305.73
693.483	291.69
693.89	261.26
694.298	322.12
694.705	378.29
695.112	249.56
695.52	312.75
695.927	303.39
696.334	357.22
696.741	319.78
697.148	240.2
697.555	329.14
697.962	310.41
698.369	251.9
698.776	340.84
699.183	347.86
699.59	336.16
699.996	350.2
700.403	265.94
700.81	296.37
701.216	317.44
701.623	336.16
702.029	282.33
702.435	343.18
702.842	333.82
703.248	368.93
703.654	308.07
704.06	326.8
704.466	315.09
704.872	352.54
705.278	291.69
705.684	420.42
706.09	340.84
706.496	296.37
706.901	343.18
707.307	382.97
707.712	382.97
708.118	371.27
708.523	352.54
708.929	258.92
709.334	317.44
709.74	373.61
710.145	301.05
710.55	291.69
710.955	310.41
711.36	317.44
711.765	354.88
712.17	308.07
712.575	317.44
712.98	888.53
713.385	340.84
713.789	308.07
714.194	312.75
714.599	289.35
715.003	294.03
715.408	310.41
715.812	336.16
716.217	385.31
716.621	364.25
717.025	380.63
717.429	326.8
717.833	289.35
718.238	289.35
718.642	336.16
719.046	338.5
719.449	331.48
719.853	294.03
720.257	340.84
720.661	284.67
721.065	350.2
721.468	296.37
721.872	315.09
722.275	375.95
722.679	315.09
723.082	338.5
723.485	319.78
723.889	301.05
724.292	317.44
724.695	277.65
725.098	336.16
725.501	322.12
725.904	308.07
726.307	331.48
726.71	333.82
727.113	279.99
727.516	296.37
727.918	368.93
728.321	329.14
728.724	366.59
729.126	326.8
729.529	371.27
729.931	343.18
730.333	284.67
730.736	368.93
731.138	317.44
731.54	333.82
731.942	310.41
732.344	352.54
732.746	319.78
733.148	331.48
733.55	310.41
733.952	406.38
734.354	301.05
734.756	289.35
735.157	329.14
735.559	378.29
735.96	240.2
736.362	303.39
736.763	312.75
737.165	322.12
737.566	329.14
737.967	301.05
738.368	310.41
738.77	338.5
739.171	357.22
739.572	359.56
739.973	317.44
740.374	312.75
740.774	326.8
741.175	345.52
741.576	366.59
741.977	317.44
742.377	301.05
742.778	345.52
743.178	308.07
743.579	350.2
743.979	270.62
744.379	345.52
744.78	308.07
745.18	336.16
745.58	305.73
745.98	331.48
746.38	308.07
746.78	289.35
747.18	336.16
747.58	343.18
747.98	305.73
748.38	364.25
748.779	322.12
749.179	308.07
749.578	357.22
749.978	305.73
750.377	336.16
750.777	333.82
751.176	303.39
751.575	387.65
751.975	361.91
752.374	345.52
752.773	268.28
753.172	287.01
753.571	310.41
753.97	315.09
754.369	373.61
754.768	310.41
755.166	333.82
755.565	326.8
755.964	319.78
756.362	364.25
756.761	298.71
757.159	315.09
757.558	303.39
757.956	354.88
758.354	387.65
758.753	350.2
759.151	296.37
759.549	319.78
759.947	397.01
760.345	319.78
760.743	315.09
761.141	254.24
761.539	322.12
761.936	361.91
762.334	294.03
762.732	352.54
763.129	289.35
763.527	287.01
763.924	361.91
764.322	268.28
