Data from Al_FLMS009871__910__16-18-08-723.txt Node

Date: Fri Mar 08 16:18:08 CST 2024
User: pe5414po
Spectrometer: FLMS00987
Trigger mode: 0
Integration Time (sec): 1.000000E-1
Scans to average: 1
Electric dark correction enabled: true
Nonlinearity correction enabled: false
Boxcar width: 0
XAxis mode: Wavelengths
Number of Pixels in Spectrum: 2048
>>>>>Begin Spectral Data<<<<<
188.938	-86.31
189.409	-86.31
189.879	-86.31
190.349	-72.26
190.819	-86.31
191.29	-9.07
191.76	-51.2
192.23	-62.9
192.7	-48.86
193.17	-55.88
193.64	-86.31
194.109	-60.56
194.579	-20.77
195.049	-32.47
195.519	63.49
195.988	-9.07
196.458	56.47
196.927	0.29
197.397	98.6
197.866	84.55
198.336	133.7
198.805	166.47
199.274	152.43
199.744	145.41
200.213	161.79
200.682	157.11
201.151	196.9
201.62	236.69
202.089	285.84
202.558	269.45
203.027	267.11
203.495	325.63
203.964	241.37
204.433	290.52
204.902	323.29
205.37	243.71
205.839	253.07
206.307	304.56
206.776	269.45
207.244	248.39
207.712	288.18
208.181	283.5
208.649	262.43
209.117	262.43
209.585	299.88
210.053	332.65
210.521	316.26
210.989	288.18
211.457	260.09
211.925	236.69
212.393	262.43
212.861	210.94
213.328	304.56
213.796	346.69
214.264	236.69
214.731	325.63
215.199	318.61
215.666	342.01
216.133	264.77
216.601	330.31
217.068	276.48
217.535	316.26
218.003	243.71
218.47	260.09
218.937	250.73
219.404	276.48
219.871	309.24
220.338	269.45
220.805	276.48
221.271	313.92
221.738	318.61
222.205	213.28
222.671	257.75
223.138	234.35
223.605	239.03
224.071	227.32
224.538	229.67
225.004	234.35
225.47	349.03
225.937	323.29
226.403	306.9
226.869	299.88
227.335	246.05
227.801	278.82
228.267	262.43
228.733	206.26
229.199	283.5
229.665	278.82
230.131	267.11
230.597	302.22
231.062	236.69
231.528	232.01
231.994	248.39
232.459	327.97
232.925	292.86
233.39	292.86
233.856	253.07
234.321	267.11
234.786	232.01
235.252	260.09
235.717	283.5
236.182	246.05
236.647	285.84
237.112	243.71
237.577	210.94
238.042	283.5
238.507	227.32
238.972	281.16
239.436	288.18
239.901	295.2
240.366	306.9
240.83	264.77
241.295	269.45
241.76	290.52
242.224	304.56
242.688	271.79
243.153	250.73
243.617	285.84
244.081	358.39
244.545	313.92
245.01	260.09
245.474	370.1
245.938	304.56
246.402	325.63
246.866	299.88
247.33	234.35
247.793	267.11
248.257	267.11
248.721	243.71
249.185	269.45
249.648	278.82
250.112	332.65
250.575	267.11
251.039	269.45
251.502	234.35
251.965	313.92
252.429	267.11
252.892	267.11
253.355	229.67
253.818	264.77
254.281	253.07
254.744	356.05
255.207	243.71
255.67	304.56
256.133	274.14
256.596	283.5
257.059	353.71
257.522	222.64
257.984	346.69
258.447	297.54
258.909	330.31
259.372	318.61
259.834	290.52
260.297	185.19
260.759	290.52
261.221	330.31
261.684	222.64
262.146	236.69
262.608	271.79
263.07	297.54
263.532	236.69
263.994	267.11
264.456	260.09
264.918	241.37
265.38	253.07
265.842	288.18
266.303	253.07
266.765	281.16
267.227	281.16
267.688	241.37
268.15	290.52
268.611	292.86
269.072	232.01
269.534	217.96
269.995	276.48
270.456	353.71
270.918	236.69
271.379	271.79
271.84	246.05
272.301	243.71
272.762	262.43
273.223	330.31
273.684	180.51
274.144	260.09
274.605	292.86
275.066	306.9
275.527	288.18
275.987	302.22
276.448	342.01
276.908	274.14
277.369	285.84
277.829	276.48
278.289	246.05
278.75	253.07
279.21	246.05
279.67	290.52
280.13	295.2
280.59	311.58
281.05	274.14
281.51	297.54
281.97	316.26
282.43	327.97
282.89	246.05
283.35	339.67
283.809	281.16
284.269	304.56
284.729	264.77
285.188	269.45
285.648	274.14
286.107	255.41
286.567	309.24
287.026	269.45
287.485	313.92
287.944	320.95
288.404	311.58
288.863	260.09
289.322	239.03
289.781	281.16
290.24	260.09
290.699	283.5
291.158	253.07
291.616	281.16
292.075	288.18
292.534	309.24
292.992	325.63
293.451	288.18
293.91	330.31
294.368	304.56
294.827	292.86
295.285	360.74
295.743	276.48
296.202	236.69
296.66	342.01
297.118	269.45
297.576	276.48
298.034	271.79
298.492	278.82
298.95	234.35
299.408	342.01
299.866	215.62
300.324	274.14
300.781	285.84
301.239	274.14
301.697	351.37
302.154	325.63
302.612	302.22
303.069	342.01
303.527	283.5
303.984	318.61
304.441	299.88
304.899	334.99
305.356	304.56
305.813	339.67
306.27	236.69
306.727	367.76
307.184	327.97
307.641	351.37
308.098	297.54
308.555	320.95
309.012	316.26
309.468	316.26
309.925	276.48
310.382	281.16
310.838	302.22
311.295	318.61
311.751	267.11
312.208	346.69
312.664	292.86
313.12	339.67
313.577	278.82
314.033	318.61
314.489	278.82
314.945	334.99
315.401	306.9
315.857	374.78
316.313	297.54
316.769	295.2
317.225	327.97
317.681	360.74
318.136	297.54
318.592	327.97
319.048	271.79
319.503	292.86
319.959	295.2
320.414	295.2
320.869	344.35
321.325	306.9
321.78	306.9
322.235	356.05
322.691	262.43
323.146	332.65
323.601	313.92
324.056	262.43
324.511	278.82
324.966	292.86
325.421	379.46
325.875	229.67
326.33	283.5
326.785	215.62
327.24	302.22
327.694	299.88
328.149	290.52
328.603	236.69
329.058	288.18
329.512	278.82
329.966	297.54
330.421	325.63
330.875	316.26
331.329	327.97
331.783	337.33
332.237	295.2
332.691	370.1
333.145	337.33
333.599	250.73
334.053	349.03
334.507	318.61
334.96	295.2
335.414	334.99
335.868	309.24
336.321	320.95
336.775	288.18
337.228	304.56
337.682	346.69
338.135	302.22
338.588	311.58
339.042	295.2
339.495	351.37
339.948	325.63
340.401	349.03
340.854	339.67
341.307	313.92
341.76	295.2
342.213	299.88
342.666	325.63
343.119	358.39
343.571	346.69
344.024	304.56
344.477	292.86
344.929	318.61
345.382	334.99
345.834	330.31
346.287	351.37
346.739	302.22
347.191	306.9
347.644	290.52
348.096	269.45
348.548	323.29
349	325.63
349.452	285.84
349.904	316.26
350.356	295.2
350.808	295.2
351.26	290.52
351.711	323.29
352.163	262.43
352.615	374.78
353.066	295.2
353.518	292.86
353.969	262.43
354.421	311.58
354.872	339.67
355.324	327.97
355.775	311.58
356.226	297.54
356.677	316.26
357.128	325.63
357.579	278.82
358.03	306.9
358.481	402.86
358.932	342.01
359.383	318.61
359.834	374.78
360.285	327.97
360.735	274.14
361.186	257.75
361.637	264.77
362.087	325.63
362.538	246.05
362.988	302.22
363.438	327.97
363.889	377.12
364.339	313.92
364.789	292.86
365.239	302.22
365.689	283.5
366.139	363.08
366.589	332.65
367.039	260.09
367.489	292.86
367.939	255.41
368.389	295.2
368.839	290.52
369.288	323.29
369.738	339.67
370.187	260.09
370.637	309.24
371.086	334.99
371.536	281.16
371.985	297.54
372.434	276.48
372.884	311.58
373.333	323.29
373.782	320.95
374.231	332.65
374.68	318.61
375.129	320.95
375.578	313.92
376.027	306.9
376.475	304.56
376.924	288.18
377.373	306.9
377.822	313.92
378.27	374.78
378.719	271.79
379.167	229.67
379.616	267.11
380.064	285.84
380.512	325.63
380.961	344.35
381.409	304.56
381.857	379.46
382.305	356.05
382.753	290.52
383.201	290.52
383.649	285.84
384.097	360.74
384.545	278.82
384.992	330.31
385.44	358.39
385.888	323.29
386.335	332.65
386.783	309.24
387.231	349.03
387.678	311.58
388.125	332.65
388.573	323.29
389.02	358.39
389.467	325.63
389.914	306.9
390.362	318.61
390.809	309.24
391.256	311.58
391.703	309.24
392.15	313.92
392.596	381.8
393.043	250.73
393.49	363.08
393.937	297.54
394.383	379.46
394.83	370.1
395.276	351.37
395.723	337.33
396.169	342.01
396.616	337.33
397.062	285.84
397.508	295.2
397.954	260.09
398.401	304.56
398.847	311.58
399.293	346.69
399.739	318.61
400.185	346.69
400.631	332.65
401.076	232.01
401.522	386.48
401.968	241.37
402.414	363.08
402.859	351.37
403.305	337.33
403.75	349.03
404.196	327.97
404.641	299.88
405.086	299.88
405.532	334.99
405.977	339.67
406.422	344.35
406.867	363.08
407.312	274.14
407.757	323.29
408.202	292.86
408.647	304.56
409.092	370.1
409.537	288.18
409.982	346.69
410.426	344.35
410.871	323.29
411.316	299.88
411.76	374.78
412.205	292.86
412.649	285.84
413.093	332.65
413.538	297.54
413.982	306.9
414.426	377.12
414.87	290.52
415.314	342.01
415.758	290.52
416.202	295.2
416.646	358.39
417.09	339.67
417.534	346.69
417.978	363.08
418.421	248.39
418.865	339.67
419.309	334.99
419.752	344.35
420.196	309.24
420.639	271.79
421.083	274.14
421.526	304.56
421.969	267.11
422.412	381.8
422.856	278.82
423.299	260.09
423.742	299.88
424.185	295.2
424.628	257.75
425.071	346.69
425.513	318.61
425.956	316.26
426.399	370.1
426.842	337.33
427.284	334.99
427.727	278.82
428.169	323.29
428.612	318.61
429.054	246.05
429.497	337.33
429.939	271.79
430.381	267.11
430.823	334.99
431.265	372.44
431.707	325.63
432.149	363.08
432.591	271.79
433.033	318.61
433.475	342.01
433.917	337.33
434.359	299.88
434.8	395.84
435.242	344.35
435.684	318.61
436.125	316.26
436.567	302.22
437.008	349.03
437.449	374.78
437.891	325.63
438.332	370.1
438.773	306.9
439.214	250.73
439.656	320.95
440.097	342.01
440.538	342.01
440.978	332.65
441.419	327.97
441.86	302.22
442.301	342.01
442.742	295.2
443.182	290.52
443.623	349.03
444.063	320.95
444.504	267.11
444.944	276.48
445.385	292.86
445.825	269.45
446.265	269.45
446.706	318.61
447.146	342.01
447.586	325.63
448.026	342.01
448.466	304.56
448.906	311.58
449.346	342.01
449.786	309.24
450.225	281.16
450.665	342.01
451.105	325.63
451.544	285.84
451.984	302.22
452.424	344.35
452.863	290.52
453.302	323.29
453.742	342.01
454.181	297.54
454.62	295.2
455.059	292.86
455.499	356.05
455.938	309.24
456.377	309.24
456.816	290.52
457.254	349.03
457.693	306.9
458.132	320.95
458.571	363.08
459.01	302.22
459.448	353.71
459.887	281.16
460.325	320.95
460.764	332.65
461.202	334.99
461.641	313.92
462.079	367.76
462.517	297.54
462.955	285.84
463.393	309.24
463.832	304.56
464.27	302.22
464.708	295.2
465.145	276.48
465.583	344.35
466.021	356.05
466.459	255.41
466.897	318.61
467.334	332.65
467.772	262.43
468.209	325.63
468.647	288.18
469.084	363.08
469.522	285.84
469.959	320.95
470.396	337.33
470.833	351.37
471.271	304.56
471.708	304.56
472.145	255.41
472.582	246.05
473.019	271.79
473.456	365.42
473.892	304.56
474.329	372.44
474.766	349.03
475.202	344.35
475.639	409.89
476.076	323.29
476.512	304.56
476.949	316.26
477.385	346.69
477.821	295.2
478.258	243.71
478.694	342.01
479.13	271.79
479.566	306.9
480.002	285.84
480.438	320.95
480.874	323.29
481.31	325.63
481.746	342.01
482.181	323.29
482.617	334.99
483.053	365.42
483.488	285.84
483.924	276.48
484.36	299.88
484.795	365.42
485.23	320.95
485.666	351.37
486.101	318.61
486.536	311.58
486.971	334.99
487.407	395.84
487.842	370.1
488.277	288.18
488.712	306.9
489.146	313.92
489.581	367.76
490.016	318.61
490.451	346.69
490.885	327.97
491.32	276.48
491.755	292.86
492.189	339.67
492.624	306.9
493.058	339.67
493.492	271.79
493.927	320.95
494.361	325.63
494.795	267.11
495.229	316.26
495.663	339.67
496.097	339.67
496.531	290.52
496.965	299.88
497.399	323.29
497.833	292.86
498.266	297.54
498.7	302.22
499.134	334.99
499.567	313.92
500.001	288.18
500.434	299.88
500.868	381.8
501.301	365.42
501.734	327.97
502.168	281.16
502.601	311.58
503.034	346.69
503.467	297.54
503.9	325.63
504.333	316.26
504.766	260.09
505.199	372.44
505.632	304.56
506.064	323.29
506.497	327.97
506.93	332.65
507.362	309.24
507.795	360.74
508.227	351.37
508.66	306.9
509.092	337.33
509.524	334.99
509.956	295.2
510.389	346.69
510.821	304.56
511.253	367.76
511.685	342.01
512.117	346.69
512.549	302.22
512.981	248.39
513.412	288.18
513.844	323.29
514.276	255.41
514.707	367.76
515.139	299.88
515.571	318.61
516.002	323.29
516.433	367.76
516.865	288.18
517.296	353.71
517.727	255.41
518.159	323.29
518.59	288.18
519.021	356.05
519.452	327.97
519.883	367.76
520.314	299.88
520.744	323.29
521.175	325.63
521.606	381.8
522.037	283.5
522.467	377.12
522.898	257.75
523.328	304.56
523.759	323.29
524.189	306.9
524.62	306.9
525.05	271.79
525.48	332.65
525.91	281.16
526.341	370.1
526.771	281.16
527.201	367.76
527.631	327.97
528.061	349.03
528.49	337.33
528.92	306.9
529.35	316.26
529.78	358.39
530.209	306.9
530.639	297.54
531.068	351.37
531.498	313.92
531.927	269.45
532.357	318.61
532.786	351.37
533.215	379.46
533.644	299.88
534.074	290.52
534.503	334.99
534.932	318.61
535.361	379.46
535.79	306.9
536.218	306.9
536.647	337.33
537.076	344.35
537.505	346.69
537.933	337.33
538.362	370.1
538.79	306.9
539.219	337.33
539.647	302.22
540.076	283.5
540.504	342.01
540.932	262.43
541.36	349.03
541.788	316.26
542.217	330.31
542.645	337.33
543.073	320.95
543.5	297.54
543.928	327.97
544.356	358.39
544.784	306.9
545.211	311.58
545.639	342.01
546.067	334.99
546.494	264.77
546.922	276.48
547.349	349.03
547.776	337.33
548.204	295.2
548.631	339.67
549.058	351.37
549.485	278.82
549.912	269.45
550.339	253.07
550.766	330.31
551.193	365.42
551.62	299.88
552.047	327.97
552.474	297.54
552.9	241.37
553.327	320.95
553.754	302.22
554.18	246.05
554.607	299.88
555.033	332.65
555.459	292.86
555.886	320.95
556.312	339.67
556.738	297.54
557.164	327.97
557.59	367.76
558.016	292.86
558.442	297.54
558.868	318.61
559.294	344.35
559.72	316.26
560.145	325.63
560.571	360.74
560.997	377.12
561.422	337.33
561.848	257.75
562.273	332.65
562.699	290.52
563.124	297.54
563.549	306.9
563.974	281.16
564.4	267.11
564.825	330.31
565.25	243.71
565.675	332.65
566.1	203.92
566.525	337.33
566.95	292.86
567.374	306.9
567.799	342.01
568.224	318.61
568.648	316.26
569.073	274.14
569.497	313.92
569.922	253.07
570.346	334.99
570.771	332.65
571.195	292.86
571.619	351.37
572.043	283.5
572.467	356.05
572.891	346.69
573.315	349.03
573.739	346.69
574.163	325.63
574.587	292.86
575.011	227.32
575.435	334.99
575.858	349.03
576.282	342.01
576.705	349.03
577.129	316.26
577.552	346.69
577.976	292.86
578.399	257.75
578.822	344.35
579.245	295.2
579.669	316.26
580.092	292.86
580.515	290.52
580.938	346.69
581.361	370.1
581.784	299.88
582.206	363.08
582.629	367.76
583.052	377.12
583.474	304.56
583.897	358.39
584.32	281.16
584.742	283.5
585.165	330.31
585.587	332.65
586.009	325.63
586.431	316.26
586.854	250.73
587.276	320.95
587.698	262.43
588.12	285.84
588.542	304.56
588.964	281.16
589.386	316.26
589.807	391.16
590.229	332.65
590.651	239.03
591.073	255.41
591.494	332.65
591.916	220.3
592.337	299.88
592.759	271.79
593.18	358.39
593.601	337.33
594.022	351.37
594.444	311.58
594.865	316.26
595.286	297.54
595.707	353.71
596.128	318.61
596.549	269.45
596.97	276.48
597.39	393.5
597.811	285.84
598.232	246.05
598.652	327.97
599.073	327.97
599.494	297.54
599.914	309.24
600.334	297.54
600.755	302.22
601.175	330.31
601.595	327.97
602.015	297.54
602.436	342.01
602.856	433.29
603.276	325.63
603.696	320.95
604.115	313.92
604.535	234.35
604.955	278.82
605.375	342.01
605.794	339.67
606.214	346.69
606.634	311.58
607.053	327.97
607.473	313.92
607.892	320.95
608.311	316.26
608.731	325.63
609.15	358.39
609.569	313.92
609.988	297.54
610.407	374.78
610.826	351.37
611.245	363.08
611.664	370.1
612.083	318.61
612.501	292.86
612.92	313.92
613.339	295.2
613.757	323.29
614.176	288.18
614.594	349.03
615.013	253.07
615.431	313.92
615.85	313.92
616.268	309.24
616.686	363.08
617.104	339.67
617.522	295.2
617.94	281.16
618.358	302.22
618.776	365.42
619.194	320.95
619.612	318.61
620.03	311.58
620.447	274.14
620.865	306.9
621.282	316.26
621.7	372.44
622.117	283.5
622.535	363.08
622.952	323.29
623.369	281.16
623.787	351.37
624.204	278.82
624.621	318.61
625.038	295.2
625.455	386.48
625.872	299.88
626.289	304.56
626.706	306.9
627.123	313.92
627.539	330.31
627.956	306.9
628.373	318.61
628.789	299.88
629.206	374.78
629.622	274.14
630.038	313.92
630.455	241.37
630.871	344.35
631.287	278.82
631.703	339.67
632.12	271.79
632.536	309.24
632.952	337.33
633.368	337.33
633.783	367.76
634.199	311.58
634.615	269.45
635.031	330.31
635.446	339.67
635.862	325.63
636.277	363.08
636.693	267.11
637.108	367.76
637.524	316.26
637.939	309.24
638.354	267.11
638.77	318.61
639.185	325.63
639.6	342.01
640.015	363.08
640.43	356.05
640.845	325.63
641.259	276.48
641.674	220.3
642.089	309.24
642.504	349.03
642.918	234.35
643.333	253.07
643.747	351.37
644.162	274.14
644.576	292.86
644.991	264.77
645.405	316.26
645.819	257.75
646.233	278.82
646.647	283.5
647.061	316.26
647.475	332.65
647.889	342.01
648.303	323.29
648.717	264.77
649.131	313.92
649.545	285.84
649.958	262.43
650.372	327.97
650.785	316.26
651.199	351.37
651.612	342.01
652.026	288.18
652.439	349.03
652.852	285.84
653.266	374.78
653.679	262.43
654.092	360.74
654.505	297.54
654.918	295.2
655.331	334.99
655.744	306.9
656.156	299.88
656.569	318.61
656.982	285.84
657.394	271.79
657.807	276.48
658.22	339.67
658.632	311.58
659.044	290.52
659.457	334.99
659.869	356.05
660.281	325.63
660.693	297.54
661.106	311.58
661.518	295.2
661.93	283.5
662.342	285.84
662.754	309.24
663.165	311.58
663.577	304.56
663.989	353.71
664.401	309.24
664.812	292.86
665.224	344.35
665.635	267.11
666.047	271.79
666.458	302.22
666.869	353.71
667.281	276.48
667.692	365.42
668.103	297.54
668.514	344.35
668.925	281.16
669.336	313.92
669.747	349.03
670.158	384.14
670.569	281.16
670.979	325.63
671.39	323.29
671.801	269.45
672.211	349.03
672.622	292.86
673.032	295.2
673.443	290.52
673.853	295.2
674.263	311.58
674.674	353.71
675.084	290.52
675.494	316.26
675.904	356.05
676.314	316.26
676.724	337.33
677.134	349.03
677.544	337.33
677.953	283.5
678.363	327.97
678.773	363.08
679.182	311.58
679.592	316.26
680.001	297.54
680.411	297.54
680.82	351.37
681.23	353.71
681.639	313.92
682.048	318.61
682.457	318.61
682.866	304.56
683.275	295.2
683.684	313.92
684.093	306.9
684.502	213.28
684.911	313.92
685.32	304.56
685.728	313.92
686.137	327.97
686.546	313.92
686.954	318.61
687.363	337.33
687.771	276.48
688.179	339.67
688.588	304.56
688.996	320.95
689.404	334.99
689.812	309.24
690.22	320.95
690.628	318.61
691.036	353.71
691.444	379.46
691.852	283.5
692.26	297.54
692.667	325.63
693.075	327.97
693.483	374.78
693.89	274.14
694.298	309.24
694.705	290.52
695.112	325.63
695.52	283.5
695.927	372.44
696.334	349.03
696.741	283.5
697.148	281.16
697.555	316.26
697.962	257.75
698.369	316.26
698.776	363.08
699.183	255.41
699.59	313.92
699.996	295.2
700.403	342.01
700.81	290.52
701.216	339.67
701.623	356.05
702.029	281.16
702.435	304.56
702.842	297.54
703.248	217.96
703.654	292.86
704.06	297.54
704.466	374.78
704.872	313.92
705.278	372.44
705.684	330.31
706.09	332.65
706.496	297.54
706.901	276.48
707.307	295.2
707.712	320.95
708.118	295.2
708.523	299.88
708.929	318.61
709.334	257.75
709.74	297.54
710.145	313.92
710.55	334.99
710.955	283.5
711.36	248.39
711.765	370.1
712.17	281.16
712.575	276.48
712.98	807.78
713.385	309.24
713.789	342.01
714.194	320.95
714.599	309.24
715.003	320.95
715.408	283.5
715.812	276.48
716.217	311.58
716.621	288.18
717.025	255.41
717.429	306.9
717.833	318.61
718.238	349.03
718.642	295.2
719.046	344.35
719.449	365.42
719.853	278.82
720.257	367.76
720.661	290.52
721.065	346.69
721.468	320.95
721.872	313.92
722.275	302.22
722.679	283.5
723.082	274.14
723.485	349.03
723.889	360.74
724.292	330.31
724.695	260.09
725.098	320.95
725.501	288.18
725.904	295.2
726.307	269.45
726.71	332.65
727.113	349.03
727.516	356.05
727.918	342.01
728.321	281.16
728.724	281.16
729.126	325.63
729.529	377.12
729.931	323.29
730.333	302.22
730.736	297.54
731.138	253.07
731.54	330.31
731.942	360.74
732.344	274.14
732.746	379.46
733.148	320.95
733.55	334.99
733.952	351.37
734.354	241.37
734.756	309.24
735.157	297.54
735.559	253.07
735.96	342.01
736.362	342.01
736.763	274.14
737.165	356.05
737.566	292.86
737.967	299.88
738.368	346.69
738.77	325.63
739.171	325.63
739.572	306.9
739.973	316.26
740.374	311.58
740.774	327.97
741.175	281.16
741.576	313.92
741.977	323.29
742.377	306.9
742.778	283.5
743.178	297.54
743.579	398.18
743.979	327.97
744.379	276.48
744.78	306.9
745.18	337.33
745.58	318.61
745.98	269.45
746.38	323.29
746.78	281.16
747.18	274.14
747.58	250.73
747.98	388.82
748.38	285.84
748.779	349.03
749.179	353.71
749.578	323.29
749.978	342.01
750.377	295.2
750.777	306.9
751.176	398.18
751.575	407.55
751.975	327.97
752.374	356.05
752.773	365.42
753.172	299.88
753.571	290.52
753.97	283.5
754.369	316.26
754.768	283.5
755.166	306.9
755.565	330.31
755.964	316.26
756.362	346.69
756.761	316.26
757.159	342.01
757.558	334.99
757.956	299.88
758.354	349.03
758.753	351.37
759.151	346.69
759.549	337.33
759.947	302.22
760.345	311.58
760.743	295.2
761.141	334.99
761.539	353.71
761.936	349.03
762.334	264.77
762.732	299.88
763.129	304.56
763.527	271.79
763.924	278.82
764.322	306.9
764.719	278.82
765.117	351.37
