Data from Al_FLMS009871__909__16-18-08-623.txt Node

Date: Fri Mar 08 16:18:08 CST 2024
User: pe5414po
Spectrometer: FLMS00987
Trigger mode: 0
Integration Time (sec): 1.000000E-1
Scans to average: 1
Electric dark correction enabled: true
Nonlinearity correction enabled: false
Boxcar width: 0
XAxis mode: Wavelengths
Number of Pixels in Spectrum: 2048
>>>>>Begin Spectral Data<<<<<
188.938	-37.89
189.409	-37.89
189.879	-37.89
190.349	-70.65
190.819	-171.3
191.29	-154.91
191.76	-70.65
192.23	-94.06
192.7	-96.4
193.17	-21.5
193.64	-40.23
194.109	-35.55
194.579	-14.48
195.049	-26.18
195.519	53.39
195.988	20.63
196.458	83.82
196.927	72.12
197.397	74.46
197.866	104.89
198.336	144.67
198.805	149.36
199.274	137.65
199.744	219.57
200.213	196.17
200.682	207.87
201.151	233.61
201.62	245.32
202.089	296.81
202.558	252.34
203.027	275.74
203.495	266.38
203.964	252.34
204.433	282.77
204.902	322.56
205.37	264.04
205.839	273.4
206.307	317.87
206.776	341.28
207.244	315.53
207.712	313.19
208.181	322.56
208.649	341.28
209.117	315.53
209.585	310.85
210.053	221.91
210.521	306.17
210.989	329.58
211.457	292.13
211.925	313.19
212.393	245.32
212.861	306.17
213.328	233.61
213.796	322.56
214.264	296.81
214.731	308.51
215.199	296.81
215.666	285.11
216.133	306.17
216.601	245.32
217.068	299.15
217.535	367.03
218.003	254.68
218.47	268.72
218.937	275.74
219.404	247.66
219.871	252.34
220.338	275.74
220.805	231.27
221.271	268.72
221.738	254.68
222.205	294.47
222.671	212.55
223.138	292.13
223.605	226.59
224.071	299.15
224.538	324.9
225.004	268.72
225.47	275.74
225.937	285.11
226.403	327.24
226.869	226.59
227.335	282.77
227.801	338.94
228.267	240.64
228.733	327.24
229.199	271.06
229.665	308.51
230.131	336.6
230.597	306.17
231.062	369.37
231.528	280.43
231.994	271.06
232.459	322.56
232.925	287.45
233.39	334.26
233.856	392.77
234.321	289.79
234.786	292.13
235.252	282.77
235.717	264.04
236.182	313.19
236.647	317.87
237.112	242.98
237.577	308.51
238.042	257.02
238.507	245.32
238.972	313.19
239.436	322.56
239.901	336.6
240.366	250
240.83	280.43
241.295	264.04
241.76	315.53
242.224	289.79
242.688	334.26
243.153	299.15
243.617	289.79
244.081	292.13
244.545	345.96
245.01	320.21
245.474	257.02
245.938	331.92
246.402	261.7
246.866	303.83
247.33	285.11
247.793	338.94
248.257	198.51
248.721	313.19
249.185	282.77
249.648	231.27
250.112	341.28
250.575	303.83
251.039	301.49
251.502	350.64
251.965	278.08
252.429	315.53
252.892	310.85
253.355	299.15
253.818	381.07
254.281	338.94
254.744	371.71
255.207	275.74
255.67	327.24
256.133	348.3
256.596	378.73
257.059	231.27
257.522	268.72
257.984	322.56
258.447	364.68
258.909	287.45
259.372	324.9
259.834	301.49
260.297	259.36
260.759	252.34
261.221	273.4
261.684	315.53
262.146	266.38
262.608	338.94
263.07	299.15
263.532	299.15
263.994	315.53
264.456	343.62
264.918	317.87
265.38	303.83
265.842	341.28
266.303	292.13
266.765	343.62
267.227	252.34
267.688	254.68
268.15	268.72
268.611	289.79
269.072	287.45
269.534	294.47
269.995	275.74
270.456	343.62
270.918	299.15
271.379	287.45
271.84	268.72
272.301	310.85
272.762	381.07
273.223	280.43
273.684	292.13
274.144	292.13
274.605	299.15
275.066	296.81
275.527	313.19
275.987	369.37
276.448	303.83
276.908	322.56
277.369	348.3
277.829	268.72
278.289	296.81
278.75	259.36
279.21	320.21
279.67	322.56
280.13	310.85
280.59	306.17
281.05	282.77
281.51	238.3
281.97	296.81
282.43	228.93
282.89	287.45
283.35	261.7
283.809	381.07
284.269	367.03
284.729	259.36
285.188	385.75
285.648	289.79
286.107	301.49
286.567	322.56
287.026	315.53
287.485	289.79
287.944	266.38
288.404	303.83
288.863	245.32
289.322	348.3
289.781	322.56
290.24	329.58
290.699	320.21
291.158	317.87
291.616	308.51
292.075	371.71
292.534	355.32
292.992	388.09
293.451	345.96
293.91	322.56
294.368	292.13
294.827	271.06
295.285	264.04
295.743	360
296.202	282.77
296.66	345.96
297.118	317.87
297.576	285.11
298.034	334.26
298.492	360
298.95	303.83
299.408	317.87
299.866	352.98
300.324	315.53
300.781	324.9
301.239	301.49
301.697	266.38
302.154	282.77
302.612	324.9
303.069	357.66
303.527	327.24
303.984	273.4
304.441	336.6
304.899	287.45
305.356	345.96
305.813	261.7
306.27	369.37
306.727	322.56
307.184	310.85
307.641	345.96
308.098	327.24
308.555	348.3
309.012	324.9
309.468	383.41
309.925	266.38
310.382	238.3
310.838	327.24
311.295	301.49
311.751	275.74
312.208	273.4
312.664	310.85
313.12	336.6
313.577	303.83
314.033	385.75
314.489	303.83
314.945	308.51
315.401	313.19
315.857	296.81
316.313	285.11
316.769	282.77
317.225	331.92
317.681	320.21
318.136	301.49
318.592	315.53
319.048	345.96
319.503	306.17
319.959	345.96
320.414	313.19
320.869	287.45
321.325	364.68
321.78	287.45
322.235	341.28
322.691	287.45
323.146	320.21
323.601	308.51
324.056	278.08
324.511	376.39
324.966	357.66
325.421	308.51
325.875	313.19
326.33	301.49
326.785	327.24
327.24	322.56
327.694	364.68
328.149	306.17
328.603	331.92
329.058	331.92
329.512	348.3
329.966	299.15
330.421	338.94
330.875	371.71
331.329	296.81
331.783	313.19
332.237	350.64
332.691	299.15
333.145	273.4
333.599	292.13
334.053	287.45
334.507	352.98
334.96	341.28
335.414	299.15
335.868	308.51
336.321	324.9
336.775	343.62
337.228	240.64
337.682	238.3
338.135	299.15
338.588	324.9
339.042	329.58
339.495	282.77
339.948	357.66
340.401	374.05
340.854	282.77
341.307	327.24
341.76	355.32
342.213	285.11
342.666	289.79
343.119	317.87
343.571	355.32
344.024	317.87
344.477	357.66
344.929	336.6
345.382	327.24
345.834	355.32
346.287	378.73
346.739	308.51
347.191	383.41
347.644	350.64
348.096	402.13
348.548	315.53
349	364.68
349.452	322.56
349.904	357.66
350.356	378.73
350.808	343.62
351.26	360
351.711	352.98
352.163	345.96
352.615	287.45
353.066	315.53
353.518	357.66
353.969	306.17
354.421	313.19
354.872	362.34
355.324	296.81
355.775	275.74
356.226	367.03
356.677	362.34
357.128	334.26
357.579	334.26
358.03	343.62
358.481	317.87
358.932	367.03
359.383	404.47
359.834	320.21
360.285	348.3
360.735	331.92
361.186	355.32
361.637	275.74
362.087	289.79
362.538	331.92
362.988	352.98
363.438	322.56
363.889	334.26
364.339	313.19
364.789	376.39
365.239	343.62
365.689	315.53
366.139	282.77
366.589	352.98
367.039	341.28
367.489	282.77
367.939	390.43
368.389	299.15
368.839	348.3
369.288	348.3
369.738	350.64
370.187	296.81
370.637	355.32
371.086	322.56
371.536	327.24
371.985	301.49
372.434	282.77
372.884	350.64
373.333	367.03
373.782	247.66
374.231	341.28
374.68	374.05
375.129	418.52
375.578	285.11
376.027	259.36
376.475	371.71
376.924	294.47
377.373	334.26
377.822	287.45
378.27	338.94
378.719	343.62
379.167	329.58
379.616	357.66
380.064	376.39
380.512	303.83
380.961	324.9
381.409	402.13
381.857	275.74
382.305	336.6
382.753	310.85
383.201	278.08
383.649	327.24
384.097	343.62
384.545	388.09
384.992	406.81
385.44	381.07
385.888	327.24
386.335	296.81
386.783	324.9
387.231	362.34
387.678	371.71
388.125	308.51
388.573	315.53
389.02	367.03
389.467	324.9
389.914	395.11
390.362	308.51
390.809	310.85
391.256	313.19
391.703	343.62
392.15	308.51
392.596	369.37
393.043	331.92
393.49	278.08
393.937	348.3
394.383	322.56
394.83	310.85
395.276	324.9
395.723	301.49
396.169	313.19
396.616	343.62
397.062	327.24
397.508	296.81
397.954	364.68
398.401	324.9
398.847	338.94
399.293	317.87
399.739	310.85
400.185	303.83
400.631	301.49
401.076	345.96
401.522	327.24
401.968	322.56
402.414	296.81
402.859	303.83
403.305	327.24
403.75	411.5
404.196	250
404.641	282.77
405.086	329.58
405.532	345.96
405.977	392.77
406.422	306.17
406.867	257.02
407.312	275.74
407.757	364.68
408.202	336.6
408.647	310.85
409.092	334.26
409.537	320.21
409.982	299.15
410.426	275.74
410.871	331.92
411.316	282.77
411.76	336.6
412.205	317.87
412.649	329.58
413.093	376.39
413.538	308.51
413.982	388.09
414.426	388.09
414.87	313.19
415.314	364.68
415.758	341.28
416.202	348.3
416.646	320.21
417.09	367.03
417.534	336.6
417.978	348.3
418.421	345.96
418.865	336.6
419.309	360
419.752	360
420.196	294.47
420.639	355.32
421.083	313.19
421.526	357.66
421.969	338.94
422.412	343.62
422.856	360
423.299	334.26
423.742	327.24
424.185	392.77
424.628	301.49
425.071	329.58
425.513	315.53
425.956	280.43
426.399	303.83
426.842	327.24
427.284	350.64
427.727	390.43
428.169	331.92
428.612	334.26
429.054	355.32
429.497	385.75
429.939	282.77
430.381	264.04
430.823	296.81
431.265	374.05
431.707	369.37
432.149	369.37
432.591	336.6
433.033	357.66
433.475	345.96
433.917	320.21
434.359	320.21
434.8	350.64
435.242	327.24
435.684	350.64
436.125	383.41
436.567	383.41
437.008	310.85
437.449	434.9
437.891	301.49
438.332	313.19
438.773	374.05
439.214	271.06
439.656	292.13
440.097	331.92
440.538	348.3
440.978	360
441.419	374.05
441.86	378.73
442.301	362.34
442.742	355.32
443.182	282.77
443.623	369.37
444.063	334.26
444.504	357.66
444.944	350.64
445.385	299.15
445.825	310.85
446.265	221.91
446.706	327.24
447.146	329.58
447.586	331.92
448.026	289.79
448.466	338.94
448.906	378.73
449.346	327.24
449.786	310.85
450.225	331.92
450.665	374.05
451.105	338.94
451.544	374.05
451.984	294.47
452.424	362.34
452.863	336.6
453.302	331.92
453.742	317.87
454.181	371.71
454.62	381.07
455.059	308.51
455.499	324.9
455.938	341.28
456.377	278.08
456.816	324.9
457.254	322.56
457.693	334.26
458.132	352.98
458.571	362.34
459.01	371.71
459.448	371.71
459.887	296.81
460.325	343.62
460.764	334.26
461.202	320.21
461.641	329.58
462.079	357.66
462.517	334.26
462.955	324.9
463.393	317.87
463.832	355.32
464.27	331.92
464.708	334.26
465.145	381.07
465.583	341.28
466.021	345.96
466.459	381.07
466.897	334.26
467.334	362.34
467.772	278.08
468.209	322.56
468.647	287.45
469.084	324.9
469.522	362.34
469.959	315.53
470.396	343.62
470.833	310.85
471.271	320.21
471.708	385.75
472.145	338.94
472.582	301.49
473.019	331.92
473.456	299.15
473.892	322.56
474.329	355.32
474.766	317.87
475.202	343.62
475.639	355.32
476.076	324.9
476.512	341.28
476.949	327.24
477.385	306.17
477.821	331.92
478.258	306.17
478.694	324.9
479.13	313.19
479.566	409.15
480.002	315.53
480.438	348.3
480.874	320.21
481.31	264.04
481.746	287.45
482.181	315.53
482.617	289.79
483.053	313.19
483.488	355.32
483.924	329.58
484.36	343.62
484.795	322.56
485.23	371.71
485.666	402.13
486.101	275.74
486.536	278.08
486.971	296.81
487.407	334.26
487.842	355.32
488.277	352.98
488.712	324.9
489.146	352.98
489.581	315.53
490.016	345.96
490.451	357.66
490.885	320.21
491.32	348.3
491.755	282.77
492.189	378.73
492.624	285.11
493.058	308.51
493.492	303.83
493.927	331.92
494.361	376.39
494.795	338.94
495.229	364.68
495.663	343.62
496.097	287.45
496.531	392.77
496.965	350.64
497.399	336.6
497.833	352.98
498.266	278.08
498.7	308.51
499.134	334.26
499.567	336.6
500.001	367.03
500.434	348.3
500.868	341.28
501.301	409.15
501.734	364.68
502.168	402.13
502.601	285.11
503.034	324.9
503.467	315.53
503.9	285.11
504.333	383.41
504.766	310.85
505.199	348.3
505.632	338.94
506.064	362.34
506.497	322.56
506.93	308.51
507.362	317.87
507.795	331.92
508.227	362.34
508.66	334.26
509.092	383.41
509.524	303.83
509.956	310.85
510.389	329.58
510.821	264.04
511.253	350.64
511.685	310.85
512.117	350.64
512.549	345.96
512.981	317.87
513.412	334.26
513.844	345.96
514.276	348.3
514.707	327.24
515.139	397.45
515.571	395.11
516.002	345.96
516.433	322.56
516.865	336.6
517.296	306.17
517.727	317.87
518.159	336.6
518.59	301.49
519.021	257.02
519.452	338.94
519.883	341.28
520.314	317.87
520.744	299.15
521.175	362.34
521.606	336.6
522.037	376.39
522.467	313.19
522.898	331.92
523.328	324.9
523.759	397.45
524.189	271.06
524.62	320.21
525.05	343.62
525.48	306.17
525.91	296.81
526.341	369.37
526.771	364.68
527.201	301.49
527.631	334.26
528.061	282.77
528.49	320.21
528.92	322.56
529.35	336.6
529.78	245.32
530.209	313.19
530.639	369.37
531.068	306.17
531.498	378.73
531.927	322.56
532.357	367.03
532.786	338.94
533.215	315.53
533.644	292.13
534.074	292.13
534.503	322.56
534.932	345.96
535.361	282.77
535.79	275.74
536.218	289.79
536.647	329.58
537.076	294.47
537.505	303.83
537.933	352.98
538.362	257.02
538.79	294.47
539.219	306.17
539.647	390.43
540.076	367.03
540.504	282.77
540.932	324.9
541.36	324.9
541.788	320.21
542.217	336.6
542.645	341.28
543.073	315.53
543.5	315.53
543.928	360
544.356	322.56
544.784	343.62
545.211	315.53
545.639	390.43
546.067	324.9
546.494	315.53
546.922	385.75
547.349	310.85
547.776	362.34
548.204	371.71
548.631	296.81
549.058	388.09
549.485	336.6
549.912	338.94
550.339	315.53
550.766	329.58
551.193	343.62
551.62	224.25
552.047	360
552.474	329.58
552.9	327.24
553.327	278.08
553.754	341.28
554.18	381.07
554.607	350.64
555.033	294.47
555.459	278.08
555.886	352.98
556.312	329.58
556.738	338.94
557.164	334.26
557.59	282.77
558.016	320.21
558.442	350.64
558.868	364.68
559.294	282.77
559.72	294.47
560.145	303.83
560.571	301.49
560.997	355.32
561.422	383.41
561.848	245.32
562.273	296.81
562.699	285.11
563.124	289.79
563.549	280.43
563.974	341.28
564.4	315.53
564.825	371.71
565.25	388.09
565.675	317.87
566.1	367.03
566.525	324.9
566.95	381.07
567.374	399.79
567.799	369.37
568.224	350.64
568.648	352.98
569.073	268.72
569.497	292.13
569.922	371.71
570.346	338.94
570.771	376.39
571.195	362.34
571.619	299.15
572.043	320.21
572.467	322.56
572.891	411.5
573.315	334.26
573.739	383.41
574.163	364.68
574.587	352.98
575.011	336.6
575.435	338.94
575.858	303.83
576.282	308.51
576.705	310.85
577.129	331.92
577.552	350.64
577.976	296.81
578.399	350.64
578.822	317.87
579.245	287.45
579.669	292.13
580.092	315.53
580.515	362.34
580.938	341.28
581.361	352.98
581.784	331.92
582.206	278.08
582.629	348.3
583.052	338.94
583.474	352.98
583.897	334.26
584.32	343.62
584.742	360
585.165	313.19
585.587	371.71
586.009	324.9
586.431	334.26
586.854	273.4
587.276	301.49
587.698	334.26
588.12	301.49
588.542	334.26
588.964	345.96
589.386	317.87
589.807	334.26
590.229	327.24
590.651	352.98
591.073	313.19
591.494	294.47
591.916	273.4
592.337	374.05
592.759	334.26
593.18	348.3
593.601	376.39
594.022	285.11
594.444	275.74
594.865	315.53
595.286	369.37
595.707	303.83
596.128	395.11
596.549	348.3
596.97	343.62
597.39	315.53
597.811	338.94
598.232	364.68
598.652	341.28
599.073	334.26
599.494	306.17
599.914	299.15
600.334	303.83
600.755	282.77
601.175	395.11
601.595	357.66
602.015	303.83
602.436	362.34
602.856	425.54
603.276	369.37
603.696	345.96
604.115	292.13
604.535	315.53
604.955	362.34
605.375	320.21
605.794	327.24
606.214	331.92
606.634	310.85
607.053	390.43
607.473	327.24
607.892	360
608.311	376.39
608.731	336.6
609.15	338.94
609.569	350.64
609.988	348.3
610.407	369.37
610.826	364.68
611.245	327.24
611.664	282.77
612.083	308.51
612.501	399.79
612.92	374.05
613.339	336.6
613.757	313.19
614.176	336.6
614.594	287.45
615.013	336.6
615.431	294.47
615.85	324.9
616.268	355.32
616.686	329.58
617.104	327.24
617.522	376.39
617.94	362.34
618.358	364.68
618.776	345.96
619.194	378.73
619.612	448.94
620.03	329.58
620.447	416.18
620.865	383.41
621.282	381.07
621.7	308.51
622.117	331.92
622.535	362.34
622.952	360
623.369	324.9
623.787	336.6
624.204	310.85
624.621	376.39
625.038	296.81
625.455	352.98
625.872	308.51
626.289	336.6
626.706	425.54
627.123	348.3
627.539	324.9
627.956	322.56
628.373	331.92
628.789	324.9
629.206	331.92
629.622	315.53
630.038	334.26
630.455	329.58
630.871	264.04
631.287	320.21
631.703	324.9
632.12	310.85
632.536	322.56
632.952	308.51
633.368	327.24
633.783	329.58
634.199	364.68
634.615	357.66
635.031	285.11
635.446	345.96
635.862	360
636.277	378.73
636.693	327.24
637.108	306.17
637.524	355.32
637.939	334.26
638.354	399.79
638.77	369.37
639.185	371.71
639.6	336.6
640.015	348.3
640.43	301.49
640.845	282.77
641.259	287.45
641.674	317.87
642.089	374.05
642.504	350.64
642.918	289.79
643.333	371.71
643.747	303.83
644.162	355.32
644.576	371.71
644.991	299.15
645.405	306.17
645.819	334.26
646.233	341.28
646.647	385.75
647.061	336.6
647.475	306.17
647.889	338.94
648.303	409.15
648.717	345.96
649.131	336.6
649.545	329.58
649.958	266.38
650.372	348.3
650.785	350.64
651.199	294.47
651.612	331.92
652.026	306.17
652.439	364.68
652.852	324.9
653.266	287.45
653.679	306.17
654.092	357.66
654.505	327.24
654.918	352.98
655.331	367.03
655.744	367.03
656.156	392.77
656.569	303.83
656.982	315.53
657.394	327.24
657.807	383.41
658.22	360
658.632	301.49
659.044	301.49
659.457	360
659.869	299.15
660.281	334.26
660.693	289.79
661.106	313.19
661.518	357.66
661.93	350.64
662.342	352.98
662.754	317.87
663.165	320.21
663.577	308.51
663.989	324.9
664.401	371.71
664.812	313.19
665.224	317.87
665.635	280.43
666.047	376.39
666.458	296.81
666.869	310.85
667.281	275.74
667.692	341.28
668.103	369.37
668.514	324.9
668.925	425.54
669.336	423.2
669.747	357.66
670.158	320.21
670.569	273.4
670.979	376.39
671.39	322.56
671.801	331.92
672.211	317.87
672.622	345.96
673.032	392.77
673.443	310.85
673.853	282.77
674.263	327.24
674.674	327.24
675.084	336.6
675.494	336.6
675.904	341.28
676.314	383.41
676.724	322.56
677.134	336.6
677.544	257.02
677.953	334.26
678.363	355.32
678.773	338.94
679.182	364.68
679.592	371.71
680.001	362.34
680.411	308.51
680.82	327.24
681.23	294.47
681.639	376.39
682.048	348.3
682.457	303.83
682.866	322.56
683.275	362.34
683.684	341.28
684.093	294.47
684.502	324.9
684.911	357.66
685.32	324.9
685.728	348.3
686.137	329.58
686.546	348.3
686.954	331.92
687.363	381.07
687.771	336.6
688.179	392.77
688.588	317.87
688.996	292.13
689.404	343.62
689.812	327.24
690.22	360
690.628	303.83
691.036	341.28
691.444	390.43
691.852	261.7
692.26	320.21
692.667	278.08
693.075	324.9
693.483	334.26
693.89	355.32
694.298	369.37
694.705	301.49
695.112	315.53
695.52	395.11
695.927	345.96
696.334	395.11
696.741	341.28
697.148	301.49
697.555	242.98
697.962	257.02
698.369	308.51
698.776	296.81
699.183	336.6
699.59	360
699.996	357.66
700.403	313.19
700.81	310.85
701.216	299.15
701.623	343.62
702.029	355.32
702.435	273.4
702.842	392.77
703.248	303.83
703.654	301.49
704.06	327.24
704.466	327.24
704.872	369.37
705.278	301.49
705.684	327.24
706.09	360
706.496	341.28
706.901	296.81
707.307	331.92
707.712	345.96
708.118	320.21
708.523	338.94
708.929	320.21
709.334	292.13
709.74	336.6
710.145	360
710.55	331.92
710.955	313.19
711.36	313.19
711.765	374.05
712.17	338.94
712.575	287.45
712.98	858.54
713.385	338.94
713.789	345.96
714.194	313.19
714.599	334.26
715.003	306.17
715.408	336.6
715.812	317.87
716.217	334.26
716.621	329.58
717.025	357.66
717.429	289.79
717.833	331.92
718.238	334.26
718.642	341.28
719.046	327.24
719.449	317.87
719.853	282.77
720.257	268.72
720.661	357.66
721.065	383.41
721.468	341.28
721.872	364.68
722.275	352.98
722.679	364.68
723.082	341.28
723.485	348.3
723.889	289.79
724.292	367.03
724.695	299.15
725.098	343.62
725.501	341.28
725.904	350.64
726.307	308.51
726.71	327.24
727.113	338.94
727.516	367.03
727.918	357.66
728.321	299.15
728.724	317.87
729.126	345.96
729.529	378.73
729.931	378.73
730.333	285.11
730.736	341.28
731.138	308.51
731.54	254.68
731.942	348.3
732.344	385.75
732.746	287.45
733.148	345.96
733.55	322.56
733.952	308.51
734.354	261.7
734.756	357.66
735.157	345.96
735.559	320.21
735.96	345.96
736.362	369.37
736.763	285.11
737.165	341.28
737.566	285.11
737.967	322.56
738.368	376.39
738.77	329.58
739.171	273.4
739.572	278.08
739.973	357.66
740.374	355.32
740.774	327.24
741.175	294.47
741.576	310.85
741.977	322.56
742.377	364.68
742.778	355.32
743.178	259.36
743.579	402.13
743.979	334.26
744.379	369.37
744.78	303.83
745.18	301.49
745.58	392.77
745.98	338.94
746.38	296.81
746.78	287.45
747.18	355.32
747.58	327.24
747.98	327.24
748.38	292.13
748.779	334.26
749.179	313.19
749.578	355.32
749.978	308.51
750.377	313.19
750.777	338.94
751.176	338.94
751.575	247.66
751.975	322.56
752.374	324.9
752.773	317.87
753.172	341.28
753.571	385.75
753.97	348.3
754.369	329.58
754.768	345.96
755.166	292.13
755.565	317.87
755.964	313.19
756.362	364.68
756.761	364.68
757.159	285.11
757.558	271.06
757.956	367.03
758.354	350.64
758.753	336.6
759.151	324.9
759.549	313.19
759.947	322.56
760.345	362.34
760.743	345.96
761.141	310.85
761.539	310.85
761.936	362.34
762.334	329.58
762.732	322.56
763.129	308.51
763.527	322.56
763.924	315.53
764.322	350.64
764.719	301.49
765.117	341.28
765.514	296.81
765.911	306.17
766.308	287.45
766.705	313.19
