Data from Al_FLMS009871__903__16-18-08-023.txt Node

Date: Fri Mar 08 16:18:08 CST 2024
User: pe5414po
Spectrometer: FLMS00987
Trigger mode: 0
Integration Time (sec): 1.000000E-1
Scans to average: 1
Electric dark correction enabled: true
Nonlinearity correction enabled: false
Boxcar width: 0
XAxis mode: Wavelengths
Number of Pixels in Spectrum: 2048
>>>>>Begin Spectral Data<<<<<
188.938	-64.22
189.409	-64.22
189.879	-64.22
190.349	-43.15
190.819	-45.49
191.29	-89.96
191.76	-64.22
192.23	-160.18
192.7	-57.2
193.17	-85.28
193.64	-29.11
194.109	-52.52
194.579	-17.41
195.049	10.68
195.519	71.53
195.988	-3.36
196.458	41.11
196.927	78.55
197.397	73.87
197.866	174.52
198.336	108.98
198.805	167.49
199.274	148.77
199.744	155.79
200.213	165.15
200.682	197.92
201.151	240.05
201.62	272.82
202.089	263.46
202.558	277.5
203.027	242.39
203.495	230.69
203.964	303.25
204.433	298.56
204.902	268.14
205.37	333.67
205.839	352.4
206.307	242.39
206.776	300.91
207.244	286.86
207.712	300.91
208.181	296.22
208.649	249.41
209.117	228.35
209.585	310.27
210.053	312.61
210.521	300.91
210.989	333.67
211.457	256.43
211.925	317.29
212.393	275.16
212.861	331.33
213.328	268.14
213.796	289.2
214.264	277.5
214.731	256.43
215.199	303.25
215.666	193.24
216.133	272.82
216.601	310.27
217.068	279.84
217.535	303.25
218.003	305.59
218.47	289.2
218.937	256.43
219.404	291.54
219.871	336.01
220.338	240.05
220.805	291.54
221.271	261.12
221.738	284.52
222.205	268.14
222.671	286.86
223.138	265.8
223.605	282.18
224.071	298.56
224.538	221.33
225.004	240.05
225.47	289.2
225.937	247.07
226.403	235.37
226.869	319.63
227.335	207.28
227.801	235.37
228.267	214.31
228.733	350.06
229.199	321.97
229.665	233.03
230.131	293.88
230.597	221.33
231.062	247.07
231.528	312.61
231.994	314.95
232.459	326.65
232.925	216.65
233.39	237.71
233.856	289.2
234.321	272.82
234.786	286.86
235.252	270.48
235.717	265.8
236.182	296.22
236.647	223.67
237.112	305.59
237.577	272.82
238.042	321.97
238.507	286.86
238.972	263.46
239.436	263.46
239.901	293.88
240.366	265.8
240.83	343.03
241.295	326.65
241.76	275.16
242.224	256.43
242.688	261.12
243.153	291.54
243.617	305.59
244.081	293.88
244.545	265.8
245.01	230.69
245.474	303.25
245.938	347.72
246.402	303.25
246.866	293.88
247.33	268.14
247.793	317.29
248.257	251.75
248.721	265.8
249.185	284.52
249.648	235.37
250.112	286.86
250.575	272.82
251.039	317.29
251.502	289.2
251.965	312.61
252.429	277.5
252.892	265.8
253.355	263.46
253.818	249.41
254.281	289.2
254.744	263.46
255.207	293.88
255.67	312.61
256.133	319.63
256.596	277.5
257.059	340.69
257.522	289.2
257.984	261.12
258.447	270.48
258.909	352.4
259.372	279.84
259.834	286.86
260.297	352.4
260.759	272.82
261.221	240.05
261.684	282.18
262.146	282.18
262.608	319.63
263.07	289.2
263.532	272.82
263.994	284.52
264.456	298.56
264.918	275.16
265.38	258.78
265.842	307.93
266.303	284.52
266.765	314.95
267.227	265.8
267.688	277.5
268.15	338.35
268.611	298.56
269.072	300.91
269.534	321.97
269.995	310.27
270.456	303.25
270.918	296.22
271.379	312.61
271.84	279.84
272.301	265.8
272.762	242.39
273.223	296.22
273.684	303.25
274.144	272.82
274.605	247.07
275.066	291.54
275.527	286.86
275.987	303.25
276.448	321.97
276.908	303.25
277.369	307.93
277.829	296.22
278.289	261.12
278.75	242.39
279.21	289.2
279.67	197.92
280.13	333.67
280.59	263.46
281.05	314.95
281.51	272.82
281.97	298.56
282.43	314.95
282.89	279.84
283.35	226.01
283.809	256.43
284.269	305.59
284.729	258.78
285.188	282.18
285.648	317.29
286.107	275.16
286.567	319.63
287.026	314.95
287.485	336.01
287.944	296.22
288.404	223.67
288.863	247.07
289.322	300.91
289.781	286.86
290.24	244.73
290.699	258.78
291.158	307.93
291.616	336.01
292.075	296.22
292.534	237.71
292.992	286.86
293.451	314.95
293.91	286.86
294.368	282.18
294.827	289.2
295.285	291.54
295.743	282.18
296.202	296.22
296.66	331.33
297.118	291.54
297.576	270.48
298.034	298.56
298.492	328.99
298.95	317.29
299.408	298.56
299.866	272.82
300.324	319.63
300.781	270.48
301.239	272.82
301.697	286.86
302.154	303.25
302.612	336.01
303.069	357.08
303.527	275.16
303.984	314.95
304.441	317.29
304.899	338.35
305.356	279.84
305.813	321.97
306.27	338.35
306.727	300.91
307.184	256.43
307.641	282.18
308.098	326.65
308.555	284.52
309.012	293.88
309.468	350.06
309.925	284.52
310.382	268.14
310.838	321.97
311.295	312.61
311.751	326.65
312.208	307.93
312.664	277.5
313.12	336.01
313.577	312.61
314.033	338.35
314.489	324.31
314.945	357.08
315.401	357.08
315.857	298.56
316.313	275.16
316.769	286.86
317.225	359.42
317.681	275.16
318.136	305.59
318.592	209.62
319.048	282.18
319.503	261.12
319.959	331.33
320.414	286.86
320.869	340.69
321.325	218.99
321.78	366.44
322.235	392.19
322.691	333.67
323.146	312.61
323.601	317.29
324.056	233.03
324.511	244.73
324.966	291.54
325.421	312.61
325.875	300.91
326.33	319.63
326.785	345.38
327.24	279.84
327.694	265.8
328.149	312.61
328.603	265.8
329.058	244.73
329.512	272.82
329.966	312.61
330.421	317.29
330.875	298.56
331.329	265.8
331.783	289.2
332.237	223.67
332.691	277.5
333.145	310.27
333.599	275.16
334.053	375.8
334.507	347.72
334.96	286.86
335.414	317.29
335.868	359.42
336.321	284.52
336.775	289.2
337.228	324.31
337.682	310.27
338.135	279.84
338.588	336.01
339.042	291.54
339.495	310.27
339.948	284.52
340.401	324.31
340.854	296.22
341.307	321.97
341.76	293.88
342.213	312.61
342.666	277.5
343.119	343.03
343.571	326.65
344.024	317.29
344.477	312.61
344.929	343.03
345.382	361.76
345.834	263.46
346.287	305.59
346.739	321.97
347.191	324.31
347.644	282.18
348.096	312.61
348.548	300.91
349	303.25
349.452	333.67
349.904	307.93
350.356	354.74
350.808	326.65
351.26	340.69
351.711	277.5
352.163	221.33
352.615	305.59
353.066	286.86
353.518	345.38
353.969	282.18
354.421	296.22
354.872	347.72
355.324	282.18
355.775	338.35
356.226	293.88
356.677	296.22
357.128	298.56
357.579	317.29
358.03	275.16
358.481	289.2
358.932	338.35
359.383	305.59
359.834	268.14
360.285	317.29
360.735	328.99
361.186	336.01
361.637	347.72
362.087	310.27
362.538	314.95
362.988	331.33
363.438	328.99
363.889	317.29
364.339	247.07
364.789	305.59
365.239	331.33
365.689	298.56
366.139	310.27
366.589	279.84
367.039	286.86
367.489	336.01
367.939	314.95
368.389	275.16
368.839	324.31
369.288	324.31
369.738	319.63
370.187	286.86
370.637	345.38
371.086	310.27
371.536	305.59
371.985	312.61
372.434	310.27
372.884	319.63
373.333	321.97
373.782	328.99
374.231	340.69
374.68	307.93
375.129	261.12
375.578	336.01
376.027	317.29
376.475	298.56
376.924	413.25
377.373	333.67
377.822	319.63
378.27	343.03
378.719	328.99
379.167	340.69
379.616	347.72
380.064	265.8
380.512	300.91
380.961	331.33
381.409	350.06
381.857	298.56
382.305	293.88
382.753	317.29
383.201	331.33
383.649	350.06
384.097	347.72
384.545	326.65
384.992	286.86
385.44	317.29
385.888	350.06
386.335	228.35
386.783	333.67
387.231	319.63
387.678	371.12
388.125	307.93
388.573	317.29
389.02	291.54
389.467	317.29
389.914	338.35
390.362	338.35
390.809	310.27
391.256	284.52
391.703	343.03
392.15	321.97
392.596	326.65
393.043	382.82
393.49	312.61
393.937	314.95
394.383	298.56
394.83	277.5
395.276	371.12
395.723	336.01
396.169	314.95
396.616	300.91
397.062	347.72
397.508	324.31
397.954	300.91
398.401	268.14
398.847	317.29
399.293	312.61
399.739	296.22
400.185	284.52
400.631	277.5
401.076	300.91
401.522	261.12
401.968	291.54
402.414	289.2
402.859	291.54
403.305	331.33
403.75	319.63
404.196	256.43
404.641	277.5
405.086	265.8
405.532	312.61
405.977	265.8
406.422	336.01
406.867	230.69
407.312	293.88
407.757	293.88
408.202	326.65
408.647	328.99
409.092	300.91
409.537	303.25
409.982	279.84
410.426	408.57
410.871	345.38
411.316	364.1
411.76	289.2
412.205	408.57
412.649	343.03
413.093	328.99
413.538	343.03
413.982	357.08
414.426	343.03
414.87	291.54
415.314	284.52
415.758	305.59
416.202	307.93
416.646	324.31
417.09	303.25
417.534	336.01
417.978	357.08
418.421	338.35
418.865	272.82
419.309	364.1
419.752	286.86
420.196	336.01
420.639	279.84
421.083	340.69
421.526	216.65
421.969	357.08
422.412	310.27
422.856	361.76
423.299	331.33
423.742	298.56
424.185	317.29
424.628	298.56
425.071	291.54
425.513	312.61
425.956	277.5
426.399	399.21
426.842	305.59
427.284	340.69
427.727	364.1
428.169	263.46
428.612	333.67
429.054	352.4
429.497	326.65
429.939	314.95
430.381	321.97
430.823	333.67
431.265	324.31
431.707	324.31
432.149	310.27
432.591	326.65
433.033	272.82
433.475	286.86
433.917	300.91
434.359	345.38
434.8	389.85
435.242	326.65
435.684	310.27
436.125	326.65
436.567	324.31
437.008	343.03
437.449	357.08
437.891	279.84
438.332	399.21
438.773	282.18
439.214	343.03
439.656	293.88
440.097	408.57
440.538	328.99
440.978	312.61
441.419	333.67
441.86	364.1
442.301	357.08
442.742	317.29
443.182	261.12
443.623	314.95
444.063	296.22
444.504	378.14
444.944	333.67
445.385	249.41
445.825	291.54
446.265	300.91
446.706	354.74
447.146	314.95
447.586	310.27
448.026	303.25
448.466	359.42
448.906	366.44
449.346	305.59
449.786	336.01
450.225	307.93
450.665	303.25
451.105	312.61
451.544	296.22
451.984	375.8
452.424	328.99
452.863	265.8
453.302	298.56
453.742	338.35
454.181	307.93
454.62	312.61
455.059	303.25
455.499	310.27
455.938	270.48
456.377	328.99
456.816	289.2
457.254	378.14
457.693	354.74
458.132	268.14
458.571	331.33
459.01	324.31
459.448	336.01
459.887	296.22
460.325	371.12
460.764	279.84
461.202	254.09
461.641	319.63
462.079	347.72
462.517	324.31
462.955	333.67
463.393	378.14
463.832	326.65
464.27	298.56
464.708	366.44
465.145	296.22
465.583	270.48
466.021	319.63
466.459	324.31
466.897	364.1
467.334	296.22
467.772	347.72
468.209	359.42
468.647	338.35
469.084	328.99
469.522	361.76
469.959	284.52
470.396	303.25
470.833	307.93
471.271	270.48
471.708	296.22
472.145	298.56
472.582	336.01
473.019	357.08
473.456	328.99
473.892	282.18
474.329	310.27
474.766	254.09
475.202	275.16
475.639	321.97
476.076	321.97
476.512	293.88
476.949	336.01
477.385	307.93
477.821	289.2
478.258	364.1
478.694	265.8
479.13	277.5
479.566	319.63
480.002	254.09
480.438	328.99
480.874	354.74
481.31	305.59
481.746	321.97
482.181	340.69
482.617	289.2
483.053	408.57
483.488	286.86
483.924	293.88
484.36	321.97
484.795	310.27
485.23	310.27
485.666	291.54
486.101	275.16
486.536	317.29
486.971	317.29
487.407	298.56
487.842	293.88
488.277	364.1
488.712	282.18
489.146	361.76
489.581	328.99
490.016	373.46
490.451	286.86
490.885	364.1
491.32	319.63
491.755	410.91
492.189	328.99
492.624	296.22
493.058	324.31
493.492	289.2
493.927	352.4
494.361	289.2
494.795	357.08
495.229	338.35
495.663	319.63
496.097	314.95
496.531	268.14
496.965	373.46
497.399	317.29
497.833	331.33
498.266	371.12
498.7	314.95
499.134	361.76
499.567	249.41
500.001	321.97
500.434	352.4
500.868	361.76
501.301	357.08
501.734	305.59
502.168	364.1
502.601	300.91
503.034	296.22
503.467	275.16
503.9	254.09
504.333	314.95
504.766	364.1
505.199	286.86
505.632	382.82
506.064	326.65
506.497	324.31
506.93	328.99
507.362	361.76
507.795	310.27
508.227	328.99
508.66	352.4
509.092	284.52
509.524	324.31
509.956	275.16
510.389	312.61
510.821	385.16
511.253	321.97
511.685	282.18
512.117	350.06
512.549	312.61
512.981	336.01
513.412	350.06
513.844	293.88
514.276	373.46
514.707	364.1
515.139	310.27
515.571	284.52
516.002	312.61
516.433	408.57
516.865	282.18
517.296	373.46
517.727	331.33
518.159	293.88
518.59	366.44
519.021	298.56
519.452	361.76
519.883	256.43
520.314	336.01
520.744	303.25
521.175	385.16
521.606	319.63
522.037	387.5
522.467	296.22
522.898	275.16
523.328	331.33
523.759	350.06
524.189	317.29
524.62	291.54
525.05	345.38
525.48	317.29
525.91	336.01
526.341	300.91
526.771	326.65
527.201	314.95
527.631	300.91
528.061	333.67
528.49	289.2
528.92	277.5
529.35	328.99
529.78	284.52
530.209	286.86
530.639	282.18
531.068	333.67
531.498	340.69
531.927	317.29
532.357	310.27
532.786	256.43
533.215	324.31
533.644	317.29
534.074	338.35
534.503	233.03
534.932	359.42
535.361	277.5
535.79	314.95
536.218	303.25
536.647	300.91
537.076	303.25
537.505	300.91
537.933	272.82
538.362	326.65
538.79	317.29
539.219	382.82
539.647	350.06
540.076	303.25
540.504	352.4
540.932	333.67
541.36	343.03
541.788	336.01
542.217	293.88
542.645	310.27
543.073	343.03
543.5	338.35
543.928	300.91
544.356	307.93
544.784	307.93
545.211	272.82
545.639	312.61
546.067	289.2
546.494	352.4
546.922	338.35
547.349	321.97
547.776	223.67
548.204	277.5
548.631	343.03
549.058	289.2
549.485	317.29
549.912	375.8
550.339	268.14
550.766	286.86
551.193	328.99
551.62	305.59
552.047	364.1
552.474	338.35
552.9	319.63
553.327	312.61
553.754	291.54
554.18	305.59
554.607	312.61
555.033	317.29
555.459	284.52
555.886	270.48
556.312	291.54
556.738	298.56
557.164	291.54
557.59	336.01
558.016	230.69
558.442	321.97
558.868	272.82
559.294	307.93
559.72	366.44
560.145	328.99
560.571	331.33
560.997	265.8
561.422	272.82
561.848	312.61
562.273	364.1
562.699	289.2
563.124	350.06
563.549	345.38
563.974	303.25
564.4	371.12
564.825	324.31
565.25	345.38
565.675	314.95
566.1	317.29
566.525	305.59
566.95	408.57
567.374	347.72
567.799	291.54
568.224	352.4
568.648	338.35
569.073	319.63
569.497	293.88
569.922	336.01
570.346	375.8
570.771	321.97
571.195	359.42
571.619	336.01
572.043	268.14
572.467	284.52
572.891	293.88
573.315	307.93
573.739	268.14
574.163	328.99
574.587	345.38
575.011	378.14
575.435	347.72
575.858	338.35
576.282	359.42
576.705	352.4
577.129	364.1
577.552	293.88
577.976	350.06
578.399	303.25
578.822	314.95
579.245	258.78
579.669	321.97
580.092	303.25
580.515	270.48
580.938	314.95
581.361	230.69
581.784	321.97
582.206	317.29
582.629	282.18
583.052	314.95
583.474	310.27
583.897	312.61
584.32	305.59
584.742	321.97
585.165	296.22
585.587	303.25
586.009	336.01
586.431	324.31
586.854	293.88
587.276	296.22
587.698	317.29
588.12	296.22
588.542	343.03
588.964	303.25
589.386	333.67
589.807	328.99
590.229	333.67
590.651	277.5
591.073	354.74
591.494	291.54
591.916	307.93
592.337	389.85
592.759	249.41
593.18	375.8
593.601	368.78
594.022	291.54
594.444	221.33
594.865	305.59
595.286	326.65
595.707	312.61
596.128	378.14
596.549	347.72
596.97	300.91
597.39	371.12
597.811	284.52
598.232	270.48
598.652	293.88
599.073	317.29
599.494	361.76
599.914	265.8
600.334	371.12
600.755	279.84
601.175	328.99
601.595	319.63
602.015	289.2
602.436	314.95
602.856	520.92
603.276	298.56
603.696	336.01
604.115	296.22
604.535	286.86
604.955	314.95
605.375	305.59
605.794	324.31
606.214	310.27
606.634	343.03
607.053	366.44
607.473	268.14
607.892	324.31
608.311	373.46
608.731	328.99
609.15	350.06
609.569	328.99
609.988	263.46
610.407	357.08
610.826	289.2
611.245	378.14
611.664	307.93
612.083	270.48
612.501	256.43
612.92	272.82
613.339	265.8
613.757	319.63
614.176	244.73
614.594	284.52
615.013	275.16
615.431	279.84
615.85	359.42
616.268	307.93
616.686	326.65
617.104	275.16
617.522	324.31
617.94	326.65
618.358	333.67
618.776	314.95
619.194	350.06
619.612	431.98
620.03	314.95
620.447	357.08
620.865	268.14
621.282	303.25
621.7	321.97
622.117	296.22
622.535	373.46
622.952	300.91
623.369	312.61
623.787	340.69
624.204	319.63
624.621	343.03
625.038	284.52
625.455	317.29
625.872	406.23
626.289	284.52
626.706	357.08
627.123	293.88
627.539	333.67
627.956	368.78
628.373	307.93
628.789	345.38
629.206	387.5
629.622	338.35
630.038	382.82
630.455	324.31
630.871	300.91
631.287	275.16
631.703	270.48
632.12	338.35
632.536	305.59
632.952	317.29
633.368	350.06
633.783	296.22
634.199	293.88
634.615	314.95
635.031	305.59
635.446	368.78
635.862	333.67
636.277	331.33
636.693	314.95
637.108	328.99
637.524	279.84
637.939	319.63
638.354	284.52
638.77	305.59
639.185	284.52
639.6	305.59
640.015	331.33
640.43	307.93
640.845	291.54
641.259	303.25
641.674	305.59
642.089	284.52
642.504	300.91
642.918	340.69
643.333	307.93
643.747	277.5
644.162	312.61
644.576	368.78
644.991	293.88
645.405	324.31
645.819	352.4
646.233	317.29
646.647	307.93
647.061	307.93
647.475	282.18
647.889	263.46
648.303	338.35
648.717	352.4
649.131	314.95
649.545	326.65
649.958	364.1
650.372	293.88
650.785	310.27
651.199	319.63
651.612	338.35
652.026	314.95
652.439	382.82
652.852	307.93
653.266	293.88
653.679	354.74
654.092	352.4
654.505	324.31
654.918	296.22
655.331	317.29
655.744	263.46
656.156	366.44
656.569	343.03
656.982	249.41
657.394	296.22
657.807	279.84
658.22	364.1
658.632	352.4
659.044	319.63
659.457	324.31
659.869	296.22
660.281	221.33
660.693	310.27
661.106	336.01
661.518	314.95
661.93	314.95
662.342	240.05
662.754	284.52
663.165	310.27
663.577	305.59
663.989	319.63
664.401	263.46
664.812	336.01
665.224	373.46
665.635	319.63
666.047	298.56
666.458	261.12
666.869	375.8
667.281	291.54
667.692	350.06
668.103	305.59
668.514	282.18
668.925	321.97
669.336	307.93
669.747	298.56
670.158	272.82
670.569	265.8
670.979	289.2
671.39	357.08
671.801	333.67
672.211	317.29
672.622	368.78
673.032	319.63
673.443	303.25
673.853	282.18
674.263	361.76
674.674	265.8
675.084	312.61
675.494	312.61
675.904	284.52
676.314	324.31
676.724	354.74
677.134	364.1
677.544	293.88
677.953	359.42
678.363	338.35
678.773	399.21
679.182	300.91
679.592	289.2
680.001	396.87
680.411	303.25
680.82	296.22
681.23	265.8
681.639	385.16
682.048	270.48
682.457	233.03
682.866	300.91
683.275	307.93
683.684	321.97
684.093	338.35
684.502	314.95
684.911	331.33
685.32	333.67
685.728	354.74
686.137	326.65
686.546	371.12
686.954	373.46
687.363	343.03
687.771	333.67
688.179	338.35
688.588	296.22
688.996	361.76
689.404	366.44
689.812	319.63
690.22	293.88
690.628	244.73
691.036	328.99
691.444	345.38
691.852	321.97
692.26	303.25
692.667	354.74
693.075	284.52
693.483	319.63
693.89	265.8
694.298	307.93
694.705	282.18
695.112	317.29
695.52	368.78
695.927	331.33
696.334	347.72
696.741	321.97
697.148	324.31
697.555	331.33
697.962	350.06
698.369	312.61
698.776	317.29
699.183	343.03
699.59	368.78
699.996	284.52
700.403	261.12
700.81	310.27
701.216	300.91
701.623	275.16
702.029	256.43
702.435	291.54
702.842	345.38
703.248	233.03
703.654	293.88
704.06	261.12
704.466	336.01
704.872	328.99
705.278	305.59
705.684	331.33
706.09	296.22
706.496	347.72
706.901	368.78
707.307	333.67
707.712	382.82
708.118	268.14
708.523	293.88
708.929	336.01
709.334	226.01
709.74	319.63
710.145	272.82
710.55	354.74
710.955	254.09
711.36	331.33
711.765	326.65
712.17	439
712.575	300.91
712.98	836.89
713.385	275.16
713.789	319.63
714.194	328.99
714.599	336.01
715.003	326.65
715.408	307.93
715.812	321.97
716.217	368.78
716.621	324.31
717.025	258.78
717.429	324.31
717.833	312.61
718.238	279.84
718.642	328.99
719.046	314.95
719.449	258.78
719.853	312.61
720.257	328.99
720.661	321.97
721.065	277.5
721.468	347.72
721.872	289.2
722.275	392.19
722.679	247.07
723.082	357.08
723.485	354.74
723.889	268.14
724.292	371.12
724.695	326.65
725.098	373.46
725.501	319.63
725.904	305.59
726.307	296.22
726.71	286.86
727.113	300.91
727.516	317.29
727.918	305.59
728.321	300.91
728.724	357.08
729.126	373.46
729.529	352.4
729.931	324.31
730.333	312.61
730.736	307.93
731.138	347.72
731.54	375.8
731.942	343.03
732.344	350.06
732.746	277.5
733.148	270.48
733.55	340.69
733.952	300.91
734.354	326.65
734.756	310.27
735.157	300.91
735.559	289.2
735.96	326.65
736.362	338.35
736.763	275.16
737.165	331.33
737.566	361.76
737.967	357.08
738.368	270.48
738.77	307.93
739.171	336.01
739.572	282.18
739.973	345.38
740.374	366.44
740.774	300.91
741.175	338.35
741.576	364.1
741.977	338.35
742.377	312.61
742.778	373.46
743.178	321.97
743.579	319.63
743.979	303.25
744.379	312.61
744.78	286.86
745.18	340.69
745.58	270.48
745.98	298.56
746.38	307.93
746.78	291.54
747.18	298.56
747.58	338.35
747.98	333.67
748.38	343.03
748.779	350.06
749.179	286.86
749.578	340.69
749.978	314.95
750.377	352.4
750.777	321.97
751.176	347.72
751.575	331.33
751.975	319.63
752.374	375.8
752.773	364.1
753.172	265.8
753.571	336.01
753.97	331.33
754.369	345.38
754.768	328.99
755.166	298.56
755.565	305.59
755.964	284.52
756.362	333.67
756.761	289.2
757.159	282.18
757.558	291.54
757.956	321.97
758.354	296.22
758.753	371.12
759.151	256.43
759.549	350.06
759.947	354.74
760.345	277.5
760.743	272.82
761.141	312.61
761.539	382.82
761.936	347.72
762.334	314.95
762.732	279.84
763.129	336.01
763.527	296.22
763.924	354.74
764.322	282.18
764.719	347.72
765.117	300.91
