Data from Al_FLMS009871__913__16-18-09-023.txt Node

Date: Fri Mar 08 16:18:09 CST 2024
User: pe5414po
Spectrometer: FLMS00987
Trigger mode: 0
Integration Time (sec): 1.000000E-1
Scans to average: 1
Electric dark correction enabled: true
Nonlinearity correction enabled: false
Boxcar width: 0
XAxis mode: Wavelengths
Number of Pixels in Spectrum: 2048
>>>>>Begin Spectral Data<<<<<
188.938	-112.64
189.409	-112.64
189.879	-112.64
190.349	-75.19
190.819	-26.04
191.29	-105.62
191.76	-103.28
192.23	-40.08
192.7	-119.66
193.17	-23.7
193.64	-82.21
194.109	-21.36
194.579	-30.72
195.049	-4.97
195.519	13.75
195.988	32.47
196.458	123.76
196.927	133.12
197.397	79.29
197.866	79.29
198.336	69.92
198.805	144.82
199.274	135.46
199.744	135.46
200.213	191.63
200.682	229.08
201.151	182.27
201.62	266.53
202.089	229.08
202.558	233.76
203.027	252.49
203.495	280.57
203.964	271.21
204.433	271.21
204.902	306.32
205.37	273.55
205.839	334.4
206.307	334.4
206.776	273.55
207.244	301.64
207.712	247.8
208.181	282.91
208.649	311
209.117	285.25
209.585	294.61
210.053	369.51
210.521	322.7
210.989	303.98
211.457	303.98
211.925	313.34
212.393	322.7
212.861	289.93
213.328	289.93
213.796	261.85
214.264	332.06
214.731	266.53
215.199	273.55
215.666	287.59
216.133	236.1
216.601	247.8
217.068	294.61
217.535	280.57
218.003	278.23
218.47	294.61
218.937	257.17
219.404	275.89
219.871	273.55
220.338	301.64
220.805	285.25
221.271	238.44
221.738	247.8
222.205	294.61
222.671	285.25
223.138	289.93
223.605	252.49
224.071	233.76
224.538	289.93
225.004	233.76
225.47	259.51
225.937	250.14
226.403	264.19
226.869	282.91
227.335	325.04
227.801	240.78
228.267	315.68
228.733	247.8
229.199	261.85
229.665	306.32
230.131	236.1
230.597	254.83
231.062	238.44
231.528	189.29
231.994	245.46
232.459	313.34
232.925	266.53
233.39	252.49
233.856	318.02
234.321	196.31
234.786	229.08
235.252	229.08
235.717	264.19
236.182	254.83
236.647	296.96
237.112	252.49
237.577	303.98
238.042	318.02
238.507	233.76
238.972	306.32
239.436	264.19
239.901	294.61
240.366	273.55
240.83	268.87
241.295	278.23
241.76	247.8
242.224	285.25
242.688	266.53
243.153	329.72
243.617	250.14
244.081	271.21
244.545	280.57
245.01	252.49
245.474	280.57
245.938	315.68
246.402	301.64
246.866	240.78
247.33	287.59
247.793	254.83
248.257	273.55
248.721	200.99
249.185	268.87
249.648	296.96
250.112	224.4
250.575	261.85
251.039	261.85
251.502	231.42
251.965	273.55
252.429	306.32
252.892	222.06
253.355	273.55
253.818	259.51
254.281	327.38
254.744	278.23
255.207	292.27
255.67	294.61
256.133	254.83
256.596	306.32
257.059	282.91
257.522	303.98
257.984	275.89
258.447	261.85
258.909	334.4
259.372	299.3
259.834	271.21
260.297	318.02
260.759	320.36
261.221	301.64
261.684	254.83
262.146	278.23
262.608	301.64
263.07	275.89
263.532	257.17
263.994	388.24
264.456	273.55
264.918	289.93
265.38	299.3
265.842	327.38
266.303	318.02
266.765	327.38
267.227	320.36
267.688	348.45
268.15	278.23
268.611	362.49
269.072	325.04
269.534	346.11
269.995	332.06
270.456	273.55
270.918	315.68
271.379	296.96
271.84	259.51
272.301	299.3
272.762	322.7
273.223	273.55
273.684	306.32
274.144	264.19
274.605	273.55
275.066	280.57
275.527	308.66
275.987	259.51
276.448	341.43
276.908	332.06
277.369	268.87
277.829	268.87
278.289	217.38
278.75	336.74
279.21	299.3
279.67	264.19
280.13	362.49
280.59	308.66
281.05	282.91
281.51	296.96
281.97	318.02
282.43	292.27
282.89	259.51
283.35	271.21
283.809	357.81
284.269	282.91
284.729	266.53
285.188	301.64
285.648	240.78
286.107	271.21
286.567	252.49
287.026	318.02
287.485	313.34
287.944	334.4
288.404	311
288.863	273.55
289.322	329.72
289.781	341.43
290.24	339.09
290.699	303.98
291.158	332.06
291.616	322.7
292.075	360.15
292.534	294.61
292.992	341.43
293.451	378.87
293.91	285.25
294.368	271.21
294.827	261.85
295.285	238.44
295.743	224.4
296.202	308.66
296.66	371.85
297.118	311
297.576	299.3
298.034	273.55
298.492	287.59
298.95	264.19
299.408	308.66
299.866	339.09
300.324	360.15
300.781	348.45
301.239	341.43
301.697	292.27
302.154	285.25
302.612	285.25
303.069	294.61
303.527	275.89
303.984	257.17
304.441	336.74
304.899	289.93
305.356	294.61
305.813	313.34
306.27	313.34
306.727	278.23
307.184	278.23
307.641	257.17
308.098	318.02
308.555	299.3
309.012	353.13
309.468	325.04
309.925	336.74
310.382	311
310.838	278.23
311.295	282.91
311.751	311
312.208	264.19
312.664	313.34
313.12	320.36
313.577	238.44
314.033	313.34
314.489	308.66
314.945	364.83
315.401	285.25
315.857	364.83
316.313	261.85
316.769	278.23
317.225	287.59
317.681	266.53
318.136	264.19
318.592	273.55
319.048	240.78
319.503	292.27
319.959	257.17
320.414	299.3
320.869	322.7
321.325	287.59
321.78	275.89
322.235	308.66
322.691	329.72
323.146	322.7
323.601	254.83
324.056	285.25
324.511	334.4
324.966	327.38
325.421	341.43
325.875	294.61
326.33	322.7
326.785	296.96
327.24	311
327.694	336.74
328.149	280.57
328.603	318.02
329.058	306.32
329.512	303.98
329.966	367.17
330.421	264.19
330.875	273.55
331.329	371.85
331.783	280.57
332.237	308.66
332.691	280.57
333.145	247.8
333.599	315.68
334.053	292.27
334.507	296.96
334.96	371.85
335.414	341.43
335.868	381.21
336.321	261.85
336.775	259.51
337.228	273.55
337.682	299.3
338.135	264.19
338.588	296.96
339.042	320.36
339.495	271.21
339.948	315.68
340.401	261.85
340.854	282.91
341.307	271.21
341.76	353.13
342.213	315.68
342.666	320.36
343.119	308.66
343.571	376.53
344.024	306.32
344.477	315.68
344.929	388.24
345.382	292.27
345.834	303.98
346.287	311
346.739	287.59
347.191	355.47
347.644	332.06
348.096	374.19
348.548	355.47
349	296.96
349.452	334.4
349.904	332.06
350.356	315.68
350.808	306.32
351.26	311
351.711	320.36
352.163	308.66
352.615	353.13
353.066	348.45
353.518	289.93
353.969	289.93
354.421	339.09
354.872	311
355.324	289.93
355.775	306.32
356.226	320.36
356.677	318.02
357.128	346.11
357.579	301.64
358.03	320.36
358.481	294.61
358.932	362.49
359.383	292.27
359.834	261.85
360.285	332.06
360.735	397.6
361.186	348.45
361.637	355.47
362.087	311
362.538	261.85
362.988	332.06
363.438	350.79
363.889	339.09
364.339	322.7
364.789	306.32
365.239	360.15
365.689	280.57
366.139	275.89
366.589	303.98
367.039	320.36
367.489	332.06
367.939	334.4
368.389	364.83
368.839	299.3
369.288	360.15
369.738	327.38
370.187	278.23
370.637	292.27
371.086	278.23
371.536	289.93
371.985	320.36
372.434	306.32
372.884	308.66
373.333	301.64
373.782	371.85
374.231	313.34
374.68	315.68
375.129	320.36
375.578	252.49
376.027	315.68
376.475	313.34
376.924	296.96
377.373	303.98
377.822	287.59
378.27	334.4
378.719	327.38
379.167	343.77
379.616	350.79
380.064	301.64
380.512	311
380.961	357.81
381.409	320.36
381.857	285.25
382.305	378.87
382.753	332.06
383.201	369.51
383.649	322.7
384.097	280.57
384.545	346.11
384.992	327.38
385.44	289.93
385.888	303.98
386.335	301.64
386.783	329.72
387.231	296.96
387.678	325.04
388.125	322.7
388.573	327.38
389.02	360.15
389.467	296.96
389.914	315.68
390.362	318.02
390.809	320.36
391.256	322.7
391.703	292.27
392.15	348.45
392.596	320.36
393.043	275.89
393.49	322.7
393.937	289.93
394.383	271.21
394.83	299.3
395.276	266.53
395.723	327.38
396.169	334.4
396.616	343.77
397.062	306.32
397.508	280.57
397.954	311
398.401	339.09
398.847	390.58
399.293	343.77
399.739	339.09
400.185	346.11
400.631	299.3
401.076	306.32
401.522	296.96
401.968	266.53
402.414	282.91
402.859	273.55
403.305	311
403.75	362.49
404.196	299.3
404.641	271.21
405.086	318.02
405.532	350.79
405.977	329.72
406.422	362.49
406.867	329.72
407.312	413.98
407.757	374.19
408.202	299.3
408.647	329.72
409.092	346.11
409.537	350.79
409.982	311
410.426	339.09
410.871	355.47
411.316	348.45
411.76	318.02
412.205	336.74
412.649	252.49
413.093	301.64
413.538	327.38
413.982	325.04
414.426	287.59
414.87	292.27
415.314	346.11
415.758	399.94
416.202	311
416.646	348.45
417.09	322.7
417.534	329.72
417.978	296.96
418.421	360.15
418.865	313.34
419.309	327.38
419.752	303.98
420.196	353.13
420.639	392.92
421.083	275.89
421.526	353.13
421.969	303.98
422.412	278.23
422.856	296.96
423.299	247.8
423.742	395.26
424.185	336.74
424.628	268.87
425.071	339.09
425.513	322.7
425.956	341.43
426.399	306.32
426.842	306.32
427.284	294.61
427.727	280.57
428.169	388.24
428.612	311
429.054	292.27
429.497	322.7
429.939	325.04
430.381	341.43
430.823	294.61
431.265	303.98
431.707	355.47
432.149	381.21
432.591	303.98
433.033	350.79
433.475	355.47
433.917	348.45
434.359	343.77
434.8	360.15
435.242	308.66
435.684	306.32
436.125	318.02
436.567	325.04
437.008	266.53
437.449	217.38
437.891	287.59
438.332	264.19
438.773	296.96
439.214	341.43
439.656	299.3
440.097	320.36
440.538	285.25
440.978	315.68
441.419	411.64
441.86	278.23
442.301	313.34
442.742	364.83
443.182	385.9
443.623	339.09
444.063	278.23
444.504	308.66
444.944	428.03
445.385	341.43
445.825	289.93
446.265	292.27
446.706	287.59
447.146	353.13
447.586	332.06
448.026	292.27
448.466	299.3
448.906	325.04
449.346	250.14
449.786	299.3
450.225	275.89
450.665	329.72
451.105	306.32
451.544	343.77
451.984	315.68
452.424	303.98
452.863	318.02
453.302	292.27
453.742	311
454.181	325.04
454.62	336.74
455.059	306.32
455.499	275.89
455.938	327.38
456.377	287.59
456.816	282.91
457.254	320.36
457.693	318.02
458.132	348.45
458.571	343.77
459.01	233.76
459.448	332.06
459.887	325.04
460.325	355.47
460.764	254.83
461.202	343.77
461.641	355.47
462.079	325.04
462.517	357.81
462.955	336.74
463.393	320.36
463.832	376.53
464.27	315.68
464.708	261.85
465.145	334.4
465.583	313.34
466.021	313.34
466.459	320.36
466.897	353.13
467.334	311
467.772	341.43
468.209	299.3
468.647	322.7
469.084	320.36
469.522	350.79
469.959	332.06
470.396	311
470.833	285.25
471.271	406.96
471.708	271.21
472.145	289.93
472.582	238.44
473.019	318.02
473.456	313.34
473.892	301.64
474.329	287.59
474.766	299.3
475.202	268.87
475.639	289.93
476.076	336.74
476.512	343.77
476.949	348.45
477.385	311
477.821	376.53
478.258	329.72
478.694	245.46
479.13	252.49
479.566	313.34
480.002	322.7
480.438	285.25
480.874	322.7
481.31	315.68
481.746	327.38
482.181	313.34
482.617	322.7
483.053	299.3
483.488	301.64
483.924	301.64
484.36	299.3
484.795	280.57
485.23	357.81
485.666	303.98
486.101	322.7
486.536	306.32
486.971	259.51
487.407	318.02
487.842	332.06
488.277	369.51
488.712	353.13
489.146	301.64
489.581	357.81
490.016	271.21
490.451	322.7
490.885	371.85
491.32	355.47
491.755	350.79
492.189	343.77
492.624	332.06
493.058	292.27
493.492	395.26
493.927	313.34
494.361	371.85
494.795	257.17
495.229	336.74
495.663	364.83
496.097	280.57
496.531	334.4
496.965	280.57
497.399	278.23
497.833	315.68
498.266	264.19
498.7	301.64
499.134	367.17
499.567	348.45
500.001	376.53
500.434	289.93
500.868	294.61
501.301	313.34
501.734	378.87
502.168	364.83
502.601	273.55
503.034	280.57
503.467	369.51
503.9	336.74
504.333	292.27
504.766	318.02
505.199	301.64
505.632	289.93
506.064	292.27
506.497	285.25
506.93	367.17
507.362	247.8
507.795	296.96
508.227	374.19
508.66	318.02
509.092	275.89
509.524	369.51
509.956	325.04
510.389	311
510.821	339.09
511.253	336.74
511.685	364.83
512.117	357.81
512.549	318.02
512.981	336.74
513.412	315.68
513.844	390.58
514.276	346.11
514.707	343.77
515.139	287.59
515.571	325.04
516.002	245.46
516.433	315.68
516.865	329.72
517.296	325.04
517.727	296.96
518.159	318.02
518.59	315.68
519.021	346.11
519.452	292.27
519.883	329.72
520.314	320.36
520.744	329.72
521.175	306.32
521.606	332.06
522.037	350.79
522.467	275.89
522.898	327.38
523.328	311
523.759	350.79
524.189	322.7
524.62	322.7
525.05	273.55
525.48	346.11
525.91	322.7
526.341	289.93
526.771	318.02
527.201	332.06
527.631	315.68
528.061	360.15
528.49	273.55
528.92	325.04
529.35	299.3
529.78	268.87
530.209	303.98
530.639	299.3
531.068	320.36
531.498	301.64
531.927	287.59
532.357	280.57
532.786	320.36
533.215	322.7
533.644	327.38
534.074	301.64
534.503	264.19
534.932	299.3
535.361	303.98
535.79	287.59
536.218	313.34
536.647	303.98
537.076	357.81
537.505	355.47
537.933	292.27
538.362	332.06
538.79	346.11
539.219	355.47
539.647	362.49
540.076	313.34
540.504	336.74
540.932	292.27
541.36	348.45
541.788	315.68
542.217	322.7
542.645	325.04
543.073	388.24
543.5	350.79
543.928	339.09
544.356	369.51
544.784	320.36
545.211	318.02
545.639	271.21
546.067	322.7
546.494	327.38
546.922	346.11
547.349	264.19
547.776	395.26
548.204	332.06
548.631	362.49
549.058	315.68
549.485	327.38
549.912	285.25
550.339	327.38
550.766	311
551.193	348.45
551.62	442.07
552.047	289.93
552.474	353.13
552.9	294.61
553.327	318.02
553.754	378.87
554.18	367.17
554.607	315.68
555.033	233.76
555.459	301.64
555.886	303.98
556.312	322.7
556.738	367.17
557.164	268.87
557.59	289.93
558.016	327.38
558.442	233.76
558.868	289.93
559.294	362.49
559.72	292.27
560.145	353.13
560.571	367.17
560.997	287.59
561.422	315.68
561.848	327.38
562.273	376.53
562.699	285.25
563.124	306.32
563.549	311
563.974	339.09
564.4	308.66
564.825	275.89
565.25	325.04
565.675	336.74
566.1	341.43
566.525	287.59
566.95	289.93
567.374	306.32
567.799	301.64
568.224	285.25
568.648	339.09
569.073	250.14
569.497	292.27
569.922	346.11
570.346	383.56
570.771	313.34
571.195	343.77
571.619	327.38
572.043	240.78
572.467	339.09
572.891	332.06
573.315	339.09
573.739	273.55
574.163	339.09
574.587	308.66
575.011	313.34
575.435	369.51
575.858	378.87
576.282	322.7
576.705	259.51
577.129	252.49
577.552	346.11
577.976	299.3
578.399	346.11
578.822	385.9
579.245	315.68
579.669	376.53
580.092	311
580.515	339.09
580.938	266.53
581.361	268.87
581.784	346.11
582.206	299.3
582.629	402.28
583.052	294.61
583.474	301.64
583.897	306.32
584.32	301.64
584.742	376.53
585.165	336.74
585.587	350.79
586.009	306.32
586.431	336.74
586.854	318.02
587.276	311
587.698	322.7
588.12	343.77
588.542	357.81
588.964	343.77
589.386	285.25
589.807	289.93
590.229	254.83
590.651	346.11
591.073	334.4
591.494	299.3
591.916	339.09
592.337	346.11
592.759	343.77
593.18	329.72
593.601	301.64
594.022	350.79
594.444	320.36
594.865	311
595.286	383.56
595.707	332.06
596.128	374.19
596.549	336.74
596.97	327.38
597.39	320.36
597.811	388.24
598.232	287.59
598.652	325.04
599.073	371.85
599.494	318.02
599.914	299.3
600.334	339.09
600.755	390.58
601.175	353.13
601.595	292.27
602.015	329.72
602.436	285.25
602.856	390.58
603.276	268.87
603.696	322.7
604.115	275.89
604.535	346.11
604.955	339.09
605.375	287.59
605.794	313.34
606.214	299.3
606.634	278.23
607.053	374.19
607.473	329.72
607.892	411.64
608.311	334.4
608.731	357.81
609.15	301.64
609.569	392.92
609.988	376.53
610.407	339.09
610.826	350.79
611.245	327.38
611.664	343.77
612.083	327.38
612.501	289.93
612.92	285.25
613.339	306.32
613.757	357.81
614.176	311
614.594	259.51
615.013	327.38
615.431	334.4
615.85	369.51
616.268	336.74
616.686	250.14
617.104	264.19
617.522	339.09
617.94	303.98
618.358	334.4
618.776	357.81
619.194	378.87
619.612	341.43
620.03	327.38
620.447	353.13
620.865	336.74
621.282	346.11
621.7	313.34
622.117	334.4
622.535	254.83
622.952	334.4
623.369	282.91
623.787	350.79
624.204	437.39
624.621	355.47
625.038	287.59
625.455	369.51
625.872	350.79
626.289	245.46
626.706	315.68
627.123	259.51
627.539	346.11
627.956	388.24
628.373	341.43
628.789	268.87
629.206	334.4
629.622	334.4
630.038	299.3
630.455	341.43
630.871	381.21
631.287	254.83
631.703	334.4
632.12	334.4
632.536	383.56
632.952	292.27
633.368	341.43
633.783	325.04
634.199	362.49
634.615	315.68
635.031	336.74
635.446	308.66
635.862	268.87
636.277	278.23
636.693	278.23
637.108	325.04
637.524	371.85
637.939	301.64
638.354	325.04
638.77	315.68
639.185	329.72
639.6	334.4
640.015	341.43
640.43	296.96
640.845	362.49
641.259	303.98
641.674	334.4
642.089	318.02
642.504	353.13
642.918	301.64
643.333	318.02
643.747	268.87
644.162	301.64
644.576	282.91
644.991	369.51
645.405	273.55
645.819	264.19
646.233	322.7
646.647	303.98
647.061	299.3
647.475	294.61
647.889	285.25
648.303	285.25
648.717	285.25
649.131	334.4
649.545	336.74
649.958	322.7
650.372	360.15
650.785	275.89
651.199	226.74
651.612	278.23
652.026	318.02
652.439	397.6
652.852	303.98
653.266	341.43
653.679	259.51
654.092	390.58
654.505	303.98
654.918	294.61
655.331	350.79
655.744	292.27
656.156	371.85
656.569	341.43
656.982	369.51
657.394	308.66
657.807	303.98
658.22	315.68
658.632	252.49
659.044	378.87
659.457	296.96
659.869	308.66
660.281	348.45
660.693	334.4
661.106	327.38
661.518	376.53
661.93	381.21
662.342	318.02
662.754	325.04
663.165	334.4
663.577	350.79
663.989	381.21
664.401	371.85
664.812	329.72
665.224	315.68
665.635	350.79
666.047	301.64
666.458	311
666.869	303.98
667.281	325.04
667.692	322.7
668.103	303.98
668.514	303.98
668.925	322.7
669.336	226.74
669.747	322.7
670.158	313.34
670.569	350.79
670.979	332.06
671.39	350.79
671.801	299.3
672.211	294.61
672.622	336.74
673.032	341.43
673.443	388.24
673.853	282.91
674.263	303.98
674.674	334.4
675.084	322.7
675.494	289.93
675.904	350.79
676.314	318.02
676.724	339.09
677.134	360.15
677.544	306.32
677.953	313.34
678.363	292.27
678.773	350.79
679.182	360.15
679.592	320.36
680.001	322.7
680.411	313.34
680.82	318.02
681.23	360.15
681.639	243.12
682.048	308.66
682.457	275.89
682.866	371.85
683.275	313.34
683.684	371.85
684.093	311
684.502	327.38
684.911	287.59
685.32	364.83
685.728	353.13
686.137	266.53
686.546	329.72
686.954	236.1
687.363	348.45
687.771	325.04
688.179	332.06
688.588	350.79
688.996	378.87
689.404	303.98
689.812	287.59
690.22	322.7
690.628	289.93
691.036	322.7
691.444	285.25
691.852	273.55
692.26	318.02
692.667	353.13
693.075	327.38
693.483	308.66
693.89	341.43
694.298	353.13
694.705	320.36
695.112	325.04
695.52	325.04
695.927	327.38
696.334	348.45
696.741	364.83
697.148	311
697.555	273.55
697.962	306.32
698.369	303.98
698.776	343.77
699.183	322.7
699.59	346.11
699.996	259.51
700.403	294.61
700.81	353.13
701.216	233.76
701.623	306.32
702.029	325.04
702.435	350.79
702.842	250.14
703.248	282.91
703.654	334.4
704.06	296.96
704.466	266.53
704.872	315.68
705.278	308.66
705.684	385.9
706.09	334.4
706.496	341.43
706.901	367.17
707.307	292.27
707.712	289.93
708.118	268.87
708.523	308.66
708.929	313.34
709.334	332.06
709.74	329.72
710.145	339.09
710.55	268.87
710.955	313.34
711.36	280.57
711.765	285.25
712.17	280.57
712.575	334.4
712.98	772.08
713.385	348.45
713.789	341.43
714.194	292.27
714.599	264.19
715.003	266.53
715.408	374.19
715.812	285.25
716.217	327.38
716.621	327.38
717.025	336.74
717.429	334.4
717.833	318.02
718.238	325.04
718.642	362.49
719.046	208.02
719.449	278.23
719.853	301.64
720.257	250.14
720.661	287.59
721.065	364.83
721.468	292.27
721.872	285.25
722.275	325.04
722.679	334.4
723.082	320.36
723.485	332.06
723.889	341.43
724.292	334.4
724.695	311
725.098	308.66
725.501	350.79
725.904	271.21
726.307	339.09
726.71	378.87
727.113	292.27
727.516	275.89
727.918	343.77
728.321	341.43
728.724	318.02
729.126	289.93
729.529	294.61
729.931	381.21
730.333	355.47
730.736	268.87
731.138	357.81
731.54	346.11
731.942	311
732.344	315.68
732.746	362.49
733.148	289.93
733.55	348.45
733.952	327.38
734.354	315.68
734.756	287.59
735.157	306.32
735.559	303.98
735.96	325.04
736.362	339.09
736.763	306.32
737.165	395.26
737.566	327.38
737.967	339.09
738.368	341.43
738.77	264.19
739.171	350.79
739.572	353.13
739.973	364.83
740.374	303.98
740.774	327.38
741.175	355.47
741.576	311
741.977	334.4
742.377	289.93
742.778	282.91
743.178	273.55
743.579	327.38
743.979	282.91
744.379	334.4
744.78	294.61
745.18	299.3
745.58	353.13
745.98	327.38
746.38	334.4
746.78	355.47
747.18	282.91
747.58	296.96
747.98	245.46
748.38	287.59
748.779	353.13
749.179	294.61
749.578	282.91
749.978	350.79
750.377	311
750.777	282.91
751.176	294.61
751.575	322.7
751.975	308.66
752.374	219.72
752.773	275.89
753.172	299.3
753.571	308.66
753.97	343.77
754.369	332.06
754.768	346.11
755.166	301.64
755.565	329.72
755.964	315.68
756.362	332.06
756.761	287.59
757.159	327.38
757.558	341.43
757.956	329.72
758.354	252.49
758.753	306.32
759.151	273.55
759.549	303.98
759.947	341.43
760.345	329.72
760.743	287.59
761.141	275.89
761.539	332.06
761.936	332.06
762.334	336.74
762.732	315.68
763.129	299.3
763.527	294.61
763.924	289.93
764.322	320.36
764.719	292.27
765.117	339.09
765.514	346.11
765.911	348.45
766.308	397.6
766.705	327.38
767.102	275.89
767.499	343.77
767.896	388.24
