Data from Al_FLMS009871__908__16-18-08-523.txt Node

Date: Fri Mar 08 16:18:08 CST 2024
User: pe5414po
Spectrometer: FLMS00987
Trigger mode: 0
Integration Time (sec): 1.000000E-1
Scans to average: 1
Electric dark correction enabled: true
Nonlinearity correction enabled: false
Boxcar width: 0
XAxis mode: Wavelengths
Number of Pixels in Spectrum: 2048
>>>>>Begin Spectral Data<<<<<
188.938	-59.54
189.409	-59.54
189.879	-59.54
190.349	-139.12
190.819	-66.56
191.29	-92.3
191.76	-59.54
192.23	-92.3
192.7	-61.88
193.17	-92.3
193.64	-43.15
194.109	-54.86
194.579	13.02
195.049	-66.56
195.519	50.47
195.988	27.06
196.458	8.34
196.927	139.41
197.397	160.47
197.866	97.28
198.336	66.85
198.805	146.43
199.274	183.88
199.744	190.9
200.213	195.58
200.682	289.2
201.151	254.09
201.62	343.03
202.089	326.65
202.558	343.03
203.027	366.44
203.495	364.1
203.964	385.16
204.433	394.53
204.902	375.8
205.37	382.82
205.839	441.34
206.307	429.63
206.776	434.32
207.244	485.81
207.712	455.38
208.181	485.81
208.649	539.64
209.117	457.72
209.585	511.55
210.053	581.77
210.521	619.22
210.989	488.15
211.457	675.39
211.925	703.48
212.393	743.27
212.861	738.59
213.328	673.05
213.796	621.56
214.264	570.07
214.731	565.39
215.199	530.28
215.666	558.36
216.133	565.39
216.601	680.07
217.068	747.95
217.535	970.3
218.003	1040.51
218.47	1178.61
218.937	1096.69
219.404	918.81
219.871	956.26
220.338	1047.54
220.805	979.66
221.271	804.12
221.738	687.09
222.205	771.35
222.671	815.82
223.138	895.4
223.605	1026.47
224.071	1014.77
224.538	818.16
225.004	785.4
225.47	876.68
225.937	1012.43
226.403	1080.3
226.869	930.51
227.335	666.03
227.801	558.36
228.267	616.88
228.733	518.57
229.199	513.89
229.665	509.21
230.131	595.81
230.597	577.09
231.062	616.88
231.528	558.36
231.994	560.7
232.459	483.47
232.925	464.74
233.39	417.93
233.856	483.47
234.321	516.23
234.786	633.26
235.252	1021.79
235.717	1560.11
236.182	2145.25
236.647	2367.6
237.112	1794.17
237.577	1192.65
238.042	792.42
238.507	654.33
238.972	666.03
239.436	581.77
239.901	570.07
240.366	539.64
240.83	591.13
241.295	570.07
241.76	565.39
242.224	497.51
242.688	478.79
243.153	509.21
243.617	469.42
244.081	471.76
244.545	485.81
245.01	490.49
245.474	504.53
245.938	532.62
246.402	551.34
246.866	661.35
247.33	687.09
247.793	581.77
248.257	534.96
248.721	497.51
249.185	506.87
249.648	523.26
250.112	518.57
250.575	579.43
251.039	574.75
251.502	640.28
251.965	651.99
252.429	584.11
252.892	595.81
253.355	621.56
253.818	556.02
254.281	534.96
254.744	616.88
255.207	684.75
255.67	972.64
256.133	1295.63
256.596	1740.33
257.059	1948.64
257.522	1721.61
257.984	1101.37
258.447	953.91
258.909	909.44
259.372	893.06
259.834	811.14
260.297	853.27
260.759	811.14
261.221	804.12
261.684	1061.58
262.146	1508.62
262.608	1838.64
263.07	1672.46
263.532	1269.89
263.994	846.25
264.456	935.19
264.918	1075.62
265.38	1134.14
265.842	942.21
266.303	794.76
266.765	717.52
267.227	623.9
267.688	532.62
268.15	572.41
268.611	502.19
269.072	530.28
269.534	558.36
269.995	544.32
270.456	593.47
270.918	586.45
271.379	544.32
271.84	497.51
272.301	513.89
272.762	532.62
273.223	539.64
273.684	588.79
274.144	556.02
274.605	591.13
275.066	675.39
275.527	656.67
275.987	712.84
276.448	696.46
276.908	738.59
277.369	911.78
277.829	1379.89
278.289	2816.98
278.75	5134.11
279.21	6985.48
279.67	6805.25
280.13	5082.62
280.59	3526.16
281.05	2877.83
281.51	2522.07
281.97	1620.97
282.43	825.19
282.89	633.26
283.35	598.15
283.809	677.73
284.269	841.57
284.729	1000.73
285.188	895.4
285.648	703.48
286.107	565.39
286.567	544.32
287.026	633.26
287.485	600.49
287.944	602.83
288.404	584.11
288.863	640.28
289.322	637.94
289.781	659.01
290.24	644.96
290.699	644.96
291.158	663.69
291.616	701.14
292.075	701.14
292.534	806.46
292.992	923.49
293.451	932.85
293.91	843.91
294.368	722.2
294.827	677.73
295.285	558.36
295.743	520.92
296.202	467.08
296.66	457.72
297.118	485.81
297.576	478.79
298.034	441.34
298.492	511.55
298.95	403.89
299.408	488.15
299.866	434.32
300.324	448.36
300.781	474.1
301.239	457.72
301.697	453.04
302.154	406.23
302.612	408.57
303.069	469.42
303.527	628.58
303.984	546.66
304.441	682.41
304.899	698.8
305.356	766.67
305.813	841.57
306.27	822.84
306.727	1115.41
307.184	1686.5
307.641	2983.16
308.098	4275.13
308.555	5431.36
309.012	5461.79
309.468	4703.45
309.925	2383.98
310.382	970.3
310.838	616.88
311.295	495.17
311.751	467.08
312.208	530.28
312.664	544.32
313.12	544.32
313.577	431.98
314.033	446.02
314.489	567.73
314.945	523.26
315.401	598.15
315.857	518.57
316.313	516.23
316.769	502.19
317.225	417.93
317.681	469.42
318.136	410.91
318.592	490.49
319.048	399.21
319.503	361.76
319.959	345.38
320.414	455.38
320.869	420.27
321.325	450.7
321.78	450.7
322.235	413.25
322.691	408.57
323.146	474.1
323.601	439
324.056	644.96
324.511	850.93
324.966	876.68
325.421	750.29
325.875	577.09
326.33	595.81
326.785	591.13
327.24	764.33
327.694	874.34
328.149	703.48
328.603	549
329.058	467.08
329.512	422.61
329.966	382.82
330.421	359.42
330.875	516.23
331.329	464.74
331.783	504.53
332.237	502.19
332.691	570.07
333.145	495.17
333.599	549
334.053	469.42
334.507	656.67
334.96	619.22
335.414	614.54
335.868	656.67
336.321	621.56
336.775	724.54
337.228	677.73
337.682	642.62
338.135	584.11
338.588	565.39
339.042	532.62
339.495	415.59
339.948	450.7
340.401	439
340.854	490.49
341.307	497.51
341.76	457.72
342.213	448.36
342.666	431.98
343.119	434.32
343.571	509.21
344.024	549
344.477	539.64
344.929	532.62
345.382	560.7
345.834	556.02
346.287	506.87
346.739	427.29
347.191	469.42
347.644	483.47
348.096	415.59
348.548	453.04
349	431.98
349.452	574.75
349.904	488.15
350.356	518.57
350.808	565.39
351.26	574.75
351.711	574.75
352.163	551.34
352.615	574.75
353.066	579.43
353.518	551.34
353.969	513.89
354.421	502.19
354.872	560.7
355.324	591.13
355.775	577.09
356.226	614.54
356.677	815.82
357.128	1143.5
357.579	1450.11
358.03	2430.79
358.481	3942.78
358.932	4520.89
359.383	3467.65
359.834	2678.89
360.285	2678.89
360.735	2428.45
361.186	1883.11
361.637	1501.6
362.087	991.36
362.538	621.56
362.988	467.08
363.438	499.85
363.889	579.43
364.339	525.6
364.789	527.94
365.239	558.36
365.689	481.13
366.139	488.15
366.589	490.49
367.039	467.08
367.489	450.7
367.939	570.07
368.389	565.39
368.839	565.39
369.288	605.17
369.738	593.47
370.187	708.16
370.637	883.7
371.086	864.97
371.536	909.44
371.985	888.38
372.434	656.67
372.884	570.07
373.333	541.98
373.782	485.81
374.231	530.28
374.68	518.57
375.129	478.79
375.578	488.15
376.027	431.98
376.475	511.55
376.924	448.36
377.373	471.76
377.822	467.08
378.27	467.08
378.719	469.42
379.167	488.15
379.616	434.32
380.064	549
380.512	539.64
380.961	518.57
381.409	551.34
381.857	560.7
382.305	637.94
382.753	717.52
383.201	808.8
383.649	867.31
384.097	787.74
384.545	710.5
384.992	623.9
385.44	579.43
385.888	694.12
386.335	616.88
386.783	623.9
387.231	563.05
387.678	553.68
388.125	687.09
388.573	619.22
389.02	511.55
389.467	495.17
389.914	551.34
390.362	513.89
390.809	537.3
391.256	563.05
391.703	544.32
392.15	591.13
392.596	619.22
393.043	785.4
393.49	1187.97
393.937	2264.61
394.383	3781.28
394.83	4740.9
395.276	3732.13
395.723	3469.99
396.169	5431.36
396.616	5768.4
397.062	3458.29
397.508	1307.34
397.954	764.33
398.401	574.75
398.847	513.89
399.293	570.07
399.739	689.43
400.185	647.3
400.631	551.34
401.076	436.66
401.522	474.1
401.968	488.15
402.414	527.94
402.859	614.54
403.305	651.99
403.75	651.99
404.196	649.64
404.641	616.88
405.086	553.68
405.532	581.77
405.977	675.39
406.422	841.57
406.867	661.35
407.312	635.6
407.757	607.52
408.202	584.11
408.647	600.49
409.092	572.41
409.537	464.74
409.982	577.09
410.426	574.75
410.871	621.56
411.316	551.34
411.76	642.62
412.205	595.81
412.649	612.2
413.093	682.41
413.538	680.07
413.982	754.97
414.426	694.12
414.87	747.95
415.314	825.19
415.758	914.13
416.202	904.76
416.646	766.67
417.09	764.33
417.534	621.56
417.978	764.33
418.421	661.35
418.865	595.81
419.309	539.64
419.752	523.26
420.196	506.87
420.639	511.55
421.083	525.6
421.526	455.38
421.969	446.02
422.412	532.62
422.856	478.79
423.299	527.94
423.742	567.73
424.185	539.64
424.628	572.41
425.071	616.88
425.513	504.53
425.956	469.42
426.399	539.64
426.842	462.4
427.284	567.73
427.727	544.32
428.169	499.85
428.612	511.55
429.054	471.76
429.497	394.53
429.939	439
430.381	462.4
430.823	483.47
431.265	420.27
431.707	443.68
432.149	427.29
432.591	457.72
433.033	474.1
433.475	460.06
433.917	485.81
434.359	469.42
434.8	525.6
435.242	544.32
435.684	565.39
436.125	488.15
436.567	457.72
437.008	476.45
437.449	457.72
437.891	471.76
438.332	406.23
438.773	497.51
439.214	478.79
439.656	441.34
440.097	434.32
440.538	448.36
440.978	424.95
441.419	471.76
441.86	499.85
442.301	556.02
442.742	446.02
443.182	570.07
443.623	556.02
444.063	598.15
444.504	584.11
444.944	567.73
445.385	694.12
445.825	649.64
446.265	726.88
446.706	963.28
447.146	998.38
447.586	1216.05
448.026	1487.56
448.466	1747.36
448.906	1546.07
449.346	1162.22
449.786	928.17
450.225	904.76
450.665	928.17
451.105	996.04
451.544	1459.47
451.984	1585.86
452.424	1485.22
452.863	1581.18
453.302	2044.6
453.742	2060.99
454.181	1412.66
454.62	923.49
455.059	661.35
455.499	649.64
455.938	565.39
456.377	549
456.816	436.66
457.254	516.23
457.693	415.59
458.132	518.57
458.571	558.36
459.01	483.47
459.448	448.36
459.887	457.72
460.325	499.85
460.764	497.51
461.202	553.68
461.641	563.05
462.079	586.45
462.517	565.39
462.955	556.02
463.393	570.07
463.832	565.39
464.27	558.36
464.708	579.43
465.145	644.96
465.583	586.45
466.021	584.11
466.459	829.87
466.897	1049.88
467.334	923.49
467.772	623.9
468.209	541.98
468.647	483.47
469.084	495.17
469.522	506.87
469.959	455.38
470.396	558.36
470.833	483.47
471.271	506.87
471.708	504.53
472.145	403.89
472.582	488.15
473.019	544.32
473.456	415.59
473.892	464.74
474.329	481.13
474.766	448.36
475.202	453.04
475.639	410.91
476.076	431.98
476.512	495.17
476.949	380.48
477.385	471.76
477.821	474.1
478.258	490.49
478.694	460.06
479.13	464.74
479.566	499.85
480.002	506.87
480.438	495.17
480.874	495.17
481.31	516.23
481.746	485.81
482.181	537.3
482.617	483.47
483.053	403.89
483.488	448.36
483.924	478.79
484.36	467.08
484.795	539.64
485.23	607.52
485.666	567.73
486.101	682.41
486.536	619.22
486.971	694.12
487.407	694.12
487.842	567.73
488.277	591.13
488.712	509.21
489.146	546.66
489.581	527.94
490.016	563.05
490.451	523.26
490.885	462.4
491.32	509.21
491.755	439
492.189	523.26
492.624	474.1
493.058	476.45
493.492	485.81
493.927	520.92
494.361	525.6
494.795	399.21
495.229	460.06
495.663	460.06
496.097	408.57
496.531	439
496.965	483.47
497.399	485.81
497.833	453.04
498.266	422.61
498.7	530.28
499.134	460.06
499.567	553.68
500.001	719.86
500.434	790.08
500.868	965.62
501.301	883.7
501.734	691.77
502.168	595.81
502.601	556.02
503.034	556.02
503.467	509.21
503.9	483.47
504.333	516.23
504.766	429.63
505.199	490.49
505.632	490.49
506.064	539.64
506.497	532.62
506.93	563.05
507.362	532.62
507.795	532.62
508.227	525.6
508.66	450.7
509.092	490.49
509.524	525.6
509.956	460.06
510.389	518.57
510.821	495.17
511.253	485.81
511.685	588.79
512.117	499.85
512.549	504.53
512.981	502.19
513.412	539.64
513.844	516.23
514.276	570.07
514.707	549
515.139	525.6
515.571	609.86
516.002	551.34
516.433	703.48
516.865	666.03
517.296	630.92
517.727	705.82
518.159	726.88
518.59	729.22
519.021	724.54
519.452	687.09
519.883	649.64
520.314	595.81
520.744	492.83
521.175	588.79
521.606	532.62
522.037	612.2
522.467	628.58
522.898	605.17
523.328	558.36
523.759	544.32
524.189	556.02
524.62	556.02
525.05	577.09
525.48	572.41
525.91	649.64
526.341	659.01
526.771	710.5
527.201	666.03
527.631	747.95
528.061	785.4
528.49	808.8
528.92	998.38
529.35	1253.5
529.78	2749.11
530.209	13272.15
530.639	31802.18
531.068	48010.39
531.498	63024.92
531.927	63024.92
532.357	63024.92
532.786	63024.92
533.215	63024.92
533.644	32820.31
534.074	11811.66
534.503	4820.48
534.932	2501.01
535.361	1454.79
535.79	1017.11
536.218	867.31
536.647	750.29
537.076	635.6
537.505	621.56
537.933	553.68
538.362	656.67
538.79	602.83
539.219	623.9
539.647	415.59
540.076	499.85
540.504	439
540.932	424.95
541.36	431.98
541.788	434.32
542.217	602.83
542.645	446.02
543.073	457.72
543.5	424.95
543.928	439
544.356	420.27
544.784	474.1
545.211	469.42
545.639	476.45
546.067	497.51
546.494	431.98
546.922	483.47
547.349	462.4
547.776	427.29
548.204	490.49
548.631	457.72
549.058	328.99
549.485	406.23
549.912	422.61
550.339	396.87
550.766	413.25
551.193	448.36
551.62	434.32
552.047	495.17
552.474	448.36
552.9	499.85
553.327	422.61
553.754	406.23
554.18	474.1
554.607	464.74
555.033	424.95
555.459	439
555.886	415.59
556.312	478.79
556.738	478.79
557.164	382.82
557.59	427.29
558.016	392.19
558.442	457.72
558.868	499.85
559.294	586.45
559.72	637.94
560.145	703.48
560.571	623.9
560.997	499.85
561.422	455.38
561.848	424.95
562.273	415.59
562.699	389.85
563.124	439
563.549	455.38
563.974	410.91
564.4	350.06
564.825	413.25
565.25	455.38
565.675	431.98
566.1	446.02
566.525	467.08
566.95	495.17
567.374	520.92
567.799	574.75
568.224	651.99
568.648	740.93
569.073	773.69
569.497	900.08
569.922	1202.01
570.346	1695.86
570.771	1571.82
571.195	951.57
571.619	659.01
572.043	668.37
572.467	747.95
572.891	970.3
573.315	956.26
573.739	691.77
574.163	476.45
574.587	403.89
575.011	403.89
575.435	410.91
575.858	422.61
576.282	371.12
576.705	368.78
577.129	336.01
577.552	431.98
577.976	420.27
578.399	361.76
578.822	410.91
579.245	347.72
579.669	410.91
580.092	389.85
580.515	389.85
580.938	385.16
581.361	382.82
581.784	347.72
582.206	427.29
582.629	357.08
583.052	293.88
583.474	375.8
583.897	396.87
584.32	361.76
584.742	406.23
585.165	396.87
585.587	373.46
586.009	401.55
586.431	352.4
586.854	382.82
587.276	420.27
587.698	347.72
588.12	333.67
588.542	380.48
588.964	441.34
589.386	441.34
589.807	504.53
590.229	436.66
590.651	478.79
591.073	439
591.494	439
591.916	427.29
592.337	357.08
592.759	392.19
593.18	460.06
593.601	399.21
594.022	431.98
594.444	453.04
594.865	366.44
595.286	457.72
595.707	399.21
596.128	378.14
596.549	340.69
596.97	373.46
597.39	441.34
597.811	431.98
598.232	378.14
598.652	345.38
599.073	347.72
599.494	373.46
599.914	378.14
600.334	368.78
600.755	403.89
601.175	401.55
601.595	380.48
602.015	359.42
602.436	364.1
602.856	541.98
603.276	408.57
603.696	338.35
604.115	382.82
604.535	417.93
604.955	380.48
605.375	431.98
605.794	336.01
606.214	403.89
606.634	394.53
607.053	347.72
607.473	326.65
607.892	380.48
608.311	368.78
608.731	392.19
609.15	373.46
609.569	366.44
609.988	371.12
610.407	382.82
610.826	427.29
611.245	413.25
611.664	424.95
612.083	375.8
612.501	324.31
612.92	399.21
613.339	396.87
613.757	406.23
614.176	420.27
614.594	380.48
615.013	385.16
615.431	373.46
615.85	396.87
616.268	399.21
616.686	436.66
617.104	392.19
617.522	347.72
617.94	396.87
618.358	422.61
618.776	357.08
619.194	394.53
619.612	396.87
620.03	392.19
620.447	317.29
620.865	392.19
621.282	336.01
621.7	401.55
622.117	483.47
622.535	525.6
622.952	464.74
623.369	675.39
623.787	839.23
624.204	984.34
624.621	874.34
625.038	914.13
625.455	935.19
625.872	731.56
626.289	616.88
626.706	439
627.123	474.1
627.539	427.29
627.956	331.33
628.373	357.08
628.789	394.53
629.206	324.31
629.622	399.21
630.038	410.91
630.455	368.78
630.871	303.25
631.287	347.72
631.703	352.4
632.12	310.27
632.536	373.46
632.952	364.1
633.368	382.82
633.783	403.89
634.199	368.78
634.615	389.85
635.031	422.61
635.446	375.8
635.862	359.42
636.277	467.08
636.693	347.72
637.108	364.1
637.524	420.27
637.939	410.91
638.354	371.12
638.77	345.38
639.185	361.76
639.6	324.31
640.015	333.67
640.43	314.95
640.845	380.48
641.259	422.61
641.674	333.67
642.089	347.72
642.504	333.67
642.918	361.76
643.333	364.1
643.747	282.18
644.162	350.06
644.576	375.8
644.991	380.48
645.405	352.4
645.819	387.5
646.233	354.74
646.647	368.78
647.061	380.48
647.475	366.44
647.889	378.14
648.303	338.35
648.717	396.87
649.131	385.16
649.545	396.87
649.958	359.42
650.372	354.74
650.785	340.69
651.199	336.01
651.612	345.38
652.026	396.87
652.439	314.95
652.852	382.82
653.266	399.21
653.679	417.93
654.092	382.82
654.505	399.21
654.918	478.79
655.331	488.15
655.744	577.09
656.156	651.99
656.569	801.78
656.982	1014.77
657.394	888.38
657.807	609.86
658.22	525.6
658.632	460.06
659.044	396.87
659.457	427.29
659.869	359.42
660.281	373.46
660.693	340.69
661.106	424.95
661.518	403.89
661.93	368.78
662.342	380.48
662.754	453.04
663.165	265.8
663.577	350.06
663.989	364.1
664.401	389.85
664.812	359.42
665.224	345.38
665.635	392.19
666.047	305.59
666.458	338.35
666.869	410.91
667.281	394.53
667.692	380.48
668.103	319.63
668.514	336.01
668.925	394.53
669.336	336.01
669.747	371.12
670.158	378.14
670.569	417.93
670.979	331.33
671.39	314.95
671.801	366.44
672.211	396.87
672.622	296.22
673.032	373.46
673.443	296.22
673.853	350.06
674.263	331.33
674.674	338.35
675.084	380.48
675.494	352.4
675.904	378.14
676.314	345.38
676.724	279.84
677.134	389.85
677.544	314.95
677.953	336.01
678.363	314.95
678.773	366.44
679.182	338.35
679.592	375.8
680.001	371.12
680.411	333.67
680.82	354.74
681.23	350.06
681.639	321.97
682.048	380.48
682.457	399.21
682.866	427.29
683.275	401.55
683.684	354.74
684.093	371.12
684.502	314.95
684.911	450.7
685.32	319.63
685.728	357.08
686.137	296.22
686.546	282.18
686.954	275.16
687.363	284.52
687.771	382.82
688.179	296.22
688.588	345.38
688.996	373.46
689.404	317.29
689.812	343.03
690.22	305.59
690.628	258.78
691.036	319.63
691.444	352.4
691.852	296.22
692.26	347.72
692.667	328.99
693.075	368.78
693.483	328.99
693.89	343.03
694.298	345.38
694.705	354.74
695.112	364.1
695.52	312.61
695.927	282.18
696.334	333.67
696.741	314.95
697.148	333.67
697.555	364.1
697.962	350.06
698.369	357.08
698.776	291.54
699.183	357.08
699.59	357.08
699.996	345.38
700.403	284.52
700.81	340.69
701.216	312.61
701.623	326.65
702.029	324.31
702.435	350.06
702.842	382.82
703.248	364.1
703.654	324.31
704.06	394.53
704.466	570.07
704.872	623.9
705.278	516.23
705.684	464.74
706.09	560.7
706.496	506.87
706.901	492.83
707.307	382.82
707.712	314.95
708.118	357.08
708.523	359.42
708.929	389.85
709.334	394.53
709.74	319.63
710.145	317.29
710.55	336.01
710.955	268.14
711.36	331.33
711.765	293.88
712.17	300.91
712.575	324.31
712.98	820.5
713.385	359.42
713.789	321.97
714.194	284.52
714.599	375.8
715.003	385.16
715.408	387.5
715.812	350.06
716.217	303.25
716.621	364.1
717.025	354.74
717.429	345.38
717.833	378.14
718.238	331.33
718.642	235.37
719.046	319.63
719.449	343.03
719.853	326.65
720.257	373.46
720.661	373.46
721.065	364.1
721.468	314.95
721.872	361.76
722.275	338.35
722.679	296.22
723.082	352.4
723.485	347.72
723.889	366.44
724.292	331.33
724.695	375.8
725.098	338.35
725.501	354.74
725.904	345.38
726.307	326.65
726.71	364.1
727.113	298.56
727.516	333.67
727.918	338.35
728.321	324.31
728.724	417.93
729.126	305.59
729.529	338.35
729.931	256.43
730.333	347.72
730.736	282.18
731.138	296.22
731.54	275.16
731.942	378.14
732.344	321.97
732.746	307.93
733.148	333.67
733.55	247.07
733.952	237.71
734.354	289.2
734.756	314.95
735.157	371.12
735.559	340.69
735.96	340.69
736.362	291.54
736.763	389.85
737.165	338.35
737.566	321.97
737.967	345.38
738.368	345.38
738.77	352.4
739.171	326.65
739.572	303.25
739.973	296.22
740.374	282.18
740.774	328.99
741.175	361.76
741.576	307.93
741.977	361.76
742.377	387.5
742.778	270.48
743.178	375.8
743.579	371.12
743.979	333.67
744.379	298.56
744.78	380.48
745.18	326.65
745.58	324.31
745.98	282.18
746.38	375.8
746.78	422.61
747.18	389.85
747.58	380.48
747.98	368.78
748.38	373.46
748.779	359.42
749.179	389.85
749.578	347.72
749.978	340.69
750.377	333.67
750.777	354.74
751.176	333.67
751.575	284.52
751.975	307.93
752.374	314.95
752.773	347.72
753.172	296.22
753.571	359.42
753.97	347.72
754.369	282.18
754.768	345.38
755.166	305.59
755.565	345.38
755.964	336.01
756.362	345.38
756.761	272.82
757.159	328.99
757.558	296.22
757.956	399.21
758.354	314.95
758.753	340.69
759.151	265.8
759.549	314.95
759.947	324.31
760.345	371.12
760.743	265.8
761.141	340.69
761.539	319.63
761.936	366.44
762.334	408.57
762.732	293.88
763.129	289.2
