Data from Al_FLMS009871__915__16-18-09-223.txt Node

Date: Fri Mar 08 16:18:09 CST 2024
User: pe5414po
Spectrometer: FLMS00987
Trigger mode: 0
Integration Time (sec): 1.000000E-1
Scans to average: 1
Electric dark correction enabled: true
Nonlinearity correction enabled: false
Boxcar width: 0
XAxis mode: Wavelengths
Number of Pixels in Spectrum: 2048
>>>>>Begin Spectral Data<<<<<
188.938	-21.65
189.409	-21.65
189.879	-21.65
190.349	-87.18
190.819	-63.78
191.29	-145.7
191.76	-77.82
192.23	-7.61
192.7	-103.57
193.17	-68.46
193.64	-82.5
194.109	-70.8
194.579	-16.97
195.049	13.46
195.519	55.59
195.988	48.57
196.458	67.29
196.927	160.91
197.397	15.8
197.866	93.04
198.336	118.78
198.805	146.87
199.274	100.06
199.744	167.93
200.213	186.66
200.682	252.19
201.151	158.57
201.62	224.11
202.089	233.47
202.558	158.57
203.027	210.06
203.495	299
203.964	224.11
204.433	219.43
204.902	387.94
205.37	296.66
205.839	350.5
206.307	289.64
206.776	306.03
207.244	329.43
207.712	228.79
208.181	310.71
208.649	341.13
209.117	289.64
209.585	306.03
210.053	324.75
210.521	296.66
210.989	334.11
211.457	261.55
211.925	317.73
212.393	336.45
212.861	224.11
213.328	256.87
213.796	280.28
214.264	261.55
214.731	261.55
215.199	313.05
215.666	193.68
216.133	261.55
216.601	238.15
217.068	242.83
217.535	296.66
218.003	266.24
218.47	228.79
218.937	296.66
219.404	341.13
219.871	266.24
220.338	263.9
220.805	306.03
221.271	214.74
221.738	221.77
222.205	259.21
222.671	277.94
223.138	261.55
223.605	238.15
224.071	233.47
224.538	224.11
225.004	228.79
225.47	284.96
225.937	324.75
226.403	270.92
226.869	233.47
227.335	212.4
227.801	240.49
228.267	261.55
228.733	303.68
229.199	280.28
229.665	233.47
230.131	252.19
230.597	247.51
231.062	226.45
231.528	275.6
231.994	294.32
232.459	270.92
232.925	315.39
233.39	296.66
233.856	226.45
234.321	212.4
234.786	289.64
235.252	280.28
235.717	247.51
236.182	259.21
236.647	275.6
237.112	228.79
237.577	242.83
238.042	287.3
238.507	242.83
238.972	301.34
239.436	287.3
239.901	261.55
240.366	294.32
240.83	238.15
241.295	273.26
241.76	247.51
242.224	233.47
242.688	245.17
243.153	282.62
243.617	310.71
244.081	263.9
244.545	270.92
245.01	268.58
245.474	273.26
245.938	348.15
246.402	268.58
246.866	303.68
247.33	289.64
247.793	287.3
248.257	226.45
248.721	256.87
249.185	273.26
249.648	289.64
250.112	270.92
250.575	231.13
251.039	282.62
251.502	282.62
251.965	261.55
252.429	228.79
252.892	261.55
253.355	277.94
253.818	301.34
254.281	289.64
254.744	235.81
255.207	266.24
255.67	299
256.133	291.98
256.596	317.73
257.059	259.21
257.522	320.07
257.984	317.73
258.447	268.58
258.909	266.24
259.372	303.68
259.834	301.34
260.297	238.15
260.759	369.22
261.221	320.07
261.684	291.98
262.146	306.03
262.608	287.3
263.07	357.52
263.532	259.21
263.994	259.21
264.456	308.37
264.918	256.87
265.38	240.49
265.842	242.83
266.303	280.28
266.765	350.5
267.227	277.94
267.688	261.55
268.15	280.28
268.611	308.37
269.072	306.03
269.534	284.96
269.995	359.86
270.456	308.37
270.918	270.92
271.379	280.28
271.84	315.39
272.301	282.62
272.762	256.87
273.223	289.64
273.684	327.09
274.144	252.19
274.605	282.62
275.066	282.62
275.527	308.37
275.987	280.28
276.448	341.13
276.908	226.45
277.369	362.2
277.829	261.55
278.289	275.6
278.75	268.58
279.21	212.4
279.67	275.6
280.13	284.96
280.59	306.03
281.05	313.05
281.51	350.5
281.97	221.77
282.43	263.9
282.89	275.6
283.35	268.58
283.809	254.53
284.269	341.13
284.729	254.53
285.188	310.71
285.648	327.09
286.107	301.34
286.567	334.11
287.026	235.81
287.485	296.66
287.944	322.41
288.404	249.85
288.863	327.09
289.322	277.94
289.781	252.19
290.24	282.62
290.699	252.19
291.158	289.64
291.616	317.73
292.075	280.28
292.534	287.3
292.992	270.92
293.451	261.55
293.91	299
294.368	261.55
294.827	256.87
295.285	261.55
295.743	303.68
296.202	327.09
296.66	294.32
297.118	301.34
297.576	294.32
298.034	254.53
298.492	350.5
298.95	315.39
299.408	245.17
299.866	315.39
300.324	263.9
300.781	296.66
301.239	280.28
301.697	394.97
302.154	299
302.612	324.75
303.069	308.37
303.527	261.55
303.984	287.3
304.441	270.92
304.899	228.79
305.356	308.37
305.813	284.96
306.27	331.77
306.727	322.41
307.184	352.84
307.641	247.51
308.098	212.4
308.555	315.39
309.012	301.34
309.468	308.37
309.925	273.26
310.382	266.24
310.838	247.51
311.295	296.66
311.751	373.9
312.208	240.49
312.664	259.21
313.12	263.9
313.577	299
314.033	383.26
314.489	327.09
314.945	369.22
315.401	306.03
315.857	313.05
316.313	242.83
316.769	313.05
317.225	207.72
317.681	317.73
318.136	291.98
318.592	299
319.048	277.94
319.503	259.21
319.959	238.15
320.414	277.94
320.869	303.68
321.325	313.05
321.78	284.96
322.235	273.26
322.691	364.54
323.146	320.07
323.601	287.3
324.056	324.75
324.511	301.34
324.966	284.96
325.421	268.58
325.875	275.6
326.33	331.77
326.785	273.26
327.24	324.75
327.694	270.92
328.149	287.3
328.603	301.34
329.058	277.94
329.512	359.86
329.966	378.58
330.421	280.28
330.875	263.9
331.329	317.73
331.783	329.43
332.237	287.3
332.691	322.41
333.145	427.73
333.599	322.41
334.053	296.66
334.507	317.73
334.96	329.43
335.414	317.73
335.868	352.84
336.321	308.37
336.775	322.41
337.228	320.07
337.682	294.32
338.135	275.6
338.588	303.68
339.042	287.3
339.495	320.07
339.948	362.2
340.401	334.11
340.854	296.66
341.307	294.32
341.76	320.07
342.213	313.05
342.666	303.68
343.119	341.13
343.571	291.98
344.024	338.79
344.477	324.75
344.929	306.03
345.382	315.39
345.834	352.84
346.287	310.71
346.739	303.68
347.191	359.86
347.644	266.24
348.096	270.92
348.548	306.03
349	357.52
349.452	296.66
349.904	301.34
350.356	355.18
350.808	256.87
351.26	291.98
351.711	341.13
352.163	291.98
352.615	261.55
353.066	306.03
353.518	268.58
353.969	296.66
354.421	310.71
354.872	256.87
355.324	322.41
355.775	317.73
356.226	313.05
356.677	254.53
357.128	385.6
357.579	334.11
358.03	294.32
358.481	310.71
358.932	296.66
359.383	296.66
359.834	322.41
360.285	301.34
360.735	301.34
361.186	355.18
361.637	313.05
362.087	240.49
362.538	320.07
362.988	282.62
363.438	331.77
363.889	334.11
364.339	284.96
364.789	301.34
365.239	282.62
365.689	254.53
366.139	289.64
366.589	287.3
367.039	263.9
367.489	329.43
367.939	343.47
368.389	289.64
368.839	280.28
369.288	301.34
369.738	268.58
370.187	294.32
370.637	294.32
371.086	313.05
371.536	306.03
371.985	294.32
372.434	357.52
372.884	306.03
373.333	366.88
373.782	359.86
374.231	306.03
374.68	268.58
375.129	294.32
375.578	334.11
376.027	301.34
376.475	322.41
376.924	289.64
377.373	357.52
377.822	355.18
378.27	310.71
378.719	291.98
379.167	256.87
379.616	268.58
380.064	313.05
380.512	249.85
380.961	263.9
381.409	338.79
381.857	299
382.305	362.2
382.753	308.37
383.201	296.66
383.649	352.84
384.097	308.37
384.545	303.68
384.992	336.45
385.44	261.55
385.888	341.13
386.335	299
386.783	306.03
387.231	327.09
387.678	359.86
388.125	291.98
388.573	345.81
389.02	322.41
389.467	331.77
389.914	334.11
390.362	310.71
390.809	294.32
391.256	259.21
391.703	212.4
392.15	275.6
392.596	301.34
393.043	249.85
393.49	327.09
393.937	327.09
394.383	310.71
394.83	324.75
395.276	327.09
395.723	280.28
396.169	317.73
396.616	277.94
397.062	341.13
397.508	266.24
397.954	284.96
398.401	383.26
398.847	261.55
399.293	315.39
399.739	334.11
400.185	287.3
400.631	336.45
401.076	336.45
401.522	294.32
401.968	327.09
402.414	266.24
402.859	299
403.305	294.32
403.75	263.9
404.196	247.51
404.641	268.58
405.086	345.81
405.532	329.43
405.977	315.39
406.422	259.21
406.867	313.05
407.312	331.77
407.757	310.71
408.202	275.6
408.647	294.32
409.092	338.79
409.537	352.84
409.982	334.11
410.426	390.28
410.871	287.3
411.316	291.98
411.76	327.09
412.205	350.5
412.649	313.05
413.093	284.96
413.538	268.58
413.982	397.31
414.426	338.79
414.87	357.52
415.314	334.11
415.758	289.64
416.202	315.39
416.646	343.47
417.09	291.98
417.534	284.96
417.978	336.45
418.421	299
418.865	355.18
419.309	338.79
419.752	329.43
420.196	341.13
420.639	299
421.083	350.5
421.526	343.47
421.969	282.62
422.412	334.11
422.856	331.77
423.299	338.79
423.742	327.09
424.185	371.56
424.628	350.5
425.071	366.88
425.513	254.53
425.956	322.41
426.399	364.54
426.842	291.98
427.284	320.07
427.727	315.39
428.169	320.07
428.612	322.41
429.054	282.62
429.497	357.52
429.939	341.13
430.381	273.26
430.823	343.47
431.265	348.15
431.707	291.98
432.149	394.97
432.591	291.98
433.033	317.73
433.475	315.39
433.917	254.53
434.359	324.75
434.8	338.79
435.242	350.5
435.684	317.73
436.125	301.34
436.567	299
437.008	287.3
437.449	362.2
437.891	252.19
438.332	287.3
438.773	275.6
439.214	317.73
439.656	327.09
440.097	308.37
440.538	284.96
440.978	343.47
441.419	289.64
441.86	303.68
442.301	364.54
442.742	338.79
443.182	322.41
443.623	327.09
444.063	315.39
444.504	266.24
444.944	268.58
445.385	334.11
445.825	289.64
446.265	341.13
446.706	277.94
447.146	369.22
447.586	289.64
448.026	327.09
448.466	329.43
448.906	355.18
449.346	362.2
449.786	266.24
450.225	294.32
450.665	324.75
451.105	327.09
451.544	327.09
451.984	334.11
452.424	310.71
452.863	327.09
453.302	280.28
453.742	322.41
454.181	345.81
454.62	259.21
455.059	270.92
455.499	266.24
455.938	310.71
456.377	280.28
456.816	275.6
457.254	331.77
457.693	306.03
458.132	287.3
458.571	299
459.01	324.75
459.448	277.94
459.887	350.5
460.325	270.92
460.764	266.24
461.202	369.22
461.641	233.47
462.079	273.26
462.517	327.09
462.955	296.66
463.393	277.94
463.832	392.62
464.27	362.2
464.708	369.22
465.145	266.24
465.583	275.6
466.021	308.37
466.459	261.55
466.897	352.84
467.334	315.39
467.772	310.71
468.209	294.32
468.647	280.28
469.084	270.92
469.522	294.32
469.959	334.11
470.396	310.71
470.833	355.18
471.271	373.9
471.708	334.11
472.145	331.77
472.582	306.03
473.019	322.41
473.456	308.37
473.892	327.09
474.329	235.81
474.766	331.77
475.202	301.34
475.639	313.05
476.076	275.6
476.512	301.34
476.949	334.11
477.385	329.43
477.821	235.81
478.258	296.66
478.694	310.71
479.13	401.99
479.566	259.21
480.002	320.07
480.438	350.5
480.874	306.03
481.31	341.13
481.746	322.41
482.181	362.2
482.617	320.07
483.053	266.24
483.488	306.03
483.924	259.21
484.36	294.32
484.795	329.43
485.23	296.66
485.666	345.81
486.101	355.18
486.536	348.15
486.971	334.11
487.407	336.45
487.842	252.19
488.277	317.73
488.712	329.43
489.146	355.18
489.581	308.37
490.016	387.94
490.451	308.37
490.885	315.39
491.32	345.81
491.755	252.19
492.189	362.2
492.624	336.45
493.058	355.18
493.492	359.86
493.927	242.83
494.361	303.68
494.795	345.81
495.229	294.32
495.663	366.88
496.097	303.68
496.531	296.66
496.965	345.81
497.399	301.34
497.833	221.77
498.266	310.71
498.7	299
499.134	327.09
499.567	334.11
500.001	383.26
500.434	362.2
500.868	341.13
501.301	327.09
501.734	317.73
502.168	364.54
502.601	317.73
503.034	291.98
503.467	308.37
503.9	397.31
504.333	256.87
504.766	331.77
505.199	371.56
505.632	294.32
506.064	310.71
506.497	301.34
506.93	296.66
507.362	364.54
507.795	320.07
508.227	291.98
508.66	324.75
509.092	294.32
509.524	280.28
509.956	259.21
510.389	282.62
510.821	317.73
511.253	334.11
511.685	247.51
512.117	317.73
512.549	301.34
512.981	373.9
513.412	266.24
513.844	352.84
514.276	294.32
514.707	282.62
515.139	299
515.571	352.84
516.002	284.96
516.433	329.43
516.865	291.98
517.296	345.81
517.727	284.96
518.159	296.66
518.59	362.2
519.021	320.07
519.452	317.73
519.883	287.3
520.314	289.64
520.744	336.45
521.175	306.03
521.606	270.92
522.037	350.5
522.467	341.13
522.898	256.87
523.328	266.24
523.759	350.5
524.189	334.11
524.62	268.58
525.05	338.79
525.48	380.92
525.91	310.71
526.341	303.68
526.771	303.68
527.201	306.03
527.631	359.86
528.061	343.47
528.49	296.66
528.92	249.85
529.35	327.09
529.78	301.34
530.209	345.81
530.639	317.73
531.068	280.28
531.498	247.51
531.927	310.71
532.357	284.96
532.786	261.55
533.215	289.64
533.644	329.43
534.074	320.07
534.503	343.47
534.932	289.64
535.361	247.51
535.79	343.47
536.218	320.07
536.647	284.96
537.076	317.73
537.505	301.34
537.933	336.45
538.362	310.71
538.79	343.47
539.219	294.32
539.647	324.75
540.076	299
540.504	376.24
540.932	294.32
541.36	301.34
541.788	331.77
542.217	275.6
542.645	273.26
543.073	334.11
543.5	263.9
543.928	315.39
544.356	357.52
544.784	352.84
545.211	336.45
545.639	207.72
546.067	289.64
546.494	287.3
546.922	317.73
547.349	322.41
547.776	338.79
548.204	266.24
548.631	303.68
549.058	247.51
549.485	296.66
549.912	287.3
550.339	376.24
550.766	348.15
551.193	334.11
551.62	336.45
552.047	308.37
552.474	320.07
552.9	277.94
553.327	303.68
553.754	303.68
554.18	322.41
554.607	371.56
555.033	317.73
555.459	306.03
555.886	334.11
556.312	348.15
556.738	294.32
557.164	322.41
557.59	313.05
558.016	317.73
558.442	306.03
558.868	301.34
559.294	366.88
559.72	343.47
560.145	275.6
560.571	289.64
560.997	320.07
561.422	338.79
561.848	284.96
562.273	231.13
562.699	247.51
563.124	315.39
563.549	320.07
563.974	301.34
564.4	275.6
564.825	291.98
565.25	308.37
565.675	320.07
566.1	357.52
566.525	301.34
566.95	315.39
567.374	341.13
567.799	329.43
568.224	371.56
568.648	301.34
569.073	289.64
569.497	277.94
569.922	291.98
570.346	275.6
570.771	371.56
571.195	303.68
571.619	387.94
572.043	343.47
572.467	329.43
572.891	313.05
573.315	352.84
573.739	338.79
574.163	289.64
574.587	329.43
575.011	306.03
575.435	308.37
575.858	357.52
576.282	294.32
576.705	352.84
577.129	299
577.552	317.73
577.976	380.92
578.399	207.72
578.822	336.45
579.245	317.73
579.669	266.24
580.092	261.55
580.515	296.66
580.938	336.45
581.361	355.18
581.784	352.84
582.206	345.81
582.629	308.37
583.052	336.45
583.474	322.41
583.897	303.68
584.32	322.41
584.742	336.45
585.165	289.64
585.587	329.43
586.009	287.3
586.431	310.71
586.854	322.41
587.276	261.55
587.698	263.9
588.12	345.81
588.542	259.21
588.964	296.66
589.386	261.55
589.807	277.94
590.229	294.32
590.651	317.73
591.073	280.28
591.494	261.55
591.916	280.28
592.337	249.85
592.759	369.22
593.18	294.32
593.601	331.77
594.022	313.05
594.444	294.32
594.865	315.39
595.286	315.39
595.707	282.62
596.128	343.47
596.549	334.11
596.97	327.09
597.39	322.41
597.811	287.3
598.232	219.43
598.652	299
599.073	308.37
599.494	273.26
599.914	270.92
600.334	334.11
600.755	303.68
601.175	345.81
601.595	296.66
602.015	331.77
602.436	303.68
602.856	441.78
603.276	336.45
603.696	299
604.115	291.98
604.535	273.26
604.955	324.75
605.375	336.45
605.794	261.55
606.214	273.26
606.634	301.34
607.053	299
607.473	331.77
607.892	313.05
608.311	352.84
608.731	259.21
609.15	373.9
609.569	334.11
609.988	296.66
610.407	280.28
610.826	336.45
611.245	336.45
611.664	284.96
612.083	387.94
612.501	294.32
612.92	275.6
613.339	308.37
613.757	329.43
614.176	324.75
614.594	338.79
615.013	301.34
615.431	359.86
615.85	301.34
616.268	289.64
616.686	277.94
617.104	315.39
617.522	343.47
617.94	282.62
618.358	331.77
618.776	270.92
619.194	336.45
619.612	336.45
620.03	277.94
620.447	268.58
620.865	313.05
621.282	369.22
621.7	387.94
622.117	336.45
622.535	303.68
622.952	287.3
623.369	301.34
623.787	348.15
624.204	336.45
624.621	301.34
625.038	308.37
625.455	320.07
625.872	338.79
626.289	294.32
626.706	277.94
627.123	322.41
627.539	310.71
627.956	287.3
628.373	385.6
628.789	200.7
629.206	287.3
629.622	296.66
630.038	341.13
630.455	282.62
630.871	320.07
631.287	350.5
631.703	401.99
632.12	329.43
632.536	263.9
632.952	315.39
633.368	277.94
633.783	280.28
634.199	291.98
634.615	310.71
635.031	289.64
635.446	387.94
635.862	369.22
636.277	249.85
636.693	296.66
637.108	289.64
637.524	334.11
637.939	343.47
638.354	280.28
638.77	247.51
639.185	289.64
639.6	322.41
640.015	341.13
640.43	345.81
640.845	329.43
641.259	317.73
641.674	324.75
642.089	277.94
642.504	294.32
642.918	291.98
643.333	350.5
643.747	313.05
644.162	317.73
644.576	277.94
644.991	380.92
645.405	343.47
645.819	301.34
646.233	294.32
646.647	289.64
647.061	280.28
647.475	336.45
647.889	348.15
648.303	343.47
648.717	303.68
649.131	317.73
649.545	224.11
649.958	343.47
650.372	294.32
650.785	306.03
651.199	313.05
651.612	294.32
652.026	322.41
652.439	273.26
652.852	299
653.266	282.62
653.679	301.34
654.092	310.71
654.505	315.39
654.918	247.51
655.331	376.24
655.744	277.94
656.156	310.71
656.569	275.6
656.982	320.07
657.394	268.58
657.807	256.87
658.22	385.6
658.632	324.75
659.044	254.53
659.457	331.77
659.869	296.66
660.281	329.43
660.693	252.19
661.106	263.9
661.518	334.11
661.93	266.24
662.342	334.11
662.754	289.64
663.165	291.98
663.577	313.05
663.989	334.11
664.401	299
664.812	336.45
665.224	287.3
665.635	306.03
666.047	313.05
666.458	350.5
666.869	308.37
667.281	355.18
667.692	261.55
668.103	334.11
668.514	249.85
668.925	299
669.336	233.47
669.747	359.86
670.158	350.5
670.569	303.68
670.979	294.32
671.39	256.87
671.801	315.39
672.211	362.2
672.622	291.98
673.032	259.21
673.443	338.79
673.853	275.6
674.263	308.37
674.674	362.2
675.084	238.15
675.494	245.17
675.904	343.47
676.314	303.68
676.724	294.32
677.134	343.47
677.544	287.3
677.953	336.45
678.363	324.75
678.773	357.52
679.182	341.13
679.592	331.77
680.001	345.81
680.411	327.09
680.82	329.43
681.23	357.52
681.639	324.75
682.048	299
682.457	303.68
682.866	277.94
683.275	287.3
683.684	313.05
684.093	261.55
684.502	282.62
684.911	280.28
685.32	270.92
685.728	306.03
686.137	280.28
686.546	273.26
686.954	322.41
687.363	289.64
687.771	397.31
688.179	266.24
688.588	282.62
688.996	263.9
689.404	378.58
689.812	334.11
690.22	291.98
690.628	324.75
691.036	263.9
691.444	343.47
691.852	233.47
692.26	306.03
692.667	289.64
693.075	334.11
693.483	341.13
693.89	294.32
694.298	336.45
694.705	322.41
695.112	308.37
695.52	301.34
695.927	366.88
696.334	317.73
696.741	352.84
697.148	289.64
697.555	320.07
697.962	324.75
698.369	280.28
698.776	266.24
699.183	317.73
699.59	310.71
699.996	322.41
700.403	341.13
700.81	324.75
701.216	294.32
701.623	315.39
702.029	371.56
702.435	282.62
702.842	303.68
703.248	296.66
703.654	336.45
704.06	350.5
704.466	329.43
704.872	418.37
705.278	308.37
705.684	313.05
706.09	366.88
706.496	320.07
706.901	289.64
707.307	261.55
707.712	296.66
708.118	287.3
708.523	357.52
708.929	299
709.334	266.24
709.74	313.05
710.145	280.28
710.55	320.07
710.955	289.64
711.36	287.3
711.765	291.98
712.17	317.73
712.575	310.71
712.98	804.56
713.385	313.05
713.789	315.39
714.194	294.32
714.599	240.49
715.003	322.41
715.408	273.26
715.812	303.68
716.217	310.71
716.621	313.05
717.025	296.66
717.429	348.15
717.833	277.94
718.238	282.62
718.642	306.03
719.046	355.18
719.449	259.21
719.853	322.41
720.257	306.03
720.661	280.28
721.065	261.55
721.468	369.22
721.872	301.34
722.275	313.05
722.679	359.86
723.082	266.24
723.485	320.07
723.889	273.26
724.292	343.47
724.695	282.62
725.098	306.03
725.501	399.65
725.904	291.98
726.307	280.28
726.71	273.26
727.113	303.68
727.516	303.68
727.918	380.92
728.321	341.13
728.724	338.79
729.126	324.75
729.529	306.03
729.931	322.41
730.333	310.71
730.736	273.26
731.138	350.5
731.54	392.62
731.942	268.58
732.344	334.11
732.746	306.03
733.148	338.79
733.55	327.09
733.952	238.15
734.354	289.64
734.756	317.73
735.157	315.39
735.559	341.13
735.96	268.58
736.362	313.05
736.763	331.77
737.165	280.28
737.566	268.58
737.967	280.28
738.368	310.71
738.77	277.94
739.171	313.05
739.572	341.13
739.973	317.73
740.374	282.62
740.774	341.13
741.175	301.34
741.576	268.58
741.977	350.5
742.377	371.56
742.778	291.98
743.178	366.88
743.579	355.18
743.979	348.15
744.379	322.41
744.78	334.11
745.18	310.71
745.58	327.09
745.98	287.3
746.38	301.34
746.78	275.6
747.18	291.98
747.58	289.64
747.98	284.96
748.38	277.94
748.779	315.39
749.179	334.11
749.578	327.09
749.978	282.62
750.377	303.68
750.777	289.64
751.176	294.32
751.575	303.68
751.975	315.39
752.374	343.47
752.773	327.09
753.172	240.49
753.571	343.47
753.97	355.18
754.369	284.96
754.768	308.37
755.166	345.81
755.565	247.51
755.964	341.13
756.362	263.9
756.761	317.73
757.159	266.24
757.558	277.94
757.956	291.98
758.354	334.11
758.753	322.41
759.151	263.9
759.549	252.19
759.947	277.94
760.345	317.73
760.743	296.66
761.141	301.34
761.539	359.86
761.936	373.9
762.334	280.28
762.732	327.09
763.129	235.81
763.527	324.75
763.924	317.73
764.322	224.11
764.719	284.96
765.117	310.71
765.514	266.24
765.911	308.37
766.308	294.32
766.705	329.43
