Data from Al_FLMS009871__918__16-18-09-523.txt Node

Date: Fri Mar 08 16:18:09 CST 2024
User: pe5414po
Spectrometer: FLMS00987
Trigger mode: 0
Integration Time (sec): 1.000000E-1
Scans to average: 1
Electric dark correction enabled: true
Nonlinearity correction enabled: false
Boxcar width: 0
XAxis mode: Wavelengths
Number of Pixels in Spectrum: 2048
>>>>>Begin Spectral Data<<<<<
188.938	-55.44
189.409	-55.44
189.879	-55.44
190.349	-188.85
190.819	-48.42
191.29	-128
191.76	-76.51
192.23	-83.53
192.7	-55.44
193.17	-36.72
193.64	-90.55
194.109	-36.72
194.579	-43.74
195.049	-25.01
195.519	7.75
195.988	31.16
196.458	106.06
196.927	49.88
197.397	106.06
197.866	99.03
198.336	176.27
198.805	143.5
199.274	190.31
199.744	171.59
200.213	164.57
200.682	230.1
201.151	241.81
201.62	213.72
202.089	237.13
202.558	248.83
203.027	187.97
203.495	230.1
203.964	225.42
204.433	246.49
204.902	309.68
205.37	283.94
205.839	314.36
206.307	330.75
206.776	274.57
207.244	279.26
207.712	274.57
208.181	370.54
208.649	344.79
209.117	246.49
209.585	305
210.053	251.17
210.521	351.81
210.989	248.83
211.457	307.34
211.925	253.51
212.393	248.83
212.861	253.51
213.328	239.47
213.796	267.55
214.264	241.81
214.731	253.51
215.199	288.62
215.666	234.78
216.133	314.36
216.601	206.7
217.068	171.59
217.535	253.51
218.003	237.13
218.47	239.47
218.937	283.94
219.404	283.94
219.871	237.13
220.338	312.02
220.805	239.47
221.271	274.57
221.738	283.94
222.205	241.81
222.671	265.21
223.138	267.55
223.605	251.17
224.071	237.13
224.538	305
225.004	223.08
225.47	319.04
225.937	230.1
226.403	223.08
226.869	202.02
227.335	216.06
227.801	288.62
228.267	225.42
228.733	248.83
229.199	216.06
229.665	237.13
230.131	202.02
230.597	255.85
231.062	267.55
231.528	293.3
231.994	237.13
232.459	225.42
232.925	237.13
233.39	323.73
233.856	283.94
234.321	293.3
234.786	283.94
235.252	255.85
235.717	244.15
236.182	283.94
236.647	312.02
237.112	269.89
237.577	269.89
238.042	283.94
238.507	316.7
238.972	251.17
239.436	267.55
239.901	281.6
240.366	265.21
240.83	253.51
241.295	248.83
241.76	267.55
242.224	255.85
242.688	307.34
243.153	255.85
243.617	258.19
244.081	225.42
244.545	209.04
245.01	286.28
245.474	274.57
245.938	244.15
246.402	209.04
246.866	302.66
247.33	267.55
247.793	269.89
248.257	255.85
248.721	293.3
249.185	255.85
249.648	230.1
250.112	286.28
250.575	288.62
251.039	279.26
251.502	279.26
251.965	267.55
252.429	319.04
252.892	319.04
253.355	276.91
253.818	220.74
254.281	248.83
254.744	246.49
255.207	274.57
255.67	300.32
256.133	234.78
256.596	286.28
257.059	255.85
257.522	269.89
257.984	363.51
258.447	302.66
258.909	295.64
259.372	232.44
259.834	267.55
260.297	276.91
260.759	204.36
261.221	262.87
261.684	300.32
262.146	337.77
262.608	276.91
263.07	314.36
263.532	255.85
263.994	251.17
264.456	297.98
264.918	323.73
265.38	248.83
265.842	316.7
266.303	253.51
266.765	361.17
267.227	187.97
267.688	230.1
268.15	253.51
268.611	293.3
269.072	290.96
269.534	293.3
269.995	295.64
270.456	302.66
270.918	255.85
271.379	232.44
271.84	307.34
272.301	333.09
272.762	204.36
273.223	251.17
273.684	272.23
274.144	281.6
274.605	272.23
275.066	230.1
275.527	206.7
275.987	190.31
276.448	269.89
276.908	199.68
277.369	305
277.829	354.15
278.289	251.17
278.75	244.15
279.21	297.98
279.67	290.96
280.13	342.45
280.59	206.7
281.05	321.38
281.51	309.68
281.97	297.98
282.43	267.55
282.89	293.3
283.35	283.94
283.809	326.07
284.269	323.73
284.729	276.91
285.188	269.89
285.648	293.3
286.107	281.6
286.567	290.96
287.026	253.51
287.485	361.17
287.944	312.02
288.404	297.98
288.863	260.53
289.322	265.21
289.781	295.64
290.24	260.53
290.699	276.91
291.158	328.41
291.616	326.07
292.075	267.55
292.534	314.36
292.992	262.87
293.451	316.7
293.91	262.87
294.368	267.55
294.827	267.55
295.285	321.38
295.743	295.64
296.202	260.53
296.66	295.64
297.118	328.41
297.576	307.34
298.034	347.13
298.492	295.64
298.95	328.41
299.408	321.38
299.866	309.68
300.324	283.94
300.781	295.64
301.239	279.26
301.697	283.94
302.154	330.75
302.612	260.53
303.069	295.64
303.527	216.06
303.984	251.17
304.441	297.98
304.899	262.87
305.356	300.32
305.813	293.3
306.27	309.68
306.727	239.47
307.184	241.81
307.641	265.21
308.098	316.7
308.555	382.24
309.012	314.36
309.468	272.23
309.925	269.89
310.382	309.68
310.838	323.73
311.295	267.55
311.751	312.02
312.208	305
312.664	293.3
313.12	333.09
313.577	244.15
314.033	312.02
314.489	262.87
314.945	283.94
315.401	305
315.857	354.15
316.313	283.94
316.769	279.26
317.225	344.79
317.681	300.32
318.136	290.96
318.592	274.57
319.048	286.28
319.503	342.45
319.959	255.85
320.414	260.53
320.869	241.81
321.325	309.68
321.78	234.78
322.235	340.11
322.691	239.47
323.146	286.28
323.601	241.81
324.056	265.21
324.511	279.26
324.966	281.6
325.421	342.45
325.875	258.19
326.33	358.83
326.785	290.96
327.24	283.94
327.694	234.78
328.149	286.28
328.603	288.62
329.058	288.62
329.512	297.98
329.966	255.85
330.421	234.78
330.875	262.87
331.329	319.04
331.783	295.64
332.237	279.26
332.691	288.62
333.145	326.07
333.599	269.89
334.053	258.19
334.507	319.04
334.96	258.19
335.414	258.19
335.868	216.06
336.321	290.96
336.775	326.07
337.228	305
337.682	319.04
338.135	232.44
338.588	344.79
339.042	295.64
339.495	244.15
339.948	288.62
340.401	305
340.854	342.45
341.307	328.41
341.76	260.53
342.213	361.17
342.666	276.91
343.119	309.68
343.571	330.75
344.024	244.15
344.477	267.55
344.929	281.6
345.382	368.2
345.834	321.38
346.287	279.26
346.739	309.68
347.191	326.07
347.644	302.66
348.096	274.57
348.548	262.87
349	269.89
349.452	295.64
349.904	283.94
350.356	265.21
350.808	232.44
351.26	305
351.711	309.68
352.163	293.3
352.615	326.07
353.066	286.28
353.518	361.17
353.969	269.89
354.421	307.34
354.872	290.96
355.324	272.23
355.775	286.28
356.226	333.09
356.677	290.96
357.128	297.98
357.579	260.53
358.03	272.23
358.481	351.81
358.932	260.53
359.383	286.28
359.834	300.32
360.285	382.24
360.735	300.32
361.186	305
361.637	319.04
362.087	326.07
362.538	272.23
362.988	269.89
363.438	286.28
363.889	330.75
364.339	319.04
364.789	326.07
365.239	333.09
365.689	309.68
366.139	316.7
366.589	312.02
367.039	309.68
367.489	365.85
367.939	368.2
368.389	393.94
368.839	340.11
369.288	288.62
369.738	260.53
370.187	349.47
370.637	382.24
371.086	288.62
371.536	295.64
371.985	305
372.434	251.17
372.884	333.09
373.333	281.6
373.782	347.13
374.231	351.81
374.68	309.68
375.129	286.28
375.578	283.94
376.027	349.47
376.475	258.19
376.924	312.02
377.373	370.54
377.822	302.66
378.27	283.94
378.719	319.04
379.167	251.17
379.616	239.47
380.064	283.94
380.512	283.94
380.961	283.94
381.409	295.64
381.857	328.41
382.305	283.94
382.753	293.3
383.201	288.62
383.649	286.28
384.097	237.13
384.545	330.75
384.992	307.34
385.44	333.09
385.888	281.6
386.335	246.49
386.783	349.47
387.231	295.64
387.678	342.45
388.125	274.57
388.573	307.34
389.02	260.53
389.467	333.09
389.914	328.41
390.362	316.7
390.809	267.55
391.256	276.91
391.703	309.68
392.15	302.66
392.596	295.64
393.043	314.36
393.49	323.73
393.937	293.3
394.383	279.26
394.83	300.32
395.276	258.19
395.723	319.04
396.169	326.07
396.616	267.55
397.062	279.26
397.508	267.55
397.954	321.38
398.401	309.68
398.847	300.32
399.293	286.28
399.739	305
400.185	302.66
400.631	358.83
401.076	260.53
401.522	314.36
401.968	314.36
402.414	283.94
402.859	363.51
403.305	323.73
403.75	333.09
404.196	290.96
404.641	279.26
405.086	276.91
405.532	230.1
405.977	333.09
406.422	283.94
406.867	295.64
407.312	290.96
407.757	351.81
408.202	267.55
408.647	288.62
409.092	267.55
409.537	363.51
409.982	262.87
410.426	239.47
410.871	337.77
411.316	342.45
411.76	333.09
412.205	288.62
412.649	328.41
413.093	340.11
413.538	295.64
413.982	295.64
414.426	328.41
414.87	330.75
415.314	269.89
415.758	281.6
416.202	314.36
416.646	293.3
417.09	363.51
417.534	305
417.978	274.57
418.421	342.45
418.865	293.3
419.309	281.6
419.752	323.73
420.196	283.94
420.639	267.55
421.083	307.34
421.526	312.02
421.969	248.83
422.412	316.7
422.856	323.73
423.299	328.41
423.742	307.34
424.185	347.13
424.628	389.26
425.071	290.96
425.513	283.94
425.956	314.36
426.399	297.98
426.842	361.17
427.284	302.66
427.727	283.94
428.169	262.87
428.612	323.73
429.054	309.68
429.497	265.21
429.939	302.66
430.381	288.62
430.823	337.77
431.265	265.21
431.707	283.94
432.149	293.3
432.591	286.28
433.033	316.7
433.475	321.38
433.917	241.81
434.359	260.53
434.8	276.91
435.242	328.41
435.684	330.75
436.125	342.45
436.567	286.28
437.008	276.91
437.449	297.98
437.891	288.62
438.332	267.55
438.773	309.68
439.214	281.6
439.656	305
440.097	248.83
440.538	244.15
440.978	293.3
441.419	307.34
441.86	300.32
442.301	220.74
442.742	335.43
443.182	283.94
443.623	272.23
444.063	265.21
444.504	286.28
444.944	305
445.385	307.34
445.825	293.3
446.265	260.53
446.706	286.28
447.146	272.23
447.586	272.23
448.026	237.13
448.466	305
448.906	295.64
449.346	330.75
449.786	335.43
450.225	302.66
450.665	342.45
451.105	281.6
451.544	265.21
451.984	295.64
452.424	283.94
452.863	290.96
453.302	297.98
453.742	326.07
454.181	286.28
454.62	326.07
455.059	316.7
455.499	323.73
455.938	328.41
456.377	319.04
456.816	347.13
457.254	276.91
457.693	333.09
458.132	344.79
458.571	260.53
459.01	340.11
459.448	281.6
459.887	314.36
460.325	267.55
460.764	314.36
461.202	218.4
461.641	358.83
462.079	244.15
462.517	244.15
462.955	328.41
463.393	269.89
463.832	269.89
464.27	293.3
464.708	321.38
465.145	330.75
465.583	239.47
466.021	258.19
466.459	288.62
466.897	297.98
467.334	241.81
467.772	305
468.209	281.6
468.647	323.73
469.084	295.64
469.522	244.15
469.959	295.64
470.396	316.7
470.833	276.91
471.271	295.64
471.708	326.07
472.145	244.15
472.582	281.6
473.019	295.64
473.456	333.09
473.892	281.6
474.329	297.98
474.766	279.26
475.202	239.47
475.639	351.81
476.076	269.89
476.512	300.32
476.949	281.6
477.385	309.68
477.821	323.73
478.258	319.04
478.694	312.02
479.13	330.75
479.566	255.85
480.002	300.32
480.438	297.98
480.874	340.11
481.31	265.21
481.746	279.26
482.181	279.26
482.617	412.67
483.053	344.79
483.488	330.75
483.924	272.23
484.36	309.68
484.795	354.15
485.23	309.68
485.666	274.57
486.101	269.89
486.536	232.44
486.971	286.28
487.407	307.34
487.842	255.85
488.277	337.77
488.712	286.28
489.146	328.41
489.581	272.23
490.016	307.34
490.451	255.85
490.885	290.96
491.32	312.02
491.755	251.17
492.189	309.68
492.624	368.2
493.058	260.53
493.492	274.57
493.927	286.28
494.361	279.26
494.795	283.94
495.229	309.68
495.663	340.11
496.097	305
496.531	305
496.965	255.85
497.399	307.34
497.833	316.7
498.266	319.04
498.7	328.41
499.134	255.85
499.567	309.68
500.001	319.04
500.434	293.3
500.868	269.89
501.301	354.15
501.734	293.3
502.168	330.75
502.601	283.94
503.034	290.96
503.467	314.36
503.9	312.02
504.333	246.49
504.766	344.79
505.199	316.7
505.632	351.81
506.064	354.15
506.497	312.02
506.93	244.15
507.362	356.49
507.795	272.23
508.227	267.55
508.66	307.34
509.092	302.66
509.524	293.3
509.956	330.75
510.389	305
510.821	295.64
511.253	330.75
511.685	269.89
512.117	307.34
512.549	244.15
512.981	295.64
513.412	293.3
513.844	328.41
514.276	319.04
514.707	260.53
515.139	295.64
515.571	330.75
516.002	297.98
516.433	307.34
516.865	314.36
517.296	244.15
517.727	288.62
518.159	314.36
518.59	319.04
519.021	286.28
519.452	372.88
519.883	398.62
520.314	323.73
520.744	312.02
521.175	319.04
521.606	272.23
522.037	328.41
522.467	300.32
522.898	363.51
523.328	293.3
523.759	335.43
524.189	316.7
524.62	297.98
525.05	347.13
525.48	321.38
525.91	356.49
526.341	305
526.771	314.36
527.201	321.38
527.631	330.75
528.061	265.21
528.49	337.77
528.92	290.96
529.35	307.34
529.78	274.57
530.209	288.62
530.639	307.34
531.068	326.07
531.498	272.23
531.927	255.85
532.357	323.73
532.786	319.04
533.215	342.45
533.644	330.75
534.074	316.7
534.503	286.28
534.932	326.07
535.361	276.91
535.79	344.79
536.218	323.73
536.647	328.41
537.076	323.73
537.505	314.36
537.933	319.04
538.362	337.77
538.79	297.98
539.219	347.13
539.647	258.19
540.076	349.47
540.504	297.98
540.932	333.09
541.36	354.15
541.788	365.85
542.217	302.66
542.645	314.36
543.073	351.81
543.5	314.36
543.928	302.66
544.356	297.98
544.784	356.49
545.211	300.32
545.639	281.6
546.067	269.89
546.494	328.41
546.922	312.02
547.349	349.47
547.776	363.51
548.204	319.04
548.631	255.85
549.058	326.07
549.485	307.34
549.912	295.64
550.339	293.3
550.766	316.7
551.193	305
551.62	295.64
552.047	272.23
552.474	288.62
552.9	351.81
553.327	323.73
553.754	337.77
554.18	297.98
554.607	347.13
555.033	305
555.459	286.28
555.886	312.02
556.312	272.23
556.738	297.98
557.164	333.09
557.59	328.41
558.016	293.3
558.442	283.94
558.868	379.9
559.294	333.09
559.72	279.26
560.145	321.38
560.571	349.47
560.997	333.09
561.422	295.64
561.848	225.42
562.273	274.57
562.699	288.62
563.124	295.64
563.549	281.6
563.974	269.89
564.4	344.79
564.825	262.87
565.25	300.32
565.675	251.17
566.1	290.96
566.525	305
566.95	321.38
567.374	326.07
567.799	323.73
568.224	260.53
568.648	286.28
569.073	316.7
569.497	333.09
569.922	295.64
570.346	347.13
570.771	230.1
571.195	262.87
571.619	258.19
572.043	262.87
572.467	279.26
572.891	319.04
573.315	368.2
573.739	309.68
574.163	330.75
574.587	323.73
575.011	302.66
575.435	283.94
575.858	307.34
576.282	307.34
576.705	305
577.129	349.47
577.552	297.98
577.976	290.96
578.399	290.96
578.822	281.6
579.245	283.94
579.669	305
580.092	302.66
580.515	316.7
580.938	316.7
581.361	269.89
581.784	286.28
582.206	288.62
582.629	272.23
583.052	295.64
583.474	290.96
583.897	342.45
584.32	319.04
584.742	274.57
585.165	328.41
585.587	326.07
586.009	314.36
586.431	307.34
586.854	274.57
587.276	344.79
587.698	272.23
588.12	295.64
588.542	300.32
588.964	372.88
589.386	319.04
589.807	279.26
590.229	262.87
590.651	297.98
591.073	375.22
591.494	330.75
591.916	314.36
592.337	330.75
592.759	351.81
593.18	288.62
593.601	307.34
594.022	281.6
594.444	260.53
594.865	248.83
595.286	370.54
595.707	323.73
596.128	297.98
596.549	356.49
596.97	295.64
597.39	314.36
597.811	248.83
598.232	323.73
598.652	279.26
599.073	314.36
599.494	342.45
599.914	295.64
600.334	370.54
600.755	290.96
601.175	347.13
601.595	356.49
602.015	305
602.436	300.32
602.856	429.05
603.276	307.34
603.696	321.38
604.115	272.23
604.535	269.89
604.955	328.41
605.375	328.41
605.794	307.34
606.214	302.66
606.634	281.6
607.053	326.07
607.473	321.38
607.892	319.04
608.311	386.92
608.731	312.02
609.15	309.68
609.569	265.21
609.988	372.88
610.407	279.26
610.826	279.26
611.245	344.79
611.664	312.02
612.083	295.64
612.501	309.68
612.92	244.15
613.339	417.35
613.757	349.47
614.176	300.32
614.594	349.47
615.013	283.94
615.431	272.23
615.85	265.21
616.268	330.75
616.686	283.94
617.104	246.49
617.522	269.89
617.94	396.28
618.358	293.3
618.776	312.02
619.194	297.98
619.612	267.55
620.03	307.34
620.447	302.66
620.865	288.62
621.282	328.41
621.7	295.64
622.117	262.87
622.535	302.66
622.952	290.96
623.369	255.85
623.787	276.91
624.204	340.11
624.621	246.49
625.038	293.3
625.455	330.75
625.872	328.41
626.289	302.66
626.706	335.43
627.123	312.02
627.539	293.3
627.956	241.81
628.373	316.7
628.789	305
629.206	297.98
629.622	279.26
630.038	244.15
630.455	351.81
630.871	286.28
631.287	286.28
631.703	356.49
632.12	344.79
632.536	347.13
632.952	258.19
633.368	300.32
633.783	302.66
634.199	305
634.615	349.47
635.031	234.78
635.446	386.92
635.862	269.89
636.277	309.68
636.693	330.75
637.108	246.49
637.524	288.62
637.939	295.64
638.354	302.66
638.77	255.85
639.185	344.79
639.6	262.87
640.015	328.41
640.43	335.43
640.845	316.7
641.259	347.13
641.674	232.44
642.089	279.26
642.504	333.09
642.918	272.23
643.333	443.09
643.747	290.96
644.162	356.49
644.576	295.64
644.991	307.34
645.405	293.3
645.819	330.75
646.233	316.7
646.647	286.28
647.061	258.19
647.475	349.47
647.889	335.43
648.303	272.23
648.717	290.96
649.131	356.49
649.545	386.92
649.958	305
650.372	358.83
650.785	302.66
651.199	265.21
651.612	307.34
652.026	295.64
652.439	279.26
652.852	279.26
653.266	330.75
653.679	323.73
654.092	314.36
654.505	290.96
654.918	407.98
655.331	293.3
655.744	295.64
656.156	323.73
656.569	307.34
656.982	300.32
657.394	297.98
657.807	337.77
658.22	286.28
658.632	319.04
659.044	288.62
659.457	309.68
659.869	349.47
660.281	305
660.693	326.07
661.106	286.28
661.518	288.62
661.93	293.3
662.342	305
662.754	300.32
663.165	281.6
663.577	347.13
663.989	302.66
664.401	305
664.812	335.43
665.224	283.94
665.635	307.34
666.047	288.62
666.458	244.15
666.869	333.09
667.281	307.34
667.692	314.36
668.103	286.28
668.514	307.34
668.925	309.68
669.336	356.49
669.747	267.55
670.158	305
670.569	262.87
670.979	260.53
671.39	227.76
671.801	314.36
672.211	281.6
672.622	288.62
673.032	337.77
673.443	288.62
673.853	267.55
674.263	255.85
674.674	290.96
675.084	274.57
675.494	290.96
675.904	262.87
676.314	255.85
676.724	288.62
677.134	293.3
677.544	321.38
677.953	288.62
678.363	232.44
678.773	356.49
679.182	363.51
679.592	274.57
680.001	244.15
680.411	323.73
680.82	260.53
681.23	295.64
681.639	288.62
682.048	316.7
682.457	267.55
682.866	262.87
683.275	300.32
683.684	276.91
684.093	314.36
684.502	365.85
684.911	283.94
685.32	255.85
685.728	323.73
686.137	253.51
686.546	293.3
686.954	377.56
687.363	344.79
687.771	281.6
688.179	321.38
688.588	372.88
688.996	283.94
689.404	309.68
689.812	326.07
690.22	316.7
690.628	375.22
691.036	321.38
691.444	302.66
691.852	305
692.26	333.09
692.667	293.3
693.075	326.07
693.483	330.75
693.89	361.17
694.298	305
694.705	326.07
695.112	290.96
695.52	377.56
695.927	305
696.334	342.45
696.741	272.23
697.148	321.38
697.555	312.02
697.962	281.6
698.369	300.32
698.776	293.3
699.183	251.17
699.59	293.3
699.996	335.43
700.403	335.43
700.81	279.26
701.216	333.09
701.623	349.47
702.029	253.51
702.435	267.55
702.842	314.36
703.248	281.6
703.654	307.34
704.06	344.79
704.466	314.36
704.872	281.6
705.278	363.51
705.684	253.51
706.09	305
706.496	286.28
706.901	321.38
707.307	356.49
707.712	312.02
708.118	305
708.523	262.87
708.929	288.62
709.334	330.75
709.74	307.34
710.145	328.41
710.55	260.53
710.955	295.64
711.36	302.66
711.765	239.47
712.17	330.75
712.575	300.32
712.98	805.88
713.385	354.15
713.789	305
714.194	246.49
714.599	297.98
715.003	344.79
715.408	328.41
715.812	300.32
716.217	316.7
716.621	361.17
717.025	276.91
717.429	321.38
717.833	297.98
718.238	286.28
718.642	295.64
719.046	295.64
719.449	260.53
719.853	290.96
720.257	309.68
720.661	319.04
721.065	239.47
721.468	309.68
721.872	279.26
722.275	354.15
722.679	307.34
723.082	290.96
723.485	246.49
723.889	272.23
724.292	319.04
724.695	295.64
725.098	293.3
725.501	288.62
725.904	307.34
726.307	269.89
726.71	272.23
727.113	321.38
727.516	276.91
727.918	300.32
728.321	290.96
728.724	316.7
729.126	326.07
729.529	276.91
729.931	335.43
730.333	312.02
730.736	314.36
731.138	300.32
731.54	239.47
731.942	230.1
732.344	316.7
732.746	276.91
733.148	293.3
733.55	276.91
733.952	244.15
734.354	248.83
734.756	412.67
735.157	297.98
735.559	248.83
735.96	279.26
736.362	262.87
736.763	255.85
737.165	272.23
737.566	253.51
737.967	323.73
738.368	316.7
738.77	265.21
739.171	307.34
739.572	368.2
739.973	342.45
740.374	305
740.774	302.66
741.175	295.64
741.576	321.38
741.977	248.83
742.377	244.15
742.778	297.98
743.178	314.36
743.579	297.98
743.979	333.09
744.379	283.94
744.78	258.19
745.18	323.73
745.58	276.91
745.98	323.73
746.38	293.3
746.78	295.64
747.18	389.26
747.58	300.32
747.98	290.96
748.38	316.7
748.779	276.91
749.179	337.77
749.578	283.94
749.978	302.66
750.377	295.64
750.777	323.73
751.176	279.26
751.575	335.43
751.975	321.38
752.374	314.36
752.773	234.78
753.172	276.91
753.571	328.41
753.97	321.38
754.369	314.36
754.768	312.02
755.166	267.55
755.565	293.3
755.964	424.37
756.362	365.85
756.761	354.15
757.159	234.78
757.558	316.7
757.956	274.57
758.354	316.7
758.753	248.83
759.151	279.26
759.549	342.45
759.947	297.98
760.345	319.04
760.743	314.36
761.141	319.04
761.539	314.36
761.936	351.81
762.334	307.34
762.732	272.23
763.129	321.38
763.527	290.96
763.924	305
764.322	333.09
764.719	293.3
765.117	307.34
765.514	316.7
765.911	328.41
766.308	323.73
766.705	307.34
767.102	286.28
767.499	319.04
767.896	307.34
