Data from Al_FLMS009871__719__15-09-06-634.txt Node

Date: Fri Mar 08 15:09:06 CST 2024
User: pe5414po
Spectrometer: FLMS00987
Trigger mode: 0
Integration Time (sec): 1.000000E-1
Scans to average: 1
Electric dark correction enabled: true
Nonlinearity correction enabled: false
Boxcar width: 0
XAxis mode: Wavelengths
Number of Pixels in Spectrum: 2048
>>>>>Begin Spectral Data<<<<<
188.938	-69.63
189.409	-69.63
189.879	-69.63
190.349	-53.25
190.819	-76.65
191.29	-60.27
191.76	-53.25
192.23	-97.72
192.7	-107.08
193.17	-104.74
193.64	-41.54
194.109	-74.31
194.579	-4.1
195.049	-64.95
195.519	-15.8
195.988	103.57
196.458	101.23
196.927	56.76
197.397	110.59
197.866	122.29
198.336	129.31
198.805	148.04
199.274	157.4
199.744	152.72
200.213	232.3
200.682	171.44
201.151	236.98
201.62	283.79
202.089	211.23
202.558	260.38
203.027	276.77
203.495	262.73
203.964	258.04
204.433	272.09
204.902	288.47
205.37	234.64
205.839	279.11
206.307	281.45
206.776	358.69
207.244	279.11
207.712	274.43
208.181	302.51
208.649	311.88
209.117	323.58
209.585	330.6
210.053	281.45
210.521	286.13
210.989	272.09
211.457	323.58
211.925	328.26
212.393	236.98
212.861	225.28
213.328	283.79
213.796	290.81
214.264	344.64
214.731	281.45
215.199	255.7
215.666	225.28
216.133	255.7
216.601	274.43
217.068	297.83
217.535	323.58
218.003	232.3
218.47	295.49
218.937	272.09
219.404	302.51
219.871	248.68
220.338	279.11
220.805	267.41
221.271	251.02
221.738	290.81
222.205	234.64
222.671	269.75
223.138	225.28
223.605	279.11
224.071	232.3
224.538	246.34
225.004	241.66
225.47	260.38
225.937	293.15
226.403	279.11
226.869	267.41
227.335	265.07
227.801	274.43
228.267	262.73
228.733	260.38
229.199	337.62
229.665	337.62
230.131	304.85
230.597	302.51
231.062	218.25
231.528	297.83
231.994	321.24
232.459	262.73
232.925	248.68
233.39	267.41
233.856	302.51
234.321	276.77
234.786	279.11
235.252	323.58
235.717	332.94
236.182	220.6
236.647	286.13
237.112	307.2
237.577	276.77
238.042	337.62
238.507	244
238.972	337.62
239.436	363.37
239.901	239.32
240.366	222.94
240.83	222.94
241.295	260.38
241.76	269.75
242.224	239.32
242.688	269.75
243.153	260.38
243.617	255.7
244.081	297.83
244.545	276.77
245.01	316.56
245.474	293.15
245.938	323.58
246.402	307.2
246.866	332.94
247.33	297.83
247.793	295.49
248.257	290.81
248.721	265.07
249.185	244
249.648	293.15
250.112	253.36
250.575	293.15
251.039	220.6
251.502	279.11
251.965	314.22
252.429	325.92
252.892	314.22
253.355	351.67
253.818	293.15
254.281	361.03
254.744	241.66
255.207	290.81
255.67	290.81
256.133	276.77
256.596	286.13
257.059	302.51
257.522	232.3
257.984	316.56
258.447	253.36
258.909	328.26
259.372	300.17
259.834	363.37
260.297	251.02
260.759	269.75
261.221	321.24
261.684	274.43
262.146	218.25
262.608	279.11
263.07	316.56
263.532	361.03
263.994	244
264.456	248.68
264.918	297.83
265.38	288.47
265.842	253.36
266.303	344.64
266.765	309.54
267.227	232.3
267.688	260.38
268.15	307.2
268.611	316.56
269.072	321.24
269.534	265.07
269.995	358.69
270.456	283.79
270.918	311.88
271.379	300.17
271.84	300.17
272.301	253.36
272.762	272.09
273.223	290.81
273.684	293.15
274.144	339.96
274.605	325.92
275.066	307.2
275.527	339.96
275.987	346.98
276.448	295.49
276.908	302.51
277.369	302.51
277.829	323.58
278.289	311.88
278.75	342.3
279.21	309.54
279.67	290.81
280.13	290.81
280.59	323.58
281.05	267.41
281.51	297.83
281.97	325.92
282.43	354.01
282.89	323.58
283.35	267.41
283.809	297.83
284.269	279.11
284.729	265.07
285.188	300.17
285.648	286.13
286.107	311.88
286.567	335.28
287.026	258.04
287.485	297.83
287.944	295.49
288.404	304.85
288.863	283.79
289.322	272.09
289.781	307.2
290.24	272.09
290.699	262.73
291.158	206.55
291.616	293.15
292.075	307.2
292.534	269.75
292.992	335.28
293.451	354.01
293.91	323.58
294.368	382.09
294.827	302.51
295.285	293.15
295.743	279.11
296.202	267.41
296.66	321.24
297.118	407.84
297.576	253.36
298.034	260.38
298.492	314.22
298.95	328.26
299.408	262.73
299.866	279.11
300.324	325.92
300.781	295.49
301.239	368.05
301.697	288.47
302.154	330.6
302.612	265.07
303.069	290.81
303.527	267.41
303.984	307.2
304.441	314.22
304.899	309.54
305.356	339.96
305.813	286.13
306.27	274.43
306.727	295.49
307.184	288.47
307.641	272.09
308.098	309.54
308.555	361.03
309.012	267.41
309.468	255.7
309.925	297.83
310.382	293.15
310.838	272.09
311.295	309.54
311.751	258.04
312.208	302.51
312.664	314.22
313.12	339.96
313.577	302.51
314.033	281.45
314.489	272.09
314.945	290.81
315.401	328.26
315.857	304.85
316.313	354.01
316.769	321.24
317.225	288.47
317.681	297.83
318.136	281.45
318.592	335.28
319.048	365.71
319.503	335.28
319.959	269.75
320.414	283.79
320.869	251.02
321.325	293.15
321.78	339.96
322.235	335.28
322.691	234.64
323.146	293.15
323.601	276.77
324.056	290.81
324.511	307.2
324.966	316.56
325.421	295.49
325.875	356.35
326.33	236.98
326.785	316.56
327.24	325.92
327.694	314.22
328.149	325.92
328.603	323.58
329.058	330.6
329.512	302.51
329.966	389.11
330.421	251.02
330.875	248.68
331.329	403.16
331.783	286.13
332.237	323.58
332.691	363.37
333.145	332.94
333.599	279.11
334.053	323.58
334.507	290.81
334.96	382.09
335.414	309.54
335.868	302.51
336.321	375.07
336.775	335.28
337.228	283.79
337.682	358.69
338.135	342.3
338.588	325.92
339.042	311.88
339.495	300.17
339.948	295.49
340.401	337.62
340.854	330.6
341.307	318.9
341.76	297.83
342.213	314.22
342.666	405.5
343.119	332.94
343.571	279.11
344.024	363.37
344.477	300.17
344.929	286.13
345.382	309.54
345.834	307.2
346.287	377.41
346.739	283.79
347.191	323.58
347.644	260.38
348.096	354.01
348.548	384.43
349	361.03
349.452	318.9
349.904	307.2
350.356	344.64
350.808	344.64
351.26	346.98
351.711	358.69
352.163	339.96
352.615	354.01
353.066	316.56
353.518	307.2
353.969	384.43
354.421	346.98
354.872	288.47
355.324	339.96
355.775	283.79
356.226	283.79
356.677	279.11
357.128	316.56
357.579	290.81
358.03	346.98
358.481	328.26
358.932	279.11
359.383	246.34
359.834	274.43
360.285	325.92
360.735	349.32
361.186	255.7
361.637	356.35
362.087	346.98
362.538	236.98
362.988	328.26
363.438	281.45
363.889	302.51
364.339	321.24
364.789	295.49
365.239	354.01
365.689	307.2
366.139	328.26
366.589	328.26
367.039	365.71
367.489	325.92
367.939	302.51
368.389	339.96
368.839	265.07
369.288	354.01
369.738	372.73
370.187	295.49
370.637	361.03
371.086	342.3
371.536	311.88
371.985	325.92
372.434	295.49
372.884	295.49
373.333	323.58
373.782	267.41
374.231	288.47
374.68	300.17
375.129	300.17
375.578	346.98
376.027	328.26
376.475	339.96
376.924	293.15
377.373	405.5
377.822	279.11
378.27	297.83
378.719	253.36
379.167	300.17
379.616	262.73
380.064	283.79
380.512	297.83
380.961	307.2
381.409	255.7
381.857	288.47
382.305	267.41
382.753	339.96
383.201	391.45
383.649	370.39
384.097	232.3
384.545	337.62
384.992	318.9
385.44	330.6
385.888	314.22
386.335	363.37
386.783	363.37
387.231	269.75
387.678	318.9
388.125	356.35
388.573	363.37
389.02	330.6
389.467	283.79
389.914	307.2
390.362	339.96
390.809	311.88
391.256	351.67
391.703	276.77
392.15	335.28
392.596	370.39
393.043	276.77
393.49	314.22
393.937	346.98
394.383	321.24
394.83	365.71
395.276	328.26
395.723	318.9
396.169	283.79
396.616	346.98
397.062	325.92
397.508	330.6
397.954	349.32
398.401	332.94
398.847	344.64
399.293	288.47
399.739	332.94
400.185	258.04
400.631	314.22
401.076	335.28
401.522	283.79
401.968	309.54
402.414	332.94
402.859	361.03
403.305	307.2
403.75	262.73
404.196	293.15
404.641	346.98
405.086	286.13
405.532	363.37
405.977	372.73
406.422	361.03
406.867	321.24
407.312	332.94
407.757	288.47
408.202	382.09
408.647	318.9
409.092	234.64
409.537	351.67
409.982	316.56
410.426	316.56
410.871	307.2
411.316	311.88
411.76	281.45
412.205	316.56
412.649	339.96
413.093	349.32
413.538	337.62
413.982	349.32
414.426	302.51
414.87	337.62
415.314	318.9
415.758	302.51
416.202	295.49
416.646	300.17
417.09	335.28
417.534	269.75
417.978	290.81
418.421	300.17
418.865	293.15
419.309	344.64
419.752	302.51
420.196	377.41
420.639	363.37
421.083	412.52
421.526	321.24
421.969	323.58
422.412	351.67
422.856	325.92
423.299	302.51
423.742	295.49
424.185	286.13
424.628	304.85
425.071	325.92
425.513	304.85
425.956	328.26
426.399	276.77
426.842	337.62
427.284	316.56
427.727	276.77
428.169	368.05
428.612	300.17
429.054	255.7
429.497	307.2
429.939	332.94
430.381	323.58
430.823	288.47
431.265	351.67
431.707	288.47
432.149	318.9
432.591	318.9
433.033	293.15
433.475	276.77
433.917	344.64
434.359	302.51
434.8	325.92
435.242	286.13
435.684	346.98
436.125	344.64
436.567	300.17
437.008	377.41
437.449	379.75
437.891	354.01
438.332	358.69
438.773	293.15
439.214	375.07
439.656	300.17
440.097	236.98
440.538	332.94
440.978	267.41
441.419	363.37
441.86	236.98
442.301	337.62
442.742	309.54
443.182	365.71
443.623	321.24
444.063	304.85
444.504	316.56
444.944	354.01
445.385	297.83
445.825	295.49
446.265	346.98
446.706	288.47
447.146	297.83
447.586	255.7
448.026	332.94
448.466	339.96
448.906	339.96
449.346	316.56
449.786	323.58
450.225	384.43
450.665	412.52
451.105	393.8
451.544	339.96
451.984	356.35
452.424	302.51
452.863	288.47
453.302	288.47
453.742	328.26
454.181	293.15
454.62	318.9
455.059	279.11
455.499	335.28
455.938	330.6
456.377	276.77
456.816	325.92
457.254	297.83
457.693	297.83
458.132	356.35
458.571	361.03
459.01	307.2
459.448	321.24
459.887	297.83
460.325	321.24
460.764	318.9
461.202	363.37
461.641	342.3
462.079	335.28
462.517	346.98
462.955	293.15
463.393	372.73
463.832	356.35
464.27	396.14
464.708	349.32
465.145	318.9
465.583	325.92
466.021	391.45
466.459	389.11
466.897	346.98
467.334	307.2
467.772	339.96
468.209	354.01
468.647	332.94
469.084	363.37
469.522	307.2
469.959	290.81
470.396	325.92
470.833	332.94
471.271	293.15
471.708	330.6
472.145	274.43
472.582	293.15
473.019	351.67
473.456	295.49
473.892	295.49
474.329	356.35
474.766	276.77
475.202	346.98
475.639	309.54
476.076	290.81
476.512	339.96
476.949	332.94
477.385	311.88
477.821	274.43
478.258	325.92
478.694	337.62
479.13	332.94
479.566	393.8
480.002	332.94
480.438	335.28
480.874	316.56
481.31	318.9
481.746	283.79
482.181	286.13
482.617	311.88
483.053	283.79
483.488	386.77
483.924	346.98
484.36	258.04
484.795	337.62
485.23	276.77
485.666	337.62
486.101	307.2
486.536	309.54
486.971	325.92
487.407	370.39
487.842	325.92
488.277	241.66
488.712	339.96
489.146	302.51
489.581	309.54
490.016	307.2
490.451	368.05
490.885	328.26
491.32	281.45
491.755	297.83
492.189	363.37
492.624	379.75
493.058	349.32
493.492	354.01
493.927	330.6
494.361	251.02
494.795	300.17
495.229	318.9
495.663	358.69
496.097	356.35
496.531	349.32
496.965	382.09
497.399	349.32
497.833	276.77
498.266	349.32
498.7	356.35
499.134	349.32
499.567	290.81
500.001	398.48
500.434	267.41
500.868	368.05
501.301	337.62
501.734	283.79
502.168	309.54
502.601	281.45
503.034	379.75
503.467	321.24
503.9	272.09
504.333	358.69
504.766	335.28
505.199	337.62
505.632	361.03
506.064	297.83
506.497	281.45
506.93	316.56
507.362	349.32
507.795	328.26
508.227	372.73
508.66	321.24
509.092	307.2
509.524	281.45
509.956	368.05
510.389	372.73
510.821	337.62
511.253	302.51
511.685	382.09
512.117	379.75
512.549	339.96
512.981	307.2
513.412	304.85
513.844	274.43
514.276	281.45
514.707	276.77
515.139	311.88
515.571	276.77
516.002	332.94
516.433	325.92
516.865	365.71
517.296	276.77
517.727	304.85
518.159	342.3
518.59	358.69
519.021	330.6
519.452	267.41
519.883	314.22
520.314	389.11
520.744	332.94
521.175	342.3
521.606	300.17
522.037	267.41
522.467	295.49
522.898	323.58
523.328	351.67
523.759	339.96
524.189	304.85
524.62	323.58
525.05	262.73
525.48	351.67
525.91	309.54
526.341	281.45
526.771	342.3
527.201	251.02
527.631	337.62
528.061	302.51
528.49	311.88
528.92	332.94
529.35	386.77
529.78	368.05
530.209	351.67
530.639	286.13
531.068	318.9
531.498	332.94
531.927	398.48
532.357	290.81
532.786	323.58
533.215	283.79
533.644	323.58
534.074	248.68
534.503	335.28
534.932	379.75
535.361	365.71
535.79	295.49
536.218	332.94
536.647	321.24
537.076	295.49
537.505	321.24
537.933	300.17
538.362	393.8
538.79	417.2
539.219	323.58
539.647	351.67
540.076	349.32
540.504	354.01
540.932	304.85
541.36	258.04
541.788	286.13
542.217	351.67
542.645	311.88
543.073	309.54
543.5	267.41
543.928	300.17
544.356	276.77
544.784	337.62
545.211	316.56
545.639	332.94
546.067	325.92
546.494	407.84
546.922	321.24
547.349	316.56
547.776	337.62
548.204	255.7
548.631	337.62
549.058	356.35
549.485	265.07
549.912	316.56
550.339	332.94
550.766	274.43
551.193	325.92
551.62	332.94
552.047	302.51
552.474	309.54
552.9	332.94
553.327	325.92
553.754	337.62
554.18	328.26
554.607	358.69
555.033	389.11
555.459	311.88
555.886	288.47
556.312	321.24
556.738	361.03
557.164	346.98
557.59	267.41
558.016	349.32
558.442	332.94
558.868	342.3
559.294	377.41
559.72	318.9
560.145	379.75
560.571	332.94
560.997	323.58
561.422	295.49
561.848	339.96
562.273	276.77
562.699	365.71
563.124	304.85
563.549	290.81
563.974	356.35
564.4	253.36
564.825	325.92
565.25	356.35
565.675	358.69
566.1	321.24
566.525	274.43
566.95	283.79
567.374	311.88
567.799	309.54
568.224	276.77
568.648	314.22
569.073	290.81
569.497	361.03
569.922	330.6
570.346	356.35
570.771	332.94
571.195	358.69
571.619	267.41
572.043	318.9
572.467	293.15
572.891	300.17
573.315	314.22
573.739	309.54
574.163	368.05
574.587	304.85
575.011	316.56
575.435	346.98
575.858	297.83
576.282	332.94
576.705	342.3
577.129	269.75
577.552	339.96
577.976	339.96
578.399	267.41
578.822	332.94
579.245	283.79
579.669	332.94
580.092	342.3
580.515	323.58
580.938	309.54
581.361	300.17
581.784	379.75
582.206	300.17
582.629	309.54
583.052	316.56
583.474	260.38
583.897	323.58
584.32	302.51
584.742	288.47
585.165	335.28
585.587	288.47
586.009	318.9
586.431	304.85
586.854	349.32
587.276	311.88
587.698	316.56
588.12	321.24
588.542	342.3
588.964	332.94
589.386	295.49
589.807	339.96
590.229	356.35
590.651	328.26
591.073	304.85
591.494	314.22
591.916	351.67
592.337	335.28
592.759	339.96
593.18	300.17
593.601	356.35
594.022	295.49
594.444	297.83
594.865	318.9
595.286	302.51
595.707	335.28
596.128	309.54
596.549	335.28
596.97	288.47
597.39	351.67
597.811	339.96
598.232	269.75
598.652	330.6
599.073	330.6
599.494	328.26
599.914	337.62
600.334	293.15
600.755	244
601.175	290.81
601.595	325.92
602.015	283.79
602.436	328.26
602.856	424.22
603.276	293.15
603.696	321.24
604.115	314.22
604.535	302.51
604.955	417.2
605.375	332.94
605.794	337.62
606.214	295.49
606.634	356.35
607.053	318.9
607.473	304.85
607.892	311.88
608.311	314.22
608.731	358.69
609.15	354.01
609.569	314.22
609.988	323.58
610.407	314.22
610.826	403.16
611.245	344.64
611.664	304.85
612.083	337.62
612.501	342.3
612.92	325.92
613.339	302.51
613.757	342.3
614.176	302.51
614.594	332.94
615.013	325.92
615.431	332.94
615.85	356.35
616.268	295.49
616.686	351.67
617.104	297.83
617.522	309.54
617.94	293.15
618.358	281.45
618.776	370.39
619.194	330.6
619.612	354.01
620.03	309.54
620.447	335.28
620.865	351.67
621.282	323.58
621.7	316.56
622.117	307.2
622.535	335.28
622.952	389.11
623.369	290.81
623.787	321.24
624.204	297.83
624.621	321.24
625.038	356.35
625.455	288.47
625.872	351.67
626.289	283.79
626.706	328.26
627.123	302.51
627.539	311.88
627.956	337.62
628.373	351.67
628.789	293.15
629.206	281.45
629.622	309.54
630.038	316.56
630.455	328.26
630.871	342.3
631.287	363.37
631.703	297.83
632.12	297.83
632.536	321.24
632.952	318.9
633.368	307.2
633.783	419.54
634.199	325.92
634.615	304.85
635.031	358.69
635.446	297.83
635.862	302.51
636.277	330.6
636.693	314.22
637.108	332.94
637.524	377.41
637.939	332.94
638.354	295.49
638.77	365.71
639.185	346.98
639.6	304.85
640.015	393.8
640.43	351.67
640.845	349.32
641.259	372.73
641.674	234.64
642.089	339.96
642.504	314.22
642.918	356.35
643.333	339.96
643.747	297.83
644.162	318.9
644.576	286.13
644.991	274.43
645.405	248.68
645.819	307.2
646.233	265.07
646.647	314.22
647.061	351.67
647.475	314.22
647.889	325.92
648.303	328.26
648.717	248.68
649.131	370.39
649.545	300.17
649.958	349.32
650.372	265.07
650.785	272.09
651.199	323.58
651.612	344.64
652.026	361.03
652.439	295.49
652.852	325.92
653.266	295.49
653.679	321.24
654.092	365.71
654.505	346.98
654.918	269.75
655.331	295.49
655.744	314.22
656.156	325.92
656.569	311.88
656.982	335.28
657.394	384.43
657.807	304.85
658.22	363.37
658.632	342.3
659.044	358.69
659.457	349.32
659.869	351.67
660.281	274.43
660.693	337.62
661.106	337.62
661.518	295.49
661.93	332.94
662.342	267.41
662.754	330.6
663.165	311.88
663.577	290.81
663.989	337.62
664.401	272.09
664.812	309.54
665.224	361.03
665.635	330.6
666.047	279.11
666.458	255.7
666.869	330.6
667.281	342.3
667.692	290.81
668.103	368.05
668.514	318.9
668.925	314.22
669.336	332.94
669.747	297.83
670.158	318.9
670.569	339.96
670.979	300.17
671.39	346.98
671.801	311.88
672.211	293.15
672.622	365.71
673.032	400.82
673.443	354.01
673.853	314.22
674.263	328.26
674.674	316.56
675.084	330.6
675.494	246.34
675.904	286.13
676.314	344.64
676.724	279.11
677.134	314.22
677.544	309.54
677.953	300.17
678.363	321.24
678.773	405.5
679.182	365.71
679.592	368.05
680.001	358.69
680.411	304.85
680.82	342.3
681.23	325.92
681.639	286.13
682.048	328.26
682.457	384.43
682.866	309.54
683.275	283.79
683.684	332.94
684.093	311.88
684.502	410.18
684.911	307.2
685.32	328.26
685.728	309.54
686.137	361.03
686.546	330.6
686.954	321.24
687.363	377.41
687.771	344.64
688.179	342.3
688.588	314.22
688.996	295.49
689.404	365.71
689.812	349.32
690.22	365.71
690.628	304.85
691.036	309.54
691.444	330.6
691.852	337.62
692.26	260.38
692.667	309.54
693.075	288.47
693.483	262.73
693.89	316.56
694.298	363.37
694.705	321.24
695.112	279.11
695.52	279.11
695.927	325.92
696.334	311.88
696.741	337.62
697.148	368.05
697.555	396.14
697.962	316.56
698.369	300.17
698.776	302.51
699.183	346.98
699.59	309.54
699.996	335.28
700.403	372.73
700.81	356.35
701.216	358.69
701.623	344.64
702.029	321.24
702.435	349.32
702.842	349.32
703.248	258.04
703.654	251.02
704.06	342.3
704.466	361.03
704.872	356.35
705.278	346.98
705.684	358.69
706.09	328.26
706.496	304.85
706.901	339.96
707.307	297.83
707.712	286.13
708.118	293.15
708.523	276.77
708.929	393.8
709.334	274.43
709.74	332.94
710.145	290.81
710.55	267.41
710.955	316.56
711.36	314.22
711.765	318.9
712.17	302.51
712.575	346.98
712.98	929.78
713.385	332.94
713.789	349.32
714.194	356.35
714.599	368.05
715.003	332.94
715.408	309.54
715.812	323.58
716.217	293.15
716.621	286.13
717.025	314.22
717.429	335.28
717.833	346.98
718.238	351.67
718.642	332.94
719.046	276.77
719.449	293.15
719.853	279.11
720.257	337.62
720.661	272.09
721.065	318.9
721.468	365.71
721.872	344.64
722.275	311.88
722.679	372.73
723.082	325.92
723.485	293.15
723.889	321.24
724.292	304.85
724.695	283.79
725.098	339.96
725.501	328.26
725.904	267.41
726.307	318.9
726.71	300.17
727.113	342.3
727.516	325.92
727.918	346.98
728.321	339.96
728.724	260.38
729.126	309.54
729.529	344.64
729.931	368.05
730.333	323.58
730.736	311.88
731.138	269.75
731.54	283.79
731.942	323.58
732.344	323.58
732.746	328.26
733.148	288.47
733.55	323.58
733.952	286.13
734.354	318.9
734.756	321.24
735.157	316.56
735.559	323.58
735.96	332.94
736.362	302.51
736.763	276.77
737.165	265.07
737.566	361.03
737.967	323.58
738.368	384.43
738.77	337.62
739.171	300.17
739.572	337.62
739.973	365.71
740.374	358.69
740.774	293.15
741.175	335.28
741.576	316.56
741.977	325.92
742.377	323.58
742.778	290.81
743.178	302.51
743.579	339.96
743.979	316.56
744.379	356.35
744.78	321.24
745.18	300.17
745.58	370.39
745.98	321.24
746.38	368.05
746.78	276.77
747.18	382.09
747.58	328.26
747.98	337.62
748.38	323.58
748.779	304.85
749.179	316.56
749.578	325.92
749.978	246.34
750.377	328.26
750.777	328.26
751.176	269.75
751.575	274.43
751.975	318.9
752.374	358.69
752.773	302.51
753.172	316.56
753.571	220.6
753.97	293.15
754.369	309.54
754.768	295.49
755.166	344.64
755.565	314.22
755.964	384.43
756.362	325.92
756.761	328.26
757.159	363.37
757.558	346.98
757.956	302.51
758.354	372.73
758.753	293.15
759.151	330.6
759.549	283.79
759.947	318.9
760.345	269.75
760.743	314.22
761.141	375.07
761.539	276.77
761.936	358.69
762.334	302.51
762.732	342.3
763.129	358.69
763.527	304.85
763.924	384.43
764.322	318.9
764.719	375.07
765.117	351.67
765.514	356.35
