Data from Al_FLMS009871__712__15-09-05-934.txt Node

Date: Fri Mar 08 15:09:05 CST 2024
User: pe5414po
Spectrometer: FLMS00987
Trigger mode: 0
Integration Time (sec): 1.000000E-1
Scans to average: 1
Electric dark correction enabled: true
Nonlinearity correction enabled: false
Boxcar width: 0
XAxis mode: Wavelengths
Number of Pixels in Spectrum: 2048
>>>>>Begin Spectral Data<<<<<
188.938	-141.02
189.409	-141.02
189.879	-141.02
190.349	-141.02
190.819	-108.25
191.29	-84.84
191.76	-108.25
192.23	-124.63
192.7	-56.76
193.17	-124.63
193.64	-38.03
194.109	29.84
194.579	-19.31
195.049	18.14
195.519	46.23
195.988	-9.95
196.458	100.06
196.927	60.27
197.397	107.08
197.866	102.4
198.336	102.4
198.805	111.76
199.274	95.38
199.744	137.51
200.213	172.61
200.682	224.11
201.151	200.7
201.62	207.72
202.089	219.43
202.558	273.26
203.027	252.19
203.495	301.34
203.964	221.77
204.433	338.79
204.902	296.66
205.37	308.37
205.839	310.71
206.307	270.92
206.776	259.21
207.244	247.51
207.712	313.05
208.181	315.39
208.649	247.51
209.117	210.06
209.585	245.17
210.053	306.03
210.521	275.6
210.989	245.17
211.457	254.53
211.925	296.66
212.393	303.68
212.861	249.85
213.328	207.72
213.796	231.13
214.264	238.15
214.731	198.36
215.199	247.51
215.666	240.49
216.133	233.47
216.601	306.03
217.068	221.77
217.535	287.3
218.003	256.87
218.47	224.11
218.937	224.11
219.404	242.83
219.871	210.06
220.338	310.71
220.805	280.28
221.271	270.92
221.738	247.51
222.205	207.72
222.671	249.85
223.138	256.87
223.605	294.32
224.071	291.98
224.538	217.08
225.004	214.74
225.47	226.45
225.937	291.98
226.403	235.81
226.869	189
227.335	214.74
227.801	277.94
228.267	291.98
228.733	277.94
229.199	231.13
229.665	294.32
230.131	247.51
230.597	235.81
231.062	289.64
231.528	322.41
231.994	324.75
232.459	226.45
232.925	240.49
233.39	205.38
233.856	259.21
234.321	275.6
234.786	277.94
235.252	219.43
235.717	280.28
236.182	280.28
236.647	235.81
237.112	214.74
237.577	226.45
238.042	256.87
238.507	308.37
238.972	287.3
239.436	261.55
239.901	165.59
240.366	170.27
240.83	275.6
241.295	266.24
241.76	289.64
242.224	200.7
242.688	282.62
243.153	329.43
243.617	249.85
244.081	256.87
244.545	291.98
245.01	212.4
245.474	217.08
245.938	256.87
246.402	287.3
246.866	277.94
247.33	224.11
247.793	235.81
248.257	296.66
248.721	308.37
249.185	228.79
249.648	219.43
250.112	259.21
250.575	313.05
251.039	294.32
251.502	207.72
251.965	235.81
252.429	252.19
252.892	231.13
253.355	310.71
253.818	254.53
254.281	231.13
254.744	186.66
255.207	261.55
255.67	306.03
256.133	268.58
256.596	299
257.059	294.32
257.522	322.41
257.984	238.15
258.447	252.19
258.909	261.55
259.372	193.68
259.834	329.43
260.297	306.03
260.759	317.73
261.221	242.83
261.684	238.15
262.146	315.39
262.608	219.43
263.07	266.24
263.532	327.09
263.994	217.08
264.456	299
264.918	226.45
265.38	329.43
265.842	196.02
266.303	268.58
266.765	196.02
267.227	235.81
267.688	273.26
268.15	256.87
268.611	331.77
269.072	247.51
269.534	301.34
269.995	273.26
270.456	315.39
270.918	287.3
271.379	273.26
271.84	235.81
272.301	268.58
272.762	266.24
273.223	214.74
273.684	231.13
274.144	306.03
274.605	266.24
275.066	310.71
275.527	289.64
275.987	205.38
276.448	341.13
276.908	329.43
277.369	291.98
277.829	303.68
278.289	256.87
278.75	259.21
279.21	296.66
279.67	343.47
280.13	306.03
280.59	254.53
281.05	303.68
281.51	214.74
281.97	256.87
282.43	289.64
282.89	287.3
283.35	291.98
283.809	280.28
284.269	263.9
284.729	313.05
285.188	294.32
285.648	287.3
286.107	284.96
286.567	306.03
287.026	329.43
287.485	263.9
287.944	252.19
288.404	334.11
288.863	303.68
289.322	338.79
289.781	245.17
290.24	280.28
290.699	266.24
291.158	301.34
291.616	296.66
292.075	287.3
292.534	228.79
292.992	268.58
293.451	287.3
293.91	327.09
294.368	266.24
294.827	315.39
295.285	294.32
295.743	294.32
296.202	280.28
296.66	310.71
297.118	238.15
297.576	277.94
298.034	193.68
298.492	350.5
298.95	249.85
299.408	301.34
299.866	210.06
300.324	275.6
300.781	268.58
301.239	242.83
301.697	306.03
302.154	310.71
302.612	212.4
303.069	289.64
303.527	327.09
303.984	331.77
304.441	226.45
304.899	261.55
305.356	313.05
305.813	270.92
306.27	306.03
306.727	249.85
307.184	336.45
307.641	324.75
308.098	256.87
308.555	308.37
309.012	299
309.468	247.51
309.925	299
310.382	282.62
310.838	275.6
311.295	322.41
311.751	282.62
312.208	322.41
312.664	306.03
313.12	277.94
313.577	320.07
314.033	254.53
314.489	263.9
314.945	299
315.401	336.45
315.857	320.07
316.313	296.66
316.769	291.98
317.225	345.81
317.681	308.37
318.136	263.9
318.592	317.73
319.048	249.85
319.503	280.28
319.959	336.45
320.414	310.71
320.869	252.19
321.325	275.6
321.78	242.83
322.235	364.54
322.691	301.34
323.146	303.68
323.601	315.39
324.056	210.06
324.511	341.13
324.966	273.26
325.421	301.34
325.875	242.83
326.33	277.94
326.785	282.62
327.24	301.34
327.694	352.84
328.149	336.45
328.603	252.19
329.058	334.11
329.512	320.07
329.966	327.09
330.421	228.79
330.875	252.19
331.329	341.13
331.783	366.88
332.237	252.19
332.691	268.58
333.145	322.41
333.599	306.03
334.053	268.58
334.507	280.28
334.96	284.96
335.414	296.66
335.868	275.6
336.321	275.6
336.775	317.73
337.228	320.07
337.682	308.37
338.135	254.53
338.588	282.62
339.042	336.45
339.495	301.34
339.948	299
340.401	245.17
340.854	263.9
341.307	247.51
341.76	231.13
342.213	280.28
342.666	273.26
343.119	362.2
343.571	296.66
344.024	345.81
344.477	266.24
344.929	348.15
345.382	299
345.834	275.6
346.287	289.64
346.739	277.94
347.191	268.58
347.644	284.96
348.096	310.71
348.548	299
349	308.37
349.452	280.28
349.904	301.34
350.356	263.9
350.808	308.37
351.26	294.32
351.711	341.13
352.163	282.62
352.615	231.13
353.066	299
353.518	315.39
353.969	291.98
354.421	263.9
354.872	303.68
355.324	280.28
355.775	289.64
356.226	301.34
356.677	296.66
357.128	301.34
357.579	284.96
358.03	238.15
358.481	277.94
358.932	256.87
359.383	291.98
359.834	263.9
360.285	320.07
360.735	224.11
361.186	203.04
361.637	249.85
362.087	263.9
362.538	310.71
362.988	313.05
363.438	284.96
363.889	275.6
364.339	273.26
364.789	245.17
365.239	301.34
365.689	310.71
366.139	334.11
366.589	296.66
367.039	338.79
367.489	324.75
367.939	301.34
368.389	303.68
368.839	280.28
369.288	306.03
369.738	294.32
370.187	277.94
370.637	291.98
371.086	294.32
371.536	256.87
371.985	301.34
372.434	247.51
372.884	338.79
373.333	343.47
373.782	287.3
374.231	249.85
374.68	259.21
375.129	249.85
375.578	280.28
376.027	303.68
376.475	256.87
376.924	355.18
377.373	270.92
377.822	303.68
378.27	334.11
378.719	296.66
379.167	369.22
379.616	308.37
380.064	231.13
380.512	313.05
380.961	280.28
381.409	235.81
381.857	280.28
382.305	299
382.753	268.58
383.201	228.79
383.649	282.62
384.097	322.41
384.545	289.64
384.992	317.73
385.44	268.58
385.888	263.9
386.335	291.98
386.783	308.37
387.231	369.22
387.678	317.73
388.125	334.11
388.573	249.85
389.02	280.28
389.467	315.39
389.914	242.83
390.362	280.28
390.809	280.28
391.256	294.32
391.703	294.32
392.15	299
392.596	350.5
393.043	247.51
393.49	301.34
393.937	291.98
394.383	294.32
394.83	226.45
395.276	357.52
395.723	282.62
396.169	310.71
396.616	315.39
397.062	324.75
397.508	320.07
397.954	324.75
398.401	282.62
398.847	299
399.293	224.11
399.739	277.94
400.185	289.64
400.631	249.85
401.076	359.86
401.522	341.13
401.968	280.28
402.414	289.64
402.859	317.73
403.305	320.07
403.75	324.75
404.196	317.73
404.641	308.37
405.086	308.37
405.532	352.84
405.977	252.19
406.422	303.68
406.867	303.68
407.312	299
407.757	261.55
408.202	275.6
408.647	301.34
409.092	268.58
409.537	331.77
409.982	289.64
410.426	296.66
410.871	320.07
411.316	247.51
411.76	249.85
412.205	294.32
412.649	341.13
413.093	254.53
413.538	231.13
413.982	252.19
414.426	291.98
414.87	212.4
415.314	259.21
415.758	289.64
416.202	228.79
416.646	376.24
417.09	317.73
417.534	322.41
417.978	308.37
418.421	282.62
418.865	315.39
419.309	289.64
419.752	291.98
420.196	308.37
420.639	324.75
421.083	322.41
421.526	270.92
421.969	296.66
422.412	308.37
422.856	313.05
423.299	291.98
423.742	313.05
424.185	261.55
424.628	289.64
425.071	287.3
425.513	217.08
425.956	310.71
426.399	294.32
426.842	261.55
427.284	252.19
427.727	301.34
428.169	254.53
428.612	310.71
429.054	252.19
429.497	299
429.939	343.47
430.381	352.84
430.823	277.94
431.265	289.64
431.707	252.19
432.149	294.32
432.591	331.77
433.033	313.05
433.475	331.77
433.917	294.32
434.359	291.98
434.8	320.07
435.242	329.43
435.684	263.9
436.125	254.53
436.567	301.34
437.008	273.26
437.449	259.21
437.891	263.9
438.332	282.62
438.773	263.9
439.214	282.62
439.656	219.43
440.097	231.13
440.538	231.13
440.978	296.66
441.419	268.58
441.86	291.98
442.301	256.87
442.742	266.24
443.182	317.73
443.623	289.64
444.063	296.66
444.504	362.2
444.944	268.58
445.385	252.19
445.825	299
446.265	280.28
446.706	345.81
447.146	313.05
447.586	317.73
448.026	364.54
448.466	247.51
448.906	317.73
449.346	334.11
449.786	284.96
450.225	341.13
450.665	329.43
451.105	289.64
451.544	303.68
451.984	329.43
452.424	282.62
452.863	273.26
453.302	284.96
453.742	366.88
454.181	334.11
454.62	249.85
455.059	287.3
455.499	306.03
455.938	352.84
456.377	299
456.816	294.32
457.254	299
457.693	270.92
458.132	299
458.571	299
459.01	296.66
459.448	242.83
459.887	350.5
460.325	313.05
460.764	275.6
461.202	299
461.641	289.64
462.079	366.88
462.517	259.21
462.955	324.75
463.393	270.92
463.832	256.87
464.27	245.17
464.708	303.68
465.145	289.64
465.583	299
466.021	259.21
466.459	310.71
466.897	306.03
467.334	261.55
467.772	294.32
468.209	355.18
468.647	324.75
469.084	355.18
469.522	341.13
469.959	291.98
470.396	294.32
470.833	331.77
471.271	294.32
471.708	268.58
472.145	306.03
472.582	352.84
473.019	301.34
473.456	291.98
473.892	247.51
474.329	313.05
474.766	322.41
475.202	357.52
475.639	310.71
476.076	226.45
476.512	268.58
476.949	306.03
477.385	277.94
477.821	306.03
478.258	268.58
478.694	359.86
479.13	247.51
479.566	238.15
480.002	313.05
480.438	327.09
480.874	287.3
481.31	291.98
481.746	320.07
482.181	301.34
482.617	256.87
483.053	294.32
483.488	338.79
483.924	334.11
484.36	306.03
484.795	343.47
485.23	343.47
485.666	343.47
486.101	266.24
486.536	284.96
486.971	284.96
487.407	261.55
487.842	336.45
488.277	301.34
488.712	329.43
489.146	263.9
489.581	364.54
490.016	331.77
490.451	235.81
490.885	315.39
491.32	273.26
491.755	247.51
492.189	306.03
492.624	324.75
493.058	364.54
493.492	310.71
493.927	235.81
494.361	313.05
494.795	280.28
495.229	252.19
495.663	291.98
496.097	263.9
496.531	254.53
496.965	369.22
497.399	350.5
497.833	343.47
498.266	263.9
498.7	235.81
499.134	329.43
499.567	277.94
500.001	308.37
500.434	259.21
500.868	315.39
501.301	334.11
501.734	270.92
502.168	331.77
502.601	341.13
503.034	331.77
503.467	331.77
503.9	294.32
504.333	338.79
504.766	301.34
505.199	362.2
505.632	282.62
506.064	329.43
506.497	277.94
506.93	287.3
507.362	275.6
507.795	324.75
508.227	249.85
508.66	256.87
509.092	378.58
509.524	348.15
509.956	303.68
510.389	373.9
510.821	371.56
511.253	334.11
511.685	282.62
512.117	310.71
512.549	284.96
512.981	327.09
513.412	345.81
513.844	268.58
514.276	287.3
514.707	273.26
515.139	289.64
515.571	308.37
516.002	270.92
516.433	313.05
516.865	315.39
517.296	317.73
517.727	261.55
518.159	261.55
518.59	310.71
519.021	359.86
519.452	299
519.883	247.51
520.314	378.58
520.744	245.17
521.175	291.98
521.606	294.32
522.037	320.07
522.467	282.62
522.898	366.88
523.328	291.98
523.759	259.21
524.189	301.34
524.62	277.94
525.05	324.75
525.48	301.34
525.91	341.13
526.341	240.49
526.771	252.19
527.201	397.31
527.631	259.21
528.061	282.62
528.49	303.68
528.92	299
529.35	268.58
529.78	345.81
530.209	282.62
530.639	268.58
531.068	308.37
531.498	327.09
531.927	308.37
532.357	287.3
532.786	327.09
533.215	256.87
533.644	327.09
534.074	294.32
534.503	205.38
534.932	317.73
535.361	320.07
535.79	289.64
536.218	320.07
536.647	327.09
537.076	336.45
537.505	329.43
537.933	280.28
538.362	296.66
538.79	284.96
539.219	275.6
539.647	254.53
540.076	280.28
540.504	392.62
540.932	310.71
541.36	287.3
541.788	306.03
542.217	327.09
542.645	284.96
543.073	268.58
543.5	256.87
543.928	303.68
544.356	355.18
544.784	343.47
545.211	280.28
545.639	254.53
546.067	263.9
546.494	317.73
546.922	252.19
547.349	355.18
547.776	334.11
548.204	324.75
548.631	369.22
549.058	247.51
549.485	313.05
549.912	341.13
550.339	317.73
550.766	259.21
551.193	352.84
551.62	254.53
552.047	348.15
552.474	280.28
552.9	303.68
553.327	317.73
553.754	306.03
554.18	273.26
554.607	303.68
555.033	376.24
555.459	322.41
555.886	355.18
556.312	348.15
556.738	329.43
557.164	268.58
557.59	334.11
558.016	210.06
558.442	348.15
558.868	273.26
559.294	345.81
559.72	331.77
560.145	263.9
560.571	357.52
560.997	282.62
561.422	322.41
561.848	287.3
562.273	334.11
562.699	291.98
563.124	259.21
563.549	306.03
563.974	275.6
564.4	322.41
564.825	315.39
565.25	303.68
565.675	270.92
566.1	315.39
566.525	334.11
566.95	313.05
567.374	306.03
567.799	313.05
568.224	256.87
568.648	313.05
569.073	334.11
569.497	280.28
569.922	254.53
570.346	334.11
570.771	306.03
571.195	228.79
571.619	275.6
572.043	259.21
572.467	289.64
572.891	299
573.315	343.47
573.739	263.9
574.163	280.28
574.587	308.37
575.011	359.86
575.435	317.73
575.858	320.07
576.282	294.32
576.705	270.92
577.129	282.62
577.552	355.18
577.976	338.79
578.399	245.17
578.822	313.05
579.245	306.03
579.669	280.28
580.092	296.66
580.515	315.39
580.938	301.34
581.361	308.37
581.784	228.79
582.206	313.05
582.629	308.37
583.052	301.34
583.474	345.81
583.897	343.47
584.32	371.56
584.742	270.92
585.165	291.98
585.587	299
586.009	327.09
586.431	355.18
586.854	359.86
587.276	320.07
587.698	308.37
588.12	322.41
588.542	303.68
588.964	357.52
589.386	310.71
589.807	308.37
590.229	366.88
590.651	249.85
591.073	348.15
591.494	268.58
591.916	299
592.337	306.03
592.759	294.32
593.18	249.85
593.601	303.68
594.022	355.18
594.444	341.13
594.865	268.58
595.286	355.18
595.707	291.98
596.128	303.68
596.549	320.07
596.97	327.09
597.39	308.37
597.811	268.58
598.232	282.62
598.652	277.94
599.073	284.96
599.494	214.74
599.914	284.96
600.334	310.71
600.755	294.32
601.175	315.39
601.595	247.51
602.015	263.9
602.436	296.66
602.856	394.97
603.276	313.05
603.696	329.43
604.115	291.98
604.535	355.18
604.955	324.75
605.375	329.43
605.794	273.26
606.214	282.62
606.634	266.24
607.053	331.77
607.473	291.98
607.892	268.58
608.311	273.26
608.731	245.17
609.15	310.71
609.569	259.21
609.988	303.68
610.407	338.79
610.826	249.85
611.245	343.47
611.664	317.73
612.083	268.58
612.501	315.39
612.92	341.13
613.339	270.92
613.757	303.68
614.176	359.86
614.594	308.37
615.013	263.9
615.431	294.32
615.85	296.66
616.268	296.66
616.686	308.37
617.104	310.71
617.522	268.58
617.94	327.09
618.358	341.13
618.776	284.96
619.194	296.66
619.612	280.28
620.03	233.47
620.447	217.08
620.865	273.26
621.282	317.73
621.7	327.09
622.117	284.96
622.535	287.3
622.952	291.98
623.369	280.28
623.787	355.18
624.204	306.03
624.621	289.64
625.038	306.03
625.455	284.96
625.872	256.87
626.289	284.96
626.706	270.92
627.123	336.45
627.539	371.56
627.956	320.07
628.373	315.39
628.789	331.77
629.206	313.05
629.622	256.87
630.038	282.62
630.455	327.09
630.871	357.52
631.287	249.85
631.703	296.66
632.12	291.98
632.536	247.51
632.952	259.21
633.368	303.68
633.783	345.81
634.199	287.3
634.615	320.07
635.031	284.96
635.446	301.34
635.862	313.05
636.277	322.41
636.693	366.88
637.108	320.07
637.524	427.73
637.939	320.07
638.354	334.11
638.77	282.62
639.185	371.56
639.6	294.32
640.015	334.11
640.43	331.77
640.845	306.03
641.259	289.64
641.674	291.98
642.089	242.83
642.504	315.39
642.918	294.32
643.333	261.55
643.747	315.39
644.162	313.05
644.576	275.6
644.991	306.03
645.405	308.37
645.819	299
646.233	324.75
646.647	291.98
647.061	280.28
647.475	303.68
647.889	284.96
648.303	284.96
648.717	301.34
649.131	303.68
649.545	273.26
649.958	291.98
650.372	362.2
650.785	306.03
651.199	306.03
651.612	306.03
652.026	324.75
652.439	317.73
652.852	242.83
653.266	270.92
653.679	322.41
654.092	233.47
654.505	350.5
654.918	284.96
655.331	327.09
655.744	301.34
656.156	299
656.569	291.98
656.982	352.84
657.394	275.6
657.807	296.66
658.22	308.37
658.632	343.47
659.044	233.47
659.457	310.71
659.869	331.77
660.281	313.05
660.693	242.83
661.106	299
661.518	306.03
661.93	324.75
662.342	352.84
662.754	284.96
663.165	299
663.577	294.32
663.989	308.37
664.401	317.73
664.812	240.49
665.224	256.87
665.635	254.53
666.047	359.86
666.458	219.43
666.869	294.32
667.281	343.47
667.692	301.34
668.103	277.94
668.514	301.34
668.925	217.08
669.336	350.5
669.747	263.9
670.158	378.58
670.569	348.15
670.979	362.2
671.39	334.11
671.801	329.43
672.211	268.58
672.622	273.26
673.032	284.96
673.443	270.92
673.853	282.62
674.263	406.67
674.674	263.9
675.084	310.71
675.494	345.81
675.904	268.58
676.314	235.81
676.724	287.3
677.134	301.34
677.544	322.41
677.953	289.64
678.363	357.52
678.773	336.45
679.182	277.94
679.592	334.11
680.001	294.32
680.411	245.17
680.82	336.45
681.23	289.64
681.639	313.05
682.048	362.2
682.457	296.66
682.866	299
683.275	299
683.684	329.43
684.093	289.64
684.502	275.6
684.911	266.24
685.32	327.09
685.728	324.75
686.137	341.13
686.546	324.75
686.954	249.85
687.363	327.09
687.771	406.67
688.179	287.3
688.588	350.5
688.996	303.68
689.404	322.41
689.812	249.85
690.22	331.77
690.628	343.47
691.036	249.85
691.444	334.11
691.852	284.96
692.26	315.39
692.667	303.68
693.075	289.64
693.483	256.87
693.89	277.94
694.298	289.64
694.705	282.62
695.112	280.28
695.52	259.21
695.927	299
696.334	322.41
696.741	245.17
697.148	233.47
697.555	256.87
697.962	299
698.369	198.36
698.776	329.43
699.183	252.19
699.59	282.62
699.996	317.73
700.403	301.34
700.81	301.34
701.216	280.28
701.623	235.81
702.029	275.6
702.435	310.71
702.842	338.79
703.248	289.64
703.654	324.75
704.06	343.47
704.466	249.85
704.872	310.71
705.278	331.77
705.684	256.87
706.09	336.45
706.496	308.37
706.901	273.26
707.307	282.62
707.712	315.39
708.118	280.28
708.523	270.92
708.929	310.71
709.334	320.07
709.74	317.73
710.145	299
710.55	317.73
710.955	362.2
711.36	301.34
711.765	327.09
712.17	313.05
712.575	275.6
712.98	809.24
713.385	362.2
713.789	266.24
714.194	338.79
714.599	273.26
715.003	263.9
715.408	247.51
715.812	324.75
716.217	301.34
716.621	334.11
717.025	357.52
717.429	263.9
717.833	350.5
718.238	329.43
718.642	308.37
719.046	273.26
719.449	329.43
719.853	296.66
720.257	320.07
720.661	270.92
721.065	338.79
721.468	277.94
721.872	322.41
722.275	263.9
722.679	261.55
723.082	268.58
723.485	294.32
723.889	324.75
724.292	259.21
724.695	313.05
725.098	252.19
725.501	291.98
725.904	256.87
726.307	289.64
726.71	282.62
727.113	345.81
727.516	357.52
727.918	334.11
728.321	308.37
728.724	268.58
729.126	336.45
729.529	310.71
729.931	238.15
730.333	266.24
730.736	256.87
731.138	261.55
731.54	315.39
731.942	301.34
732.344	324.75
732.746	268.58
733.148	270.92
733.55	336.45
733.952	296.66
734.354	387.94
734.756	345.81
735.157	270.92
735.559	299
735.96	275.6
736.362	385.6
736.763	284.96
737.165	261.55
737.566	266.24
737.967	268.58
738.368	273.26
738.77	301.34
739.171	322.41
739.572	277.94
739.973	331.77
740.374	282.62
740.774	277.94
741.175	306.03
741.576	280.28
741.977	273.26
742.377	231.13
742.778	317.73
743.178	294.32
743.579	242.83
743.979	306.03
744.379	313.05
744.78	247.51
745.18	338.79
745.58	303.68
745.98	313.05
746.38	296.66
746.78	301.34
747.18	376.24
747.58	315.39
747.98	301.34
748.38	322.41
748.779	287.3
749.179	240.49
749.578	308.37
749.978	301.34
750.377	301.34
750.777	247.51
751.176	214.74
751.575	261.55
751.975	259.21
752.374	277.94
752.773	277.94
753.172	280.28
753.571	313.05
753.97	313.05
754.369	336.45
754.768	252.19
755.166	322.41
755.565	306.03
755.964	296.66
756.362	317.73
756.761	308.37
757.159	259.21
757.558	289.64
757.956	294.32
758.354	284.96
758.753	331.77
759.151	275.6
759.549	322.41
759.947	273.26
760.345	291.98
760.743	282.62
761.141	334.11
761.539	296.66
761.936	306.03
762.334	282.62
762.732	217.08
763.129	345.81
763.527	313.05
763.924	299
764.322	315.39
764.719	249.85
765.117	284.96
765.514	287.3
765.911	289.64
766.308	355.18
766.705	322.41
767.102	301.34
