Data from Al_FLMS009871__718__15-09-06-534.txt Node

Date: Fri Mar 08 15:09:06 CST 2024
User: pe5414po
Spectrometer: FLMS00987
Trigger mode: 0
Integration Time (sec): 1.000000E-1
Scans to average: 1
Electric dark correction enabled: true
Nonlinearity correction enabled: false
Boxcar width: 0
XAxis mode: Wavelengths
Number of Pixels in Spectrum: 2048
>>>>>Begin Spectral Data<<<<<
188.938	-90.99
189.409	-90.99
189.879	-90.99
190.349	-95.67
190.819	-116.73
191.29	-109.71
191.76	-67.58
192.23	-86.31
192.7	-79.29
193.17	-62.9
193.64	-72.26
194.109	-46.52
194.579	-51.2
195.049	54.12
195.519	63.49
195.988	49.44
196.458	23.7
196.927	63.49
197.397	93.91
197.866	136.04
198.336	91.57
198.805	119.66
199.274	220.3
199.744	140.72
200.213	217.96
200.682	239.03
201.151	206.26
201.62	278.82
202.089	253.07
202.558	246.05
203.027	269.45
203.495	295.2
203.964	229.67
204.433	267.11
204.902	250.73
205.37	285.84
205.839	269.45
206.307	250.73
206.776	217.96
207.244	299.88
207.712	283.5
208.181	299.88
208.649	337.33
209.117	316.26
209.585	262.43
210.053	316.26
210.521	323.29
210.989	281.16
211.457	318.61
211.925	285.84
212.393	239.03
212.861	292.86
213.328	309.24
213.796	313.92
214.264	306.9
214.731	274.14
215.199	302.22
215.666	299.88
216.133	320.95
216.601	262.43
217.068	269.45
217.535	260.09
218.003	210.94
218.47	302.22
218.937	196.9
219.404	248.39
219.871	281.16
220.338	203.92
220.805	349.03
221.271	281.16
221.738	316.26
222.205	253.07
222.671	192.22
223.138	255.41
223.605	267.11
224.071	262.43
224.538	267.11
225.004	255.41
225.47	288.18
225.937	269.45
226.403	299.88
226.869	236.69
227.335	288.18
227.801	257.75
228.267	276.48
228.733	192.22
229.199	278.82
229.665	234.35
230.131	227.32
230.597	288.18
231.062	316.26
231.528	224.98
231.994	299.88
232.459	292.86
232.925	248.39
233.39	257.75
233.856	323.29
234.321	313.92
234.786	260.09
235.252	203.92
235.717	222.64
236.182	339.67
236.647	292.86
237.112	276.48
237.577	346.69
238.042	304.56
238.507	278.82
238.972	274.14
239.436	283.5
239.901	332.65
240.366	288.18
240.83	215.62
241.295	269.45
241.76	236.69
242.224	325.63
242.688	295.2
243.153	267.11
243.617	220.3
244.081	334.99
244.545	290.52
245.01	283.5
245.474	311.58
245.938	320.95
246.402	304.56
246.866	285.84
247.33	274.14
247.793	320.95
248.257	306.9
248.721	320.95
249.185	255.41
249.648	297.54
250.112	255.41
250.575	332.65
251.039	302.22
251.502	274.14
251.965	285.84
252.429	306.9
252.892	302.22
253.355	334.99
253.818	236.69
254.281	302.22
254.744	295.2
255.207	232.01
255.67	220.3
256.133	330.31
256.596	306.9
257.059	278.82
257.522	337.33
257.984	306.9
258.447	367.76
258.909	309.24
259.372	290.52
259.834	290.52
260.297	187.54
260.759	306.9
261.221	276.48
261.684	299.88
262.146	290.52
262.608	313.92
263.07	253.07
263.532	292.86
263.994	267.11
264.456	309.24
264.918	274.14
265.38	332.65
265.842	353.71
266.303	334.99
266.765	309.24
267.227	292.86
267.688	330.31
268.15	337.33
268.611	313.92
269.072	318.61
269.534	325.63
269.995	302.22
270.456	299.88
270.918	288.18
271.379	285.84
271.84	290.52
272.301	250.73
272.762	337.33
273.223	327.97
273.684	264.77
274.144	290.52
274.605	281.16
275.066	253.07
275.527	290.52
275.987	297.54
276.448	276.48
276.908	332.65
277.369	351.37
277.829	285.84
278.289	318.61
278.75	325.63
279.21	283.5
279.67	232.01
280.13	278.82
280.59	281.16
281.05	327.97
281.51	288.18
281.97	243.71
282.43	290.52
282.89	323.29
283.35	271.79
283.809	220.3
284.269	281.16
284.729	356.05
285.188	274.14
285.648	290.52
286.107	334.99
286.567	229.67
287.026	323.29
287.485	330.31
287.944	299.88
288.404	285.84
288.863	264.77
289.322	306.9
289.781	288.18
290.24	299.88
290.699	330.31
291.158	297.54
291.616	290.52
292.075	337.33
292.534	290.52
292.992	274.14
293.451	309.24
293.91	360.74
294.368	323.29
294.827	290.52
295.285	344.35
295.743	262.43
296.202	297.54
296.66	306.9
297.118	323.29
297.576	313.92
298.034	304.56
298.492	318.61
298.95	337.33
299.408	325.63
299.866	320.95
300.324	339.67
300.781	379.46
301.239	309.24
301.697	262.43
302.154	302.22
302.612	306.9
303.069	274.14
303.527	299.88
303.984	276.48
304.441	353.71
304.899	309.24
305.356	236.69
305.813	313.92
306.27	250.73
306.727	318.61
307.184	323.29
307.641	320.95
308.098	358.39
308.555	444.99
309.012	248.39
309.468	274.14
309.925	283.5
310.382	339.67
310.838	302.22
311.295	311.58
311.751	255.41
312.208	353.71
312.664	278.82
313.12	283.5
313.577	292.86
314.033	339.67
314.489	276.48
314.945	281.16
315.401	260.09
315.857	330.31
316.313	297.54
316.769	302.22
317.225	281.16
317.681	257.75
318.136	217.96
318.592	337.33
319.048	325.63
319.503	243.71
319.959	316.26
320.414	297.54
320.869	290.52
321.325	309.24
321.78	290.52
322.235	295.2
322.691	304.56
323.146	271.79
323.601	304.56
324.056	248.39
324.511	325.63
324.966	330.31
325.421	342.01
325.875	278.82
326.33	250.73
326.785	304.56
327.24	236.69
327.694	311.58
328.149	309.24
328.603	290.52
329.058	358.39
329.512	264.77
329.966	334.99
330.421	356.05
330.875	309.24
331.329	297.54
331.783	288.18
332.237	295.2
332.691	323.29
333.145	281.16
333.599	346.69
334.053	337.33
334.507	297.54
334.96	288.18
335.414	299.88
335.868	299.88
336.321	323.29
336.775	309.24
337.228	304.56
337.682	332.65
338.135	304.56
338.588	292.86
339.042	384.14
339.495	349.03
339.948	306.9
340.401	320.95
340.854	330.31
341.307	290.52
341.76	306.9
342.213	248.39
342.666	377.12
343.119	344.35
343.571	323.29
344.024	323.29
344.477	306.9
344.929	250.73
345.382	271.79
345.834	334.99
346.287	274.14
346.739	337.33
347.191	304.56
347.644	365.42
348.096	285.84
348.548	278.82
349	351.37
349.452	250.73
349.904	342.01
350.356	302.22
350.808	290.52
351.26	353.71
351.711	351.37
352.163	334.99
352.615	292.86
353.066	318.61
353.518	309.24
353.969	334.99
354.421	365.42
354.872	255.41
355.324	379.46
355.775	299.88
356.226	295.2
356.677	374.78
357.128	302.22
357.579	339.67
358.03	351.37
358.481	311.58
358.932	351.37
359.383	320.95
359.834	283.5
360.285	250.73
360.735	316.26
361.186	283.5
361.637	316.26
362.087	269.45
362.538	360.74
362.988	370.1
363.438	353.71
363.889	323.29
364.339	290.52
364.789	320.95
365.239	330.31
365.689	309.24
366.139	306.9
366.589	313.92
367.039	283.5
367.489	260.09
367.939	360.74
368.389	299.88
368.839	232.01
369.288	334.99
369.738	271.79
370.187	349.03
370.637	257.75
371.086	327.97
371.536	290.52
371.985	327.97
372.434	325.63
372.884	330.31
373.333	337.33
373.782	299.88
374.231	304.56
374.68	360.74
375.129	278.82
375.578	337.33
376.027	332.65
376.475	400.52
376.924	339.67
377.373	271.79
377.822	356.05
378.27	320.95
378.719	356.05
379.167	339.67
379.616	243.71
380.064	295.2
380.512	302.22
380.961	290.52
381.409	302.22
381.857	304.56
382.305	372.44
382.753	386.48
383.201	271.79
383.649	297.54
384.097	325.63
384.545	323.29
384.992	400.52
385.44	351.37
385.888	309.24
386.335	327.97
386.783	274.14
387.231	313.92
387.678	232.01
388.125	309.24
388.573	309.24
389.02	320.95
389.467	302.22
389.914	276.48
390.362	318.61
390.809	318.61
391.256	316.26
391.703	297.54
392.15	297.54
392.596	393.5
393.043	416.91
393.49	318.61
393.937	323.29
394.383	248.39
394.83	327.97
395.276	246.05
395.723	304.56
396.169	278.82
396.616	297.54
397.062	360.74
397.508	316.26
397.954	302.22
398.401	285.84
398.847	313.92
399.293	246.05
399.739	276.48
400.185	302.22
400.631	302.22
401.076	349.03
401.522	316.26
401.968	363.08
402.414	334.99
402.859	302.22
403.305	325.63
403.75	248.39
404.196	337.33
404.641	337.33
405.086	250.73
405.532	337.33
405.977	344.35
406.422	342.01
406.867	299.88
407.312	327.97
407.757	304.56
408.202	299.88
408.647	302.22
409.092	299.88
409.537	271.79
409.982	353.71
410.426	299.88
410.871	278.82
411.316	388.82
411.76	351.37
412.205	360.74
412.649	313.92
413.093	309.24
413.538	349.03
413.982	283.5
414.426	325.63
414.87	320.95
415.314	309.24
415.758	278.82
416.202	302.22
416.646	290.52
417.09	391.16
417.534	290.52
417.978	262.43
418.421	292.86
418.865	342.01
419.309	262.43
419.752	351.37
420.196	327.97
420.639	344.35
421.083	255.41
421.526	295.2
421.969	283.5
422.412	253.07
422.856	304.56
423.299	344.35
423.742	316.26
424.185	344.35
424.628	253.07
425.071	302.22
425.513	290.52
425.956	243.71
426.399	309.24
426.842	281.16
427.284	311.58
427.727	337.33
428.169	323.29
428.612	313.92
429.054	281.16
429.497	306.9
429.939	388.82
430.381	334.99
430.823	353.71
431.265	342.01
431.707	267.11
432.149	302.22
432.591	337.33
433.033	267.11
433.475	269.45
433.917	320.95
434.359	306.9
434.8	342.01
435.242	334.99
435.684	290.52
436.125	292.86
436.567	327.97
437.008	246.05
437.449	309.24
437.891	304.56
438.332	344.35
438.773	290.52
439.214	320.95
439.656	440.31
440.097	316.26
440.538	327.97
440.978	356.05
441.419	292.86
441.86	285.84
442.301	267.11
442.742	299.88
443.182	360.74
443.623	302.22
444.063	311.58
444.504	320.95
444.944	323.29
445.385	316.26
445.825	372.44
446.265	288.18
446.706	330.31
447.146	358.39
447.586	295.2
448.026	313.92
448.466	346.69
448.906	334.99
449.346	381.8
449.786	372.44
450.225	339.67
450.665	290.52
451.105	267.11
451.544	332.65
451.984	360.74
452.424	349.03
452.863	337.33
453.302	334.99
453.742	311.58
454.181	278.82
454.62	297.54
455.059	276.48
455.499	342.01
455.938	377.12
456.377	332.65
456.816	295.2
457.254	311.58
457.693	344.35
458.132	311.58
458.571	311.58
459.01	330.31
459.448	260.09
459.887	360.74
460.325	334.99
460.764	320.95
461.202	306.9
461.641	313.92
462.079	297.54
462.517	285.84
462.955	349.03
463.393	384.14
463.832	325.63
464.27	281.16
464.708	288.18
465.145	283.5
465.583	360.74
466.021	346.69
466.459	337.33
466.897	299.88
467.334	292.86
467.772	269.45
468.209	327.97
468.647	304.56
469.084	379.46
469.522	316.26
469.959	304.56
470.396	360.74
470.833	330.31
471.271	367.76
471.708	285.84
472.145	320.95
472.582	278.82
473.019	316.26
473.456	311.58
473.892	349.03
474.329	306.9
474.766	285.84
475.202	370.1
475.639	391.16
476.076	320.95
476.512	313.92
476.949	292.86
477.385	334.99
477.821	299.88
478.258	278.82
478.694	246.05
479.13	344.35
479.566	318.61
480.002	318.61
480.438	304.56
480.874	260.09
481.31	327.97
481.746	346.69
482.181	323.29
482.617	302.22
483.053	365.42
483.488	323.29
483.924	262.43
484.36	269.45
484.795	325.63
485.23	374.78
485.666	297.54
486.101	327.97
486.536	313.92
486.971	295.2
487.407	304.56
487.842	379.46
488.277	323.29
488.712	297.54
489.146	306.9
489.581	283.5
490.016	320.95
490.451	316.26
490.885	281.16
491.32	342.01
491.755	349.03
492.189	339.67
492.624	356.05
493.058	374.78
493.492	339.67
493.927	325.63
494.361	264.77
494.795	281.16
495.229	299.88
495.663	316.26
496.097	304.56
496.531	320.95
496.965	342.01
497.399	337.33
497.833	365.42
498.266	283.5
498.7	274.14
499.134	278.82
499.567	257.75
500.001	299.88
500.434	302.22
500.868	306.9
501.301	313.92
501.734	330.31
502.168	332.65
502.601	377.12
503.034	299.88
503.467	334.99
503.9	292.86
504.333	264.77
504.766	334.99
505.199	370.1
505.632	304.56
506.064	302.22
506.497	339.67
506.93	267.11
507.362	377.12
507.795	250.73
508.227	311.58
508.66	325.63
509.092	316.26
509.524	339.67
509.956	313.92
510.389	292.86
510.821	342.01
511.253	281.16
511.685	274.14
512.117	353.71
512.549	236.69
512.981	320.95
513.412	327.97
513.844	302.22
514.276	346.69
514.707	353.71
515.139	316.26
515.571	332.65
516.002	353.71
516.433	327.97
516.865	318.61
517.296	370.1
517.727	278.82
518.159	257.75
518.59	271.79
519.021	271.79
519.452	320.95
519.883	351.37
520.314	325.63
520.744	379.46
521.175	309.24
521.606	395.84
522.037	311.58
522.467	290.52
522.898	334.99
523.328	318.61
523.759	283.5
524.189	269.45
524.62	323.29
525.05	295.2
525.48	299.88
525.91	297.54
526.341	304.56
526.771	311.58
527.201	222.64
527.631	276.48
528.061	313.92
528.49	288.18
528.92	353.71
529.35	323.29
529.78	241.37
530.209	260.09
530.639	276.48
531.068	267.11
531.498	325.63
531.927	309.24
532.357	267.11
532.786	330.31
533.215	320.95
533.644	234.35
534.074	351.37
534.503	334.99
534.932	363.08
535.361	358.39
535.79	337.33
536.218	283.5
536.647	299.88
537.076	318.61
537.505	334.99
537.933	262.43
538.362	330.31
538.79	309.24
539.219	299.88
539.647	281.16
540.076	299.88
540.504	302.22
540.932	356.05
541.36	370.1
541.788	356.05
542.217	267.11
542.645	349.03
543.073	304.56
543.5	325.63
543.928	370.1
544.356	269.45
544.784	306.9
545.211	278.82
545.639	257.75
546.067	311.58
546.494	337.33
546.922	332.65
547.349	281.16
547.776	320.95
548.204	278.82
548.631	271.79
549.058	320.95
549.485	299.88
549.912	311.58
550.339	290.52
550.766	285.84
551.193	302.22
551.62	295.2
552.047	288.18
552.474	323.29
552.9	264.77
553.327	316.26
553.754	283.5
554.18	318.61
554.607	349.03
555.033	311.58
555.459	285.84
555.886	353.71
556.312	356.05
556.738	227.32
557.164	292.86
557.59	292.86
558.016	290.52
558.442	374.78
558.868	278.82
559.294	339.67
559.72	264.77
560.145	323.29
560.571	318.61
560.997	304.56
561.422	302.22
561.848	278.82
562.273	297.54
562.699	327.97
563.124	372.44
563.549	330.31
563.974	304.56
564.4	309.24
564.825	276.48
565.25	332.65
565.675	367.76
566.1	353.71
566.525	360.74
566.95	330.31
567.374	311.58
567.799	292.86
568.224	285.84
568.648	330.31
569.073	292.86
569.497	377.12
569.922	349.03
570.346	334.99
570.771	325.63
571.195	334.99
571.619	255.41
572.043	320.95
572.467	281.16
572.891	332.65
573.315	342.01
573.739	344.35
574.163	372.44
574.587	346.69
575.011	292.86
575.435	320.95
575.858	318.61
576.282	393.5
576.705	313.92
577.129	316.26
577.552	325.63
577.976	327.97
578.399	356.05
578.822	269.45
579.245	337.33
579.669	304.56
580.092	323.29
580.515	313.92
580.938	304.56
581.361	257.75
581.784	344.35
582.206	316.26
582.629	278.82
583.052	316.26
583.474	320.95
583.897	285.84
584.32	323.29
584.742	295.2
585.165	271.79
585.587	302.22
586.009	297.54
586.431	353.71
586.854	260.09
587.276	248.39
587.698	316.26
588.12	281.16
588.542	346.69
588.964	313.92
589.386	367.76
589.807	248.39
590.229	337.33
590.651	309.24
591.073	274.14
591.494	349.03
591.916	246.05
592.337	309.24
592.759	295.2
593.18	405.21
593.601	330.31
594.022	288.18
594.444	332.65
594.865	316.26
595.286	283.5
595.707	269.45
596.128	304.56
596.549	377.12
596.97	299.88
597.39	381.8
597.811	304.56
598.232	339.67
598.652	274.14
599.073	295.2
599.494	267.11
599.914	311.58
600.334	297.54
600.755	339.67
601.175	255.41
601.595	274.14
602.015	306.9
602.436	290.52
602.856	414.57
603.276	349.03
603.696	278.82
604.115	295.2
604.535	257.75
604.955	255.41
605.375	246.05
605.794	281.16
606.214	400.52
606.634	246.05
607.053	391.16
607.473	302.22
607.892	248.39
608.311	271.79
608.731	325.63
609.15	243.71
609.569	367.76
609.988	353.71
610.407	337.33
610.826	342.01
611.245	285.84
611.664	302.22
612.083	299.88
612.501	295.2
612.92	344.35
613.339	363.08
613.757	419.25
614.176	323.29
614.594	381.8
615.013	360.74
615.431	342.01
615.85	299.88
616.268	288.18
616.686	304.56
617.104	316.26
617.522	260.09
617.94	239.03
618.358	323.29
618.776	339.67
619.194	299.88
619.612	318.61
620.03	325.63
620.447	302.22
620.865	339.67
621.282	342.01
621.7	318.61
622.117	295.2
622.535	372.44
622.952	330.31
623.369	292.86
623.787	318.61
624.204	339.67
624.621	337.33
625.038	325.63
625.455	339.67
625.872	299.88
626.289	306.9
626.706	337.33
627.123	309.24
627.539	330.31
627.956	267.11
628.373	332.65
628.789	342.01
629.206	313.92
629.622	274.14
630.038	274.14
630.455	349.03
630.871	302.22
631.287	316.26
631.703	330.31
632.12	330.31
632.536	288.18
632.952	344.35
633.368	327.97
633.783	302.22
634.199	269.45
634.615	318.61
635.031	356.05
635.446	262.43
635.862	311.58
636.277	356.05
636.693	323.29
637.108	313.92
637.524	360.74
637.939	288.18
638.354	346.69
638.77	344.35
639.185	334.99
639.6	363.08
640.015	281.16
640.43	323.29
640.845	356.05
641.259	290.52
641.674	281.16
642.089	360.74
642.504	292.86
642.918	248.39
643.333	299.88
643.747	281.16
644.162	302.22
644.576	278.82
644.991	330.31
645.405	356.05
645.819	304.56
646.233	344.35
646.647	323.29
647.061	386.48
647.475	323.29
647.889	292.86
648.303	290.52
648.717	306.9
649.131	334.99
649.545	367.76
649.958	344.35
650.372	290.52
650.785	342.01
651.199	323.29
651.612	292.86
652.026	332.65
652.439	295.2
652.852	246.05
653.266	363.08
653.679	334.99
654.092	292.86
654.505	349.03
654.918	311.58
655.331	295.2
655.744	304.56
656.156	260.09
656.569	339.67
656.982	306.9
657.394	377.12
657.807	367.76
658.22	248.39
658.632	283.5
659.044	281.16
659.457	325.63
659.869	353.71
660.281	330.31
660.693	349.03
661.106	318.61
661.518	337.33
661.93	337.33
662.342	264.77
662.754	292.86
663.165	290.52
663.577	304.56
663.989	295.2
664.401	288.18
664.812	344.35
665.224	313.92
665.635	306.9
666.047	330.31
666.458	276.48
666.869	271.79
667.281	246.05
667.692	337.33
668.103	292.86
668.514	320.95
668.925	351.37
669.336	292.86
669.747	323.29
670.158	306.9
670.569	330.31
670.979	349.03
671.39	302.22
671.801	274.14
672.211	346.69
672.622	306.9
673.032	334.99
673.443	316.26
673.853	292.86
674.263	337.33
674.674	318.61
675.084	332.65
675.494	365.42
675.904	344.35
676.314	262.43
676.724	313.92
677.134	320.95
677.544	393.5
677.953	360.74
678.363	337.33
678.773	316.26
679.182	358.39
679.592	271.79
680.001	353.71
680.411	295.2
680.82	318.61
681.23	386.48
681.639	342.01
682.048	276.48
682.457	250.73
682.866	323.29
683.275	278.82
683.684	297.54
684.093	306.9
684.502	290.52
684.911	297.54
685.32	351.37
685.728	304.56
686.137	304.56
686.546	290.52
686.954	346.69
687.363	264.77
687.771	363.08
688.179	288.18
688.588	346.69
688.996	299.88
689.404	325.63
689.812	337.33
690.22	257.75
690.628	327.97
691.036	416.91
691.444	323.29
691.852	393.5
692.26	274.14
692.667	262.43
693.075	302.22
693.483	334.99
693.89	299.88
694.298	292.86
694.705	323.29
695.112	302.22
695.52	323.29
695.927	323.29
696.334	334.99
696.741	288.18
697.148	278.82
697.555	302.22
697.962	278.82
698.369	327.97
698.776	337.33
699.183	304.56
699.59	316.26
699.996	360.74
700.403	318.61
700.81	374.78
701.216	353.71
701.623	332.65
702.029	349.03
702.435	267.11
702.842	309.24
703.248	290.52
703.654	217.96
704.06	302.22
704.466	353.71
704.872	374.78
705.278	332.65
705.684	292.86
706.09	283.5
706.496	332.65
706.901	281.16
707.307	334.99
707.712	236.69
708.118	311.58
708.523	316.26
708.929	257.75
709.334	379.46
709.74	306.9
710.145	349.03
710.55	332.65
710.955	358.39
711.36	367.76
711.765	332.65
712.17	377.12
712.575	316.26
712.98	929.49
713.385	363.08
713.789	330.31
714.194	288.18
714.599	342.01
715.003	302.22
715.408	346.69
715.812	311.58
716.217	416.91
716.621	353.71
717.025	349.03
717.429	356.05
717.833	306.9
718.238	306.9
718.642	318.61
719.046	297.54
719.449	327.97
719.853	276.48
720.257	346.69
720.661	271.79
721.065	253.07
721.468	295.2
721.872	316.26
722.275	360.74
722.679	388.82
723.082	407.55
723.485	330.31
723.889	309.24
724.292	344.35
724.695	334.99
725.098	334.99
725.501	278.82
725.904	374.78
726.307	285.84
726.71	299.88
727.113	342.01
727.516	290.52
727.918	299.88
728.321	260.09
728.724	323.29
729.126	250.73
729.529	356.05
729.931	295.2
730.333	285.84
730.736	316.26
731.138	323.29
731.54	356.05
731.942	264.77
732.344	306.9
732.746	342.01
733.148	302.22
733.55	342.01
733.952	325.63
734.354	337.33
734.756	344.35
735.157	217.96
735.559	353.71
735.96	257.75
736.362	370.1
736.763	356.05
737.165	320.95
737.566	342.01
737.967	306.9
738.368	334.99
738.77	253.07
739.171	302.22
739.572	316.26
739.973	318.61
740.374	313.92
740.774	323.29
741.175	311.58
741.576	295.2
741.977	309.24
742.377	320.95
742.778	302.22
743.178	255.41
743.579	311.58
743.979	323.29
744.379	363.08
744.78	292.86
745.18	334.99
745.58	334.99
745.98	316.26
746.38	281.16
746.78	306.9
747.18	342.01
747.58	332.65
747.98	285.84
748.38	356.05
748.779	318.61
749.179	297.54
749.578	358.39
749.978	264.77
750.377	271.79
750.777	267.11
751.176	299.88
751.575	297.54
751.975	330.31
752.374	262.43
752.773	325.63
753.172	304.56
753.571	318.61
753.97	292.86
754.369	318.61
754.768	295.2
755.166	297.54
755.565	299.88
755.964	292.86
756.362	295.2
756.761	349.03
757.159	295.2
757.558	285.84
757.956	283.5
758.354	339.67
758.753	330.31
759.151	297.54
759.549	297.54
759.947	217.96
760.345	334.99
760.743	325.63
761.141	365.42
761.539	299.88
761.936	316.26
762.334	262.43
762.732	295.2
763.129	295.2
763.527	295.2
763.924	370.1
764.322	299.88
