Data from Al_FLMS009871__717__15-09-06-434.txt Node

Date: Fri Mar 08 15:09:06 CST 2024
User: pe5414po
Spectrometer: FLMS00987
Trigger mode: 0
Integration Time (sec): 1.000000E-1
Scans to average: 1
Electric dark correction enabled: true
Nonlinearity correction enabled: false
Boxcar width: 0
XAxis mode: Wavelengths
Number of Pixels in Spectrum: 2048
>>>>>Begin Spectral Data<<<<<
188.938	-16.97
189.409	-16.97
189.879	-16.97
190.349	-66.12
190.819	-101.23
191.29	-73.14
191.76	-108.25
192.23	-101.23
192.7	-110.59
193.17	-40.37
193.64	-7.61
194.109	-47.4
194.579	-35.69
195.049	-2.93
195.519	13.46
195.988	34.52
196.458	25.16
196.927	53.25
197.397	158.57
197.866	78.99
198.336	163.25
198.805	130.48
199.274	130.48
199.744	151.55
200.213	196.02
200.682	177.3
201.151	165.59
201.62	217.08
202.089	249.85
202.558	189
203.027	263.9
203.495	270.92
203.964	273.26
204.433	336.45
204.902	268.58
205.37	268.58
205.839	296.66
206.307	277.94
206.776	301.34
207.244	289.64
207.712	256.87
208.181	364.54
208.649	289.64
209.117	273.26
209.585	277.94
210.053	284.96
210.521	245.17
210.989	254.53
211.457	249.85
211.925	327.09
212.393	284.96
212.861	212.4
213.328	291.98
213.796	200.7
214.264	217.08
214.731	233.47
215.199	275.6
215.666	296.66
216.133	284.96
216.601	301.34
217.068	221.77
217.535	256.87
218.003	261.55
218.47	270.92
218.937	273.26
219.404	256.87
219.871	303.68
220.338	240.49
220.805	366.88
221.271	231.13
221.738	205.38
222.205	270.92
222.671	284.96
223.138	291.98
223.605	308.37
224.071	291.98
224.538	268.58
225.004	252.19
225.47	291.98
225.937	259.21
226.403	240.49
226.869	228.79
227.335	291.98
227.801	198.36
228.267	270.92
228.733	256.87
229.199	275.6
229.665	212.4
230.131	259.21
230.597	268.58
231.062	266.24
231.528	224.11
231.994	275.6
232.459	242.83
232.925	280.28
233.39	205.38
233.856	245.17
234.321	238.15
234.786	277.94
235.252	282.62
235.717	179.64
236.182	273.26
236.647	331.77
237.112	228.79
237.577	315.39
238.042	259.21
238.507	306.03
238.972	284.96
239.436	331.77
239.901	322.41
240.366	299
240.83	252.19
241.295	233.47
241.76	266.24
242.224	242.83
242.688	249.85
243.153	254.53
243.617	287.3
244.081	308.37
244.545	259.21
245.01	238.15
245.474	198.36
245.938	228.79
246.402	268.58
246.866	238.15
247.33	275.6
247.793	287.3
248.257	327.09
248.721	280.28
249.185	233.47
249.648	289.64
250.112	261.55
250.575	306.03
251.039	212.4
251.502	240.49
251.965	240.49
252.429	263.9
252.892	238.15
253.355	322.41
253.818	322.41
254.281	322.41
254.744	259.21
255.207	317.73
255.67	355.18
256.133	233.47
256.596	289.64
257.059	266.24
257.522	273.26
257.984	245.17
258.447	277.94
258.909	296.66
259.372	256.87
259.834	245.17
260.297	263.9
260.759	266.24
261.221	238.15
261.684	284.96
262.146	291.98
262.608	296.66
263.07	233.47
263.532	270.92
263.994	313.05
264.456	273.26
264.918	308.37
265.38	259.21
265.842	259.21
266.303	303.68
266.765	273.26
267.227	287.3
267.688	299
268.15	317.73
268.611	317.73
269.072	249.85
269.534	238.15
269.995	287.3
270.456	231.13
270.918	329.43
271.379	266.24
271.84	219.43
272.301	322.41
272.762	261.55
273.223	277.94
273.684	308.37
274.144	308.37
274.605	270.92
275.066	329.43
275.527	308.37
275.987	212.4
276.448	287.3
276.908	287.3
277.369	310.71
277.829	240.49
278.289	308.37
278.75	303.68
279.21	275.6
279.67	277.94
280.13	284.96
280.59	207.72
281.05	275.6
281.51	261.55
281.97	327.09
282.43	284.96
282.89	324.75
283.35	280.28
283.809	287.3
284.269	320.07
284.729	238.15
285.188	317.73
285.648	310.71
286.107	284.96
286.567	287.3
287.026	247.51
287.485	240.49
287.944	310.71
288.404	247.51
288.863	228.79
289.322	233.47
289.781	256.87
290.24	282.62
290.699	275.6
291.158	317.73
291.616	287.3
292.075	233.47
292.534	310.71
292.992	341.13
293.451	366.88
293.91	289.64
294.368	277.94
294.827	296.66
295.285	284.96
295.743	338.79
296.202	273.26
296.66	247.51
297.118	350.5
297.576	280.28
298.034	268.58
298.492	273.26
298.95	345.81
299.408	317.73
299.866	263.9
300.324	256.87
300.781	306.03
301.239	315.39
301.697	352.84
302.154	268.58
302.612	280.28
303.069	308.37
303.527	336.45
303.984	252.19
304.441	242.83
304.899	306.03
305.356	324.75
305.813	352.84
306.27	296.66
306.727	310.71
307.184	303.68
307.641	308.37
308.098	299
308.555	275.6
309.012	291.98
309.468	266.24
309.925	254.53
310.382	343.47
310.838	359.86
311.295	268.58
311.751	270.92
312.208	310.71
312.664	313.05
313.12	294.32
313.577	294.32
314.033	207.72
314.489	207.72
314.945	331.77
315.401	266.24
315.857	313.05
316.313	301.34
316.769	296.66
317.225	242.83
317.681	313.05
318.136	336.45
318.592	301.34
319.048	280.28
319.503	277.94
319.959	331.77
320.414	203.04
320.869	357.52
321.325	334.11
321.78	275.6
322.235	303.68
322.691	299
323.146	334.11
323.601	341.13
324.056	284.96
324.511	369.22
324.966	310.71
325.421	247.51
325.875	294.32
326.33	322.41
326.785	289.64
327.24	268.58
327.694	350.5
328.149	275.6
328.603	242.83
329.058	315.39
329.512	313.05
329.966	266.24
330.421	303.68
330.875	315.39
331.329	289.64
331.783	280.28
332.237	369.22
332.691	303.68
333.145	270.92
333.599	291.98
334.053	324.75
334.507	308.37
334.96	303.68
335.414	273.26
335.868	273.26
336.321	294.32
336.775	287.3
337.228	270.92
337.682	282.62
338.135	362.2
338.588	266.24
339.042	317.73
339.495	254.53
339.948	306.03
340.401	242.83
340.854	308.37
341.307	306.03
341.76	277.94
342.213	242.83
342.666	268.58
343.119	282.62
343.571	284.96
344.024	327.09
344.477	282.62
344.929	322.41
345.382	287.3
345.834	299
346.287	329.43
346.739	259.21
347.191	299
347.644	331.77
348.096	320.07
348.548	240.49
349	289.64
349.452	277.94
349.904	327.09
350.356	357.52
350.808	289.64
351.26	254.53
351.711	350.5
352.163	273.26
352.615	310.71
353.066	343.47
353.518	306.03
353.969	284.96
354.421	301.34
354.872	329.43
355.324	275.6
355.775	299
356.226	313.05
356.677	282.62
357.128	282.62
357.579	303.68
358.03	324.75
358.481	341.13
358.932	315.39
359.383	296.66
359.834	341.13
360.285	327.09
360.735	331.77
361.186	345.81
361.637	266.24
362.087	280.28
362.538	273.26
362.988	336.45
363.438	277.94
363.889	341.13
364.339	315.39
364.789	296.66
365.239	310.71
365.689	392.62
366.139	247.51
366.589	275.6
367.039	308.37
367.489	291.98
367.939	287.3
368.389	341.13
368.839	289.64
369.288	291.98
369.738	291.98
370.187	294.32
370.637	336.45
371.086	296.66
371.536	352.84
371.985	277.94
372.434	308.37
372.884	315.39
373.333	359.86
373.782	303.68
374.231	322.41
374.68	273.26
375.129	303.68
375.578	284.96
376.027	308.37
376.475	341.13
376.924	338.79
377.373	303.68
377.822	317.73
378.27	259.21
378.719	289.64
379.167	315.39
379.616	284.96
380.064	287.3
380.512	317.73
380.961	287.3
381.409	327.09
381.857	275.6
382.305	275.6
382.753	263.9
383.201	280.28
383.649	324.75
384.097	336.45
384.545	313.05
384.992	301.34
385.44	291.98
385.888	317.73
386.335	348.15
386.783	350.5
387.231	277.94
387.678	315.39
388.125	306.03
388.573	343.47
389.02	341.13
389.467	280.28
389.914	303.68
390.362	341.13
390.809	289.64
391.256	331.77
391.703	315.39
392.15	308.37
392.596	327.09
393.043	240.49
393.49	345.81
393.937	242.83
394.383	334.11
394.83	315.39
395.276	308.37
395.723	277.94
396.169	329.43
396.616	275.6
397.062	284.96
397.508	231.13
397.954	327.09
398.401	338.79
398.847	327.09
399.293	322.41
399.739	327.09
400.185	273.26
400.631	329.43
401.076	291.98
401.522	345.81
401.968	329.43
402.414	287.3
402.859	301.34
403.305	301.34
403.75	301.34
404.196	291.98
404.641	284.96
405.086	320.07
405.532	329.43
405.977	306.03
406.422	343.47
406.867	308.37
407.312	315.39
407.757	315.39
408.202	294.32
408.647	294.32
409.092	277.94
409.537	289.64
409.982	373.9
410.426	247.51
410.871	383.26
411.316	355.18
411.76	320.07
412.205	343.47
412.649	280.28
413.093	263.9
413.538	287.3
413.982	301.34
414.426	275.6
414.87	273.26
415.314	320.07
415.758	280.28
416.202	343.47
416.646	327.09
417.09	338.79
417.534	245.17
417.978	296.66
418.421	308.37
418.865	291.98
419.309	287.3
419.752	315.39
420.196	270.92
420.639	310.71
421.083	357.52
421.526	322.41
421.969	322.41
422.412	310.71
422.856	291.98
423.299	282.62
423.742	327.09
424.185	284.96
424.628	324.75
425.071	254.53
425.513	306.03
425.956	343.47
426.399	289.64
426.842	308.37
427.284	334.11
427.727	387.94
428.169	299
428.612	320.07
429.054	301.34
429.497	341.13
429.939	355.18
430.381	352.84
430.823	306.03
431.265	315.39
431.707	303.68
432.149	366.88
432.591	294.32
433.033	294.32
433.475	280.28
433.917	294.32
434.359	324.75
434.8	364.54
435.242	317.73
435.684	254.53
436.125	345.81
436.567	284.96
437.008	273.26
437.449	277.94
437.891	207.72
438.332	277.94
438.773	284.96
439.214	287.3
439.656	289.64
440.097	296.66
440.538	252.19
440.978	331.77
441.419	270.92
441.86	362.2
442.301	317.73
442.742	310.71
443.182	317.73
443.623	320.07
444.063	336.45
444.504	301.34
444.944	352.84
445.385	324.75
445.825	291.98
446.265	324.75
446.706	310.71
447.146	294.32
447.586	341.13
448.026	324.75
448.466	308.37
448.906	306.03
449.346	322.41
449.786	383.26
450.225	303.68
450.665	334.11
451.105	322.41
451.544	313.05
451.984	343.47
452.424	373.9
452.863	313.05
453.302	289.64
453.742	317.73
454.181	336.45
454.62	277.94
455.059	387.94
455.499	394.97
455.938	310.71
456.377	315.39
456.816	284.96
457.254	355.18
457.693	343.47
458.132	259.21
458.571	280.28
459.01	299
459.448	263.9
459.887	270.92
460.325	289.64
460.764	352.84
461.202	338.79
461.641	273.26
462.079	240.49
462.517	263.9
462.955	303.68
463.393	320.07
463.832	324.75
464.27	303.68
464.708	334.11
465.145	327.09
465.583	315.39
466.021	336.45
466.459	322.41
466.897	299
467.334	254.53
467.772	261.55
468.209	282.62
468.647	341.13
469.084	362.2
469.522	404.33
469.959	366.88
470.396	259.21
470.833	299
471.271	336.45
471.708	338.79
472.145	301.34
472.582	266.24
473.019	277.94
473.456	296.66
473.892	348.15
474.329	352.84
474.766	294.32
475.202	364.54
475.639	294.32
476.076	287.3
476.512	350.5
476.949	317.73
477.385	287.3
477.821	205.38
478.258	266.24
478.694	303.68
479.13	320.07
479.566	275.6
480.002	348.15
480.438	261.55
480.874	308.37
481.31	249.85
481.746	270.92
482.181	315.39
482.617	306.03
483.053	334.11
483.488	341.13
483.924	310.71
484.36	289.64
484.795	336.45
485.23	373.9
485.666	252.19
486.101	352.84
486.536	362.2
486.971	245.17
487.407	277.94
487.842	268.58
488.277	252.19
488.712	289.64
489.146	273.26
489.581	350.5
490.016	317.73
490.451	306.03
490.885	362.2
491.32	273.26
491.755	369.22
492.189	273.26
492.624	313.05
493.058	327.09
493.492	315.39
493.927	303.68
494.361	296.66
494.795	308.37
495.229	301.34
495.663	369.22
496.097	284.96
496.531	289.64
496.965	254.53
497.399	320.07
497.833	280.28
498.266	331.77
498.7	324.75
499.134	315.39
499.567	282.62
500.001	352.84
500.434	270.92
500.868	308.37
501.301	355.18
501.734	315.39
502.168	341.13
502.601	343.47
503.034	324.75
503.467	320.07
503.9	266.24
504.333	275.6
504.766	397.31
505.199	317.73
505.632	362.2
506.064	289.64
506.497	378.58
506.93	275.6
507.362	282.62
507.795	303.68
508.227	277.94
508.66	359.86
509.092	322.41
509.524	320.07
509.956	313.05
510.389	308.37
510.821	294.32
511.253	369.22
511.685	362.2
512.117	219.43
512.549	301.34
512.981	256.87
513.412	299
513.844	289.64
514.276	341.13
514.707	343.47
515.139	280.28
515.571	306.03
516.002	277.94
516.433	308.37
516.865	270.92
517.296	282.62
517.727	317.73
518.159	303.68
518.59	263.9
519.021	343.47
519.452	301.34
519.883	268.58
520.314	303.68
520.744	320.07
521.175	341.13
521.606	263.9
522.037	416.03
522.467	355.18
522.898	315.39
523.328	299
523.759	338.79
524.189	294.32
524.62	357.52
525.05	364.54
525.48	376.24
525.91	301.34
526.341	322.41
526.771	296.66
527.201	301.34
527.631	296.66
528.061	338.79
528.49	322.41
528.92	341.13
529.35	352.84
529.78	317.73
530.209	320.07
530.639	364.54
531.068	313.05
531.498	294.32
531.927	334.11
532.357	334.11
532.786	343.47
533.215	327.09
533.644	299
534.074	345.81
534.503	355.18
534.932	284.96
535.361	301.34
535.79	343.47
536.218	352.84
536.647	348.15
537.076	261.55
537.505	287.3
537.933	313.05
538.362	327.09
538.79	343.47
539.219	334.11
539.647	247.51
540.076	313.05
540.504	334.11
540.932	322.41
541.36	313.05
541.788	317.73
542.217	383.26
542.645	378.58
543.073	266.24
543.5	313.05
543.928	291.98
544.356	287.3
544.784	270.92
545.211	350.5
545.639	317.73
546.067	273.26
546.494	322.41
546.922	329.43
547.349	228.79
547.776	310.71
548.204	291.98
548.631	233.47
549.058	221.77
549.485	299
549.912	376.24
550.339	301.34
550.766	329.43
551.193	313.05
551.62	315.39
552.047	282.62
552.474	259.21
552.9	334.11
553.327	266.24
553.754	280.28
554.18	287.3
554.607	359.86
555.033	331.77
555.459	270.92
555.886	320.07
556.312	355.18
556.738	341.13
557.164	313.05
557.59	310.71
558.016	240.49
558.442	315.39
558.868	327.09
559.294	327.09
559.72	315.39
560.145	252.19
560.571	294.32
560.997	287.3
561.422	310.71
561.848	327.09
562.273	301.34
562.699	303.68
563.124	350.5
563.549	366.88
563.974	273.26
564.4	315.39
564.825	284.96
565.25	294.32
565.675	268.58
566.1	296.66
566.525	313.05
566.95	280.28
567.374	299
567.799	299
568.224	261.55
568.648	313.05
569.073	291.98
569.497	329.43
569.922	324.75
570.346	366.88
570.771	317.73
571.195	324.75
571.619	296.66
572.043	275.6
572.467	362.2
572.891	254.53
573.315	247.51
573.739	280.28
574.163	313.05
574.587	294.32
575.011	291.98
575.435	327.09
575.858	273.26
576.282	303.68
576.705	275.6
577.129	287.3
577.552	329.43
577.976	324.75
578.399	336.45
578.822	317.73
579.245	261.55
579.669	273.26
580.092	308.37
580.515	254.53
580.938	315.39
581.361	296.66
581.784	320.07
582.206	277.94
582.629	263.9
583.052	313.05
583.474	350.5
583.897	310.71
584.32	336.45
584.742	343.47
585.165	341.13
585.587	294.32
586.009	352.84
586.431	306.03
586.854	275.6
587.276	299
587.698	275.6
588.12	317.73
588.542	303.68
588.964	345.81
589.386	301.34
589.807	317.73
590.229	287.3
590.651	378.58
591.073	348.15
591.494	254.53
591.916	277.94
592.337	341.13
592.759	327.09
593.18	291.98
593.601	343.47
594.022	308.37
594.444	284.96
594.865	334.11
595.286	338.79
595.707	289.64
596.128	310.71
596.549	284.96
596.97	299
597.39	306.03
597.811	315.39
598.232	343.47
598.652	336.45
599.073	390.28
599.494	341.13
599.914	303.68
600.334	280.28
600.755	306.03
601.175	345.81
601.595	247.51
602.015	280.28
602.436	268.58
602.856	401.99
603.276	338.79
603.696	284.96
604.115	273.26
604.535	299
604.955	324.75
605.375	334.11
605.794	266.24
606.214	404.33
606.634	296.66
607.053	336.45
607.473	303.68
607.892	275.6
608.311	301.34
608.731	364.54
609.15	240.49
609.569	303.68
609.988	299
610.407	362.2
610.826	306.03
611.245	359.86
611.664	322.41
612.083	268.58
612.501	355.18
612.92	308.37
613.339	336.45
613.757	289.64
614.176	327.09
614.594	324.75
615.013	306.03
615.431	334.11
615.85	329.43
616.268	277.94
616.686	322.41
617.104	280.28
617.522	308.37
617.94	287.3
618.358	270.92
618.776	294.32
619.194	263.9
619.612	282.62
620.03	299
620.447	324.75
620.865	336.45
621.282	310.71
621.7	343.47
622.117	324.75
622.535	228.79
622.952	329.43
623.369	291.98
623.787	284.96
624.204	284.96
624.621	359.86
625.038	362.2
625.455	301.34
625.872	317.73
626.289	364.54
626.706	303.68
627.123	327.09
627.539	291.98
627.956	315.39
628.373	287.3
628.789	355.18
629.206	380.92
629.622	315.39
630.038	327.09
630.455	336.45
630.871	263.9
631.287	341.13
631.703	303.68
632.12	324.75
632.536	362.2
632.952	320.07
633.368	331.77
633.783	294.32
634.199	308.37
634.615	294.32
635.031	315.39
635.446	313.05
635.862	322.41
636.277	338.79
636.693	317.73
637.108	270.92
637.524	322.41
637.939	327.09
638.354	291.98
638.77	245.17
639.185	329.43
639.6	284.96
640.015	277.94
640.43	306.03
640.845	334.11
641.259	296.66
641.674	383.26
642.089	294.32
642.504	299
642.918	317.73
643.333	336.45
643.747	320.07
644.162	270.92
644.576	343.47
644.991	320.07
645.405	268.58
645.819	371.56
646.233	334.11
646.647	341.13
647.061	301.34
647.475	270.92
647.889	266.24
648.303	345.81
648.717	200.7
649.131	371.56
649.545	277.94
649.958	270.92
650.372	357.52
650.785	266.24
651.199	317.73
651.612	322.41
652.026	320.07
652.439	268.58
652.852	280.28
653.266	291.98
653.679	359.86
654.092	357.52
654.505	284.96
654.918	329.43
655.331	343.47
655.744	261.55
656.156	306.03
656.569	284.96
656.982	254.53
657.394	373.9
657.807	277.94
658.22	317.73
658.632	294.32
659.044	306.03
659.457	324.75
659.869	299
660.281	366.88
660.693	275.6
661.106	256.87
661.518	359.86
661.93	371.56
662.342	226.45
662.754	308.37
663.165	317.73
663.577	313.05
663.989	341.13
664.401	362.2
664.812	352.84
665.224	306.03
665.635	317.73
666.047	355.18
666.458	322.41
666.869	299
667.281	345.81
667.692	277.94
668.103	320.07
668.514	369.22
668.925	324.75
669.336	249.85
669.747	317.73
670.158	296.66
670.569	294.32
670.979	289.64
671.39	331.77
671.801	296.66
672.211	303.68
672.622	369.22
673.032	334.11
673.443	266.24
673.853	280.28
674.263	270.92
674.674	284.96
675.084	294.32
675.494	289.64
675.904	301.34
676.314	291.98
676.724	317.73
677.134	280.28
677.544	380.92
677.953	394.97
678.363	371.56
678.773	296.66
679.182	338.79
679.592	224.11
680.001	273.26
680.411	345.81
680.82	299
681.23	277.94
681.639	291.98
682.048	254.53
682.457	320.07
682.866	287.3
683.275	303.68
683.684	282.62
684.093	343.47
684.502	263.9
684.911	303.68
685.32	303.68
685.728	301.34
686.137	345.81
686.546	315.39
686.954	280.28
687.363	275.6
687.771	263.9
688.179	282.62
688.588	350.5
688.996	343.47
689.404	327.09
689.812	273.26
690.22	296.66
690.628	317.73
691.036	289.64
691.444	315.39
691.852	315.39
692.26	341.13
692.667	282.62
693.075	263.9
693.483	322.41
693.89	313.05
694.298	280.28
694.705	291.98
695.112	249.85
695.52	280.28
695.927	289.64
696.334	352.84
696.741	324.75
697.148	355.18
697.555	254.53
697.962	287.3
698.369	317.73
698.776	331.77
699.183	282.62
699.59	348.15
699.996	317.73
700.403	348.15
700.81	284.96
701.216	334.11
701.623	315.39
702.029	249.85
702.435	301.34
702.842	313.05
703.248	289.64
703.654	322.41
704.06	392.62
704.466	217.08
704.872	261.55
705.278	291.98
705.684	294.32
706.09	376.24
706.496	371.56
706.901	320.07
707.307	320.07
707.712	303.68
708.118	259.21
708.523	308.37
708.929	315.39
709.334	348.15
709.74	284.96
710.145	331.77
710.55	315.39
710.955	355.18
711.36	324.75
711.765	327.09
712.17	294.32
712.575	284.96
712.98	952.01
713.385	355.18
713.789	277.94
714.194	299
714.599	275.6
715.003	383.26
715.408	306.03
715.812	266.24
716.217	301.34
716.621	289.64
717.025	352.84
717.429	308.37
717.833	327.09
718.238	334.11
718.642	306.03
719.046	289.64
719.449	390.28
719.853	352.84
720.257	345.81
720.661	341.13
721.065	352.84
721.468	270.92
721.872	369.22
722.275	259.21
722.679	345.81
723.082	350.5
723.485	277.94
723.889	341.13
724.292	313.05
724.695	329.43
725.098	336.45
725.501	341.13
725.904	336.45
726.307	261.55
726.71	291.98
727.113	329.43
727.516	322.41
727.918	301.34
728.321	310.71
728.724	357.52
729.126	282.62
729.529	261.55
729.931	310.71
730.333	338.79
730.736	320.07
731.138	245.17
731.54	245.17
731.942	273.26
732.344	320.07
732.746	287.3
733.148	254.53
733.55	296.66
733.952	315.39
734.354	310.71
734.756	270.92
735.157	310.71
735.559	322.41
735.96	317.73
736.362	306.03
736.763	301.34
737.165	282.62
737.566	322.41
737.967	282.62
738.368	280.28
738.77	273.26
739.171	254.53
739.572	336.45
739.973	263.9
740.374	301.34
740.774	338.79
741.175	366.88
741.576	324.75
741.977	329.43
742.377	306.03
742.778	329.43
743.178	320.07
743.579	313.05
743.979	296.66
744.379	266.24
744.78	366.88
745.18	249.85
745.58	322.41
745.98	355.18
746.38	261.55
746.78	235.81
747.18	355.18
747.58	275.6
747.98	338.79
748.38	310.71
748.779	291.98
749.179	291.98
749.578	345.81
749.978	291.98
750.377	296.66
750.777	385.6
751.176	268.58
751.575	296.66
751.975	301.34
752.374	242.83
752.773	315.39
753.172	238.15
753.571	294.32
753.97	301.34
754.369	348.15
754.768	336.45
755.166	341.13
755.565	219.43
755.964	357.52
756.362	296.66
756.761	273.26
757.159	280.28
757.558	303.68
757.956	263.9
758.354	345.81
758.753	320.07
759.151	268.58
759.549	280.28
759.947	306.03
760.345	357.52
760.743	301.34
761.141	266.24
761.539	254.53
761.936	294.32
762.334	324.75
762.732	306.03
763.129	313.05
763.527	296.66
763.924	359.86
764.322	341.13
764.719	299
765.117	373.9
765.514	294.32
765.911	308.37
766.308	327.09
766.705	273.26
