Data from Al_FLMS009871__706__15-09-05-334.txt Node

Date: Fri Mar 08 15:09:05 CST 2024
User: pe5414po
Spectrometer: FLMS00987
Trigger mode: 0
Integration Time (sec): 1.000000E-1
Scans to average: 1
Electric dark correction enabled: true
Nonlinearity correction enabled: false
Boxcar width: 0
XAxis mode: Wavelengths
Number of Pixels in Spectrum: 2048
>>>>>Begin Spectral Data<<<<<
188.938	-99.91
189.409	-99.91
189.879	-99.91
190.349	-64.8
190.819	-109.27
191.29	-116.3
191.76	-95.23
192.23	-17.99
192.7	-64.8
193.17	-83.53
193.64	-99.91
194.109	-39.06
194.579	-13.31
195.049	47.54
195.519	14.77
195.988	70.95
196.458	45.2
196.927	82.65
197.397	89.67
197.866	73.29
198.336	106.06
198.805	124.78
199.274	171.59
199.744	218.4
200.213	171.59
200.682	230.1
201.151	244.15
201.62	216.06
202.089	281.6
202.558	202.02
203.027	274.57
203.495	262.87
203.964	286.28
204.433	309.68
204.902	302.66
205.37	267.55
205.839	276.91
206.307	269.89
206.776	300.32
207.244	286.28
207.712	335.43
208.181	335.43
208.649	293.3
209.117	328.41
209.585	293.3
210.053	307.34
210.521	344.79
210.989	337.77
211.457	239.47
211.925	276.91
212.393	321.38
212.861	312.02
213.328	248.83
213.796	307.34
214.264	279.26
214.731	295.64
215.199	323.73
215.666	279.26
216.133	246.49
216.601	302.66
217.068	293.3
217.535	297.98
218.003	204.36
218.47	300.32
218.937	253.51
219.404	262.87
219.871	237.13
220.338	255.85
220.805	281.6
221.271	276.91
221.738	276.91
222.205	295.64
222.671	267.55
223.138	290.96
223.605	251.17
224.071	209.04
224.538	330.75
225.004	307.34
225.47	258.19
225.937	269.89
226.403	319.04
226.869	262.87
227.335	255.85
227.801	265.21
228.267	283.94
228.733	267.55
229.199	216.06
229.665	272.23
230.131	276.91
230.597	248.83
231.062	335.43
231.528	309.68
231.994	290.96
232.459	340.11
232.925	279.26
233.39	293.3
233.856	239.47
234.321	253.51
234.786	220.74
235.252	307.34
235.717	328.41
236.182	265.21
236.647	319.04
237.112	340.11
237.577	274.57
238.042	230.1
238.507	323.73
238.972	309.68
239.436	295.64
239.901	267.55
240.366	326.07
240.83	274.57
241.295	337.77
241.76	274.57
242.224	209.04
242.688	283.94
243.153	328.41
243.617	314.36
244.081	290.96
244.545	290.96
245.01	290.96
245.474	333.09
245.938	223.08
246.402	328.41
246.866	356.49
247.33	267.55
247.793	297.98
248.257	283.94
248.721	319.04
249.185	333.09
249.648	316.7
250.112	307.34
250.575	262.87
251.039	262.87
251.502	330.75
251.965	237.13
252.429	307.34
252.892	248.83
253.355	314.36
253.818	319.04
254.281	276.91
254.744	260.53
255.207	293.3
255.67	246.49
256.133	319.04
256.596	382.24
257.059	255.85
257.522	295.64
257.984	253.51
258.447	258.19
258.909	274.57
259.372	314.36
259.834	265.21
260.297	272.23
260.759	321.38
261.221	290.96
261.684	340.11
262.146	267.55
262.608	328.41
263.07	328.41
263.532	309.68
263.994	300.32
264.456	297.98
264.918	314.36
265.38	314.36
265.842	300.32
266.303	281.6
266.765	312.02
267.227	288.62
267.688	274.57
268.15	206.7
268.611	337.77
269.072	309.68
269.534	330.75
269.995	309.68
270.456	267.55
270.918	300.32
271.379	267.55
271.84	305
272.301	309.68
272.762	223.08
273.223	305
273.684	283.94
274.144	307.34
274.605	328.41
275.066	255.85
275.527	340.11
275.987	262.87
276.448	274.57
276.908	262.87
277.369	290.96
277.829	323.73
278.289	342.45
278.75	375.22
279.21	333.09
279.67	305
280.13	335.43
280.59	283.94
281.05	276.91
281.51	340.11
281.97	288.62
282.43	288.62
282.89	314.36
283.35	307.34
283.809	286.28
284.269	269.89
284.729	330.75
285.188	269.89
285.648	321.38
286.107	297.98
286.567	260.53
287.026	333.09
287.485	326.07
287.944	290.96
288.404	265.21
288.863	307.34
289.322	288.62
289.781	335.43
290.24	300.32
290.699	365.85
291.158	354.15
291.616	293.3
292.075	302.66
292.534	314.36
292.992	328.41
293.451	363.51
293.91	258.19
294.368	323.73
294.827	340.11
295.285	295.64
295.743	265.21
296.202	255.85
296.66	251.17
297.118	281.6
297.576	335.43
298.034	309.68
298.492	300.32
298.95	316.7
299.408	337.77
299.866	265.21
300.324	290.96
300.781	290.96
301.239	316.7
301.697	323.73
302.154	342.45
302.612	323.73
303.069	323.73
303.527	293.3
303.984	326.07
304.441	283.94
304.899	293.3
305.356	269.89
305.813	281.6
306.27	344.79
306.727	323.73
307.184	323.73
307.641	312.02
308.098	234.78
308.555	297.98
309.012	297.98
309.468	335.43
309.925	286.28
310.382	356.49
310.838	316.7
311.295	386.92
311.751	293.3
312.208	340.11
312.664	258.19
313.12	288.62
313.577	309.68
314.033	267.55
314.489	272.23
314.945	288.62
315.401	316.7
315.857	267.55
316.313	293.3
316.769	333.09
317.225	321.38
317.681	330.75
318.136	293.3
318.592	305
319.048	330.75
319.503	300.32
319.959	258.19
320.414	319.04
320.869	326.07
321.325	365.85
321.78	276.91
322.235	265.21
322.691	347.13
323.146	368.2
323.601	314.36
324.056	288.62
324.511	347.13
324.966	300.32
325.421	314.36
325.875	312.02
326.33	340.11
326.785	258.19
327.24	272.23
327.694	269.89
328.149	365.85
328.603	309.68
329.058	326.07
329.512	248.83
329.966	307.34
330.421	351.81
330.875	290.96
331.329	330.75
331.783	274.57
332.237	283.94
332.691	269.89
333.145	309.68
333.599	337.77
334.053	319.04
334.507	258.19
334.96	302.66
335.414	276.91
335.868	314.36
336.321	314.36
336.775	297.98
337.228	286.28
337.682	321.38
338.135	283.94
338.588	363.51
339.042	288.62
339.495	312.02
339.948	356.49
340.401	286.28
340.854	330.75
341.307	368.2
341.76	309.68
342.213	295.64
342.666	274.57
343.119	286.28
343.571	305
344.024	319.04
344.477	265.21
344.929	314.36
345.382	386.92
345.834	354.15
346.287	347.13
346.739	323.73
347.191	297.98
347.644	328.41
348.096	302.66
348.548	267.55
349	293.3
349.452	363.51
349.904	300.32
350.356	305
350.808	344.79
351.26	379.9
351.711	330.75
352.163	300.32
352.615	307.34
353.066	340.11
353.518	400.96
353.969	370.54
354.421	244.15
354.872	372.88
355.324	342.45
355.775	302.66
356.226	265.21
356.677	337.77
357.128	260.53
357.579	354.15
358.03	262.87
358.481	323.73
358.932	286.28
359.383	283.94
359.834	330.75
360.285	309.68
360.735	297.98
361.186	312.02
361.637	253.51
362.087	384.58
362.538	361.17
362.988	260.53
363.438	328.41
363.889	295.64
364.339	305
364.789	354.15
365.239	335.43
365.689	361.17
366.139	330.75
366.589	293.3
367.039	302.66
367.489	321.38
367.939	354.15
368.389	314.36
368.839	323.73
369.288	323.73
369.738	281.6
370.187	368.2
370.637	293.3
371.086	307.34
371.536	288.62
371.985	290.96
372.434	337.77
372.884	300.32
373.333	307.34
373.782	335.43
374.231	295.64
374.68	290.96
375.129	333.09
375.578	297.98
376.027	293.3
376.475	377.56
376.924	403.3
377.373	354.15
377.822	377.56
378.27	272.23
378.719	319.04
379.167	333.09
379.616	312.02
380.064	300.32
380.512	356.49
380.961	337.77
381.409	312.02
381.857	258.19
382.305	319.04
382.753	281.6
383.201	281.6
383.649	290.96
384.097	283.94
384.545	300.32
384.992	436.07
385.44	333.09
385.888	361.17
386.335	384.58
386.783	281.6
387.231	321.38
387.678	307.34
388.125	288.62
388.573	328.41
389.02	384.58
389.467	333.09
389.914	279.26
390.362	321.38
390.809	323.73
391.256	323.73
391.703	293.3
392.15	326.07
392.596	267.55
393.043	302.66
393.49	307.34
393.937	286.28
394.383	391.6
394.83	283.94
395.276	356.49
395.723	358.83
396.169	377.56
396.616	340.11
397.062	300.32
397.508	290.96
397.954	281.6
398.401	286.28
398.847	253.51
399.293	351.81
399.739	290.96
400.185	342.45
400.631	307.34
401.076	276.91
401.522	297.98
401.968	314.36
402.414	354.15
402.859	279.26
403.305	344.79
403.75	288.62
404.196	330.75
404.641	368.2
405.086	293.3
405.532	349.47
405.977	326.07
406.422	295.64
406.867	323.73
407.312	276.91
407.757	267.55
408.202	358.83
408.647	316.7
409.092	255.85
409.537	368.2
409.982	302.66
410.426	248.83
410.871	302.66
411.316	267.55
411.76	267.55
412.205	286.28
412.649	354.15
413.093	323.73
413.538	354.15
413.982	312.02
414.426	330.75
414.87	293.3
415.314	307.34
415.758	293.3
416.202	365.85
416.646	309.68
417.09	351.81
417.534	363.51
417.978	253.51
418.421	323.73
418.865	347.13
419.309	363.51
419.752	302.66
420.196	272.23
420.639	354.15
421.083	347.13
421.526	344.79
421.969	328.41
422.412	342.45
422.856	344.79
423.299	314.36
423.742	255.85
424.185	281.6
424.628	302.66
425.071	302.66
425.513	344.79
425.956	295.64
426.399	328.41
426.842	253.51
427.284	328.41
427.727	326.07
428.169	307.34
428.612	384.58
429.054	347.13
429.497	365.85
429.939	372.88
430.381	363.51
430.823	361.17
431.265	253.51
431.707	337.77
432.149	433.73
432.591	344.79
433.033	255.85
433.475	347.13
433.917	290.96
434.359	356.49
434.8	288.62
435.242	319.04
435.684	328.41
436.125	314.36
436.567	300.32
437.008	368.2
437.449	356.49
437.891	337.77
438.332	363.51
438.773	375.22
439.214	356.49
439.656	319.04
440.097	290.96
440.538	340.11
440.978	309.68
441.419	319.04
441.86	347.13
442.301	300.32
442.742	295.64
443.182	342.45
443.623	309.68
444.063	314.36
444.504	365.85
444.944	326.07
445.385	363.51
445.825	314.36
446.265	269.89
446.706	305
447.146	302.66
447.586	326.07
448.026	340.11
448.466	363.51
448.906	326.07
449.346	309.68
449.786	251.17
450.225	314.36
450.665	316.7
451.105	391.6
451.544	305
451.984	316.7
452.424	321.38
452.863	274.57
453.302	297.98
453.742	288.62
454.181	358.83
454.62	319.04
455.059	342.45
455.499	274.57
455.938	269.89
456.377	314.36
456.816	328.41
457.254	335.43
457.693	337.77
458.132	358.83
458.571	307.34
459.01	361.17
459.448	335.43
459.887	370.54
460.325	319.04
460.764	316.7
461.202	363.51
461.641	297.98
462.079	340.11
462.517	300.32
462.955	354.15
463.393	293.3
463.832	288.62
464.27	347.13
464.708	305
465.145	260.53
465.583	393.94
466.021	307.34
466.459	361.17
466.897	307.34
467.334	340.11
467.772	305
468.209	354.15
468.647	312.02
469.084	302.66
469.522	314.36
469.959	312.02
470.396	307.34
470.833	248.83
471.271	290.96
471.708	283.94
472.145	290.96
472.582	307.34
473.019	326.07
473.456	365.85
473.892	375.22
474.329	356.49
474.766	251.17
475.202	288.62
475.639	295.64
476.076	295.64
476.512	356.49
476.949	377.56
477.385	391.6
477.821	288.62
478.258	251.17
478.694	347.13
479.13	342.45
479.566	400.96
480.002	340.11
480.438	354.15
480.874	379.9
481.31	312.02
481.746	349.47
482.181	290.96
482.617	340.11
483.053	288.62
483.488	319.04
483.924	365.85
484.36	403.3
484.795	225.42
485.23	237.13
485.666	370.54
486.101	365.85
486.536	319.04
486.971	323.73
487.407	347.13
487.842	312.02
488.277	328.41
488.712	305
489.146	344.79
489.581	286.28
490.016	295.64
490.451	370.54
490.885	288.62
491.32	377.56
491.755	274.57
492.189	363.51
492.624	377.56
493.058	354.15
493.492	342.45
493.927	300.32
494.361	335.43
494.795	370.54
495.229	283.94
495.663	354.15
496.097	361.17
496.531	316.7
496.965	279.26
497.399	351.81
497.833	349.47
498.266	340.11
498.7	377.56
499.134	321.38
499.567	307.34
500.001	323.73
500.434	351.81
500.868	309.68
501.301	300.32
501.734	260.53
502.168	288.62
502.601	255.85
503.034	361.17
503.467	286.28
503.9	335.43
504.333	316.7
504.766	276.91
505.199	363.51
505.632	335.43
506.064	302.66
506.497	269.89
506.93	354.15
507.362	349.47
507.795	330.75
508.227	281.6
508.66	241.81
509.092	349.47
509.524	328.41
509.956	337.77
510.389	309.68
510.821	283.94
511.253	305
511.685	328.41
512.117	342.45
512.549	323.73
512.981	333.09
513.412	368.2
513.844	314.36
514.276	372.88
514.707	307.34
515.139	344.79
515.571	290.96
516.002	344.79
516.433	335.43
516.865	260.53
517.296	340.11
517.727	309.68
518.159	302.66
518.59	354.15
519.021	326.07
519.452	337.77
519.883	351.81
520.314	370.54
520.744	312.02
521.175	326.07
521.606	356.49
522.037	326.07
522.467	321.38
522.898	356.49
523.328	372.88
523.759	361.17
524.189	302.66
524.62	305
525.05	347.13
525.48	391.6
525.91	382.24
526.341	309.68
526.771	349.47
527.201	300.32
527.631	330.75
528.061	368.2
528.49	328.41
528.92	361.17
529.35	333.09
529.78	370.54
530.209	333.09
530.639	305
531.068	377.56
531.498	283.94
531.927	340.11
532.357	326.07
532.786	363.51
533.215	375.22
533.644	267.55
534.074	295.64
534.503	274.57
534.932	283.94
535.361	351.81
535.79	344.79
536.218	368.2
536.647	328.41
537.076	314.36
537.505	354.15
537.933	297.98
538.362	337.77
538.79	262.87
539.219	349.47
539.647	326.07
540.076	288.62
540.504	272.23
540.932	309.68
541.36	365.85
541.788	321.38
542.217	349.47
542.645	314.36
543.073	342.45
543.5	276.91
543.928	361.17
544.356	300.32
544.784	307.34
545.211	330.75
545.639	354.15
546.067	368.2
546.494	351.81
546.922	302.66
547.349	309.68
547.776	293.3
548.204	262.87
548.631	237.13
549.058	328.41
549.485	309.68
549.912	379.9
550.339	328.41
550.766	253.51
551.193	323.73
551.62	342.45
552.047	321.38
552.474	365.85
552.9	356.49
553.327	297.98
553.754	302.66
554.18	389.26
554.607	290.96
555.033	300.32
555.459	396.28
555.886	347.13
556.312	293.3
556.738	305
557.164	309.68
557.59	333.09
558.016	342.45
558.442	370.54
558.868	326.07
559.294	328.41
559.72	354.15
560.145	335.43
560.571	307.34
560.997	340.11
561.422	333.09
561.848	293.3
562.273	265.21
562.699	293.3
563.124	314.36
563.549	321.38
563.974	319.04
564.4	314.36
564.825	347.13
565.25	335.43
565.675	314.36
566.1	375.22
566.525	269.89
566.95	300.32
567.374	344.79
567.799	246.49
568.224	333.09
568.648	302.66
569.073	305
569.497	335.43
569.922	300.32
570.346	330.75
570.771	351.81
571.195	283.94
571.619	260.53
572.043	347.13
572.467	300.32
572.891	326.07
573.315	276.91
573.739	279.26
574.163	361.17
574.587	403.3
575.011	307.34
575.435	316.7
575.858	335.43
576.282	312.02
576.705	319.04
577.129	349.47
577.552	377.56
577.976	330.75
578.399	347.13
578.822	323.73
579.245	258.19
579.669	300.32
580.092	323.73
580.515	314.36
580.938	246.49
581.361	340.11
581.784	351.81
582.206	307.34
582.629	330.75
583.052	337.77
583.474	379.9
583.897	302.66
584.32	326.07
584.742	342.45
585.165	375.22
585.587	330.75
586.009	365.85
586.431	293.3
586.854	372.88
587.276	305
587.698	351.81
588.12	356.49
588.542	300.32
588.964	260.53
589.386	269.89
589.807	326.07
590.229	379.9
590.651	328.41
591.073	354.15
591.494	312.02
591.916	382.24
592.337	293.3
592.759	351.81
593.18	279.26
593.601	328.41
594.022	344.79
594.444	351.81
594.865	443.09
595.286	321.38
595.707	333.09
596.128	340.11
596.549	340.11
596.97	337.77
597.39	281.6
597.811	368.2
598.232	323.73
598.652	234.78
599.073	384.58
599.494	305
599.914	281.6
600.334	241.81
600.755	375.22
601.175	347.13
601.595	358.83
602.015	253.51
602.436	297.98
602.856	426.71
603.276	286.28
603.696	342.45
604.115	323.73
604.535	302.66
604.955	307.34
605.375	326.07
605.794	297.98
606.214	330.75
606.634	295.64
607.053	297.98
607.473	386.92
607.892	354.15
608.311	323.73
608.731	307.34
609.15	307.34
609.569	337.77
609.988	312.02
610.407	316.7
610.826	340.11
611.245	372.88
611.664	290.96
612.083	319.04
612.501	368.2
612.92	389.26
613.339	316.7
613.757	375.22
614.176	342.45
614.594	314.36
615.013	358.83
615.431	293.3
615.85	267.55
616.268	316.7
616.686	326.07
617.104	314.36
617.522	342.45
617.94	312.02
618.358	297.98
618.776	386.92
619.194	321.38
619.612	288.62
620.03	361.17
620.447	293.3
620.865	319.04
621.282	286.28
621.7	349.47
622.117	368.2
622.535	281.6
622.952	314.36
623.369	297.98
623.787	342.45
624.204	295.64
624.621	328.41
625.038	297.98
625.455	321.38
625.872	368.2
626.289	279.26
626.706	305
627.123	274.57
627.539	314.36
627.956	309.68
628.373	326.07
628.789	354.15
629.206	375.22
629.622	269.89
630.038	319.04
630.455	326.07
630.871	316.7
631.287	361.17
631.703	283.94
632.12	337.77
632.536	340.11
632.952	274.57
633.368	354.15
633.783	328.41
634.199	333.09
634.615	253.51
635.031	333.09
635.446	288.62
635.862	309.68
636.277	354.15
636.693	361.17
637.108	330.75
637.524	377.56
637.939	361.17
638.354	326.07
638.77	326.07
639.185	356.49
639.6	328.41
640.015	316.7
640.43	349.47
640.845	293.3
641.259	319.04
641.674	300.32
642.089	335.43
642.504	272.23
642.918	342.45
643.333	281.6
643.747	300.32
644.162	330.75
644.576	295.64
644.991	344.79
645.405	323.73
645.819	267.55
646.233	267.55
646.647	377.56
647.061	307.34
647.475	340.11
647.889	340.11
648.303	283.94
648.717	412.67
649.131	307.34
649.545	333.09
649.958	267.55
650.372	319.04
650.785	295.64
651.199	255.85
651.612	316.7
652.026	349.47
652.439	300.32
652.852	297.98
653.266	300.32
653.679	330.75
654.092	319.04
654.505	337.77
654.918	316.7
655.331	323.73
655.744	328.41
656.156	361.17
656.569	356.49
656.982	307.34
657.394	312.02
657.807	295.64
658.22	312.02
658.632	309.68
659.044	358.83
659.457	300.32
659.869	344.79
660.281	309.68
660.693	347.13
661.106	281.6
661.518	305
661.93	326.07
662.342	323.73
662.754	389.26
663.165	319.04
663.577	344.79
663.989	312.02
664.401	330.75
664.812	288.62
665.224	239.47
665.635	349.47
666.047	384.58
666.458	347.13
666.869	274.57
667.281	358.83
667.692	333.09
668.103	347.13
668.514	305
668.925	262.87
669.336	342.45
669.747	279.26
670.158	300.32
670.569	377.56
670.979	272.23
671.39	283.94
671.801	335.43
672.211	309.68
672.622	276.91
673.032	290.96
673.443	295.64
673.853	307.34
674.263	356.49
674.674	335.43
675.084	281.6
675.494	330.75
675.904	279.26
676.314	351.81
676.724	312.02
677.134	314.36
677.544	281.6
677.953	321.38
678.363	340.11
678.773	333.09
679.182	326.07
679.592	328.41
680.001	356.49
680.411	248.83
680.82	330.75
681.23	316.7
681.639	328.41
682.048	347.13
682.457	255.85
682.866	323.73
683.275	344.79
683.684	333.09
684.093	347.13
684.502	276.91
684.911	307.34
685.32	349.47
685.728	269.89
686.137	370.54
686.546	312.02
686.954	354.15
687.363	347.13
687.771	283.94
688.179	377.56
688.588	379.9
688.996	312.02
689.404	305
689.812	305
690.22	262.87
690.628	349.47
691.036	295.64
691.444	330.75
691.852	283.94
692.26	403.3
692.667	319.04
693.075	302.66
693.483	398.62
693.89	361.17
694.298	314.36
694.705	314.36
695.112	333.09
695.52	326.07
695.927	297.98
696.334	321.38
696.741	326.07
697.148	283.94
697.555	340.11
697.962	344.79
698.369	356.49
698.776	363.51
699.183	351.81
699.59	290.96
699.996	354.15
700.403	342.45
700.81	260.53
701.216	349.47
701.623	323.73
702.029	297.98
702.435	349.47
702.842	321.38
703.248	375.22
703.654	363.51
704.06	363.51
704.466	258.19
704.872	342.45
705.278	337.77
705.684	307.34
706.09	302.66
706.496	307.34
706.901	251.17
707.307	370.54
707.712	358.83
708.118	342.45
708.523	316.7
708.929	326.07
709.334	269.89
709.74	384.58
710.145	330.75
710.55	269.89
710.955	316.7
711.36	297.98
711.765	328.41
712.17	319.04
712.575	302.66
712.98	873.75
713.385	330.75
713.789	342.45
714.194	328.41
714.599	351.81
715.003	356.49
715.408	319.04
715.812	335.43
716.217	347.13
716.621	386.92
717.025	314.36
717.429	248.83
717.833	265.21
718.238	361.17
718.642	365.85
719.046	321.38
719.449	297.98
719.853	347.13
720.257	302.66
720.661	337.77
721.065	337.77
721.468	302.66
721.872	361.17
722.275	351.81
722.679	347.13
723.082	370.54
723.485	356.49
723.889	349.47
724.292	269.89
724.695	248.83
725.098	316.7
725.501	342.45
725.904	314.36
726.307	312.02
726.71	307.34
727.113	354.15
727.516	340.11
727.918	326.07
728.321	342.45
728.724	335.43
729.126	316.7
729.529	337.77
729.931	363.51
730.333	344.79
730.736	274.57
731.138	312.02
731.54	305
731.942	326.07
732.344	312.02
732.746	361.17
733.148	276.91
733.55	340.11
733.952	302.66
734.354	314.36
734.756	326.07
735.157	293.3
735.559	276.91
735.96	314.36
736.362	335.43
736.763	251.17
737.165	305
737.566	302.66
737.967	316.7
738.368	293.3
738.77	288.62
739.171	335.43
739.572	276.91
739.973	415.01
740.374	305
740.774	321.38
741.175	316.7
741.576	354.15
741.977	333.09
742.377	251.17
742.778	290.96
743.178	363.51
743.579	293.3
743.979	307.34
744.379	297.98
744.78	333.09
745.18	340.11
745.58	361.17
745.98	335.43
746.38	274.57
746.78	316.7
747.18	328.41
747.58	349.47
747.98	241.81
748.38	244.15
748.779	321.38
749.179	276.91
749.578	347.13
749.978	302.66
750.377	323.73
750.777	309.68
751.176	344.79
751.575	337.77
751.975	286.28
752.374	283.94
752.773	347.13
753.172	326.07
753.571	337.77
753.97	330.75
754.369	323.73
754.768	314.36
755.166	363.51
755.565	333.09
755.964	300.32
756.362	288.62
756.761	326.07
757.159	316.7
757.558	316.7
757.956	370.54
758.354	297.98
758.753	354.15
759.151	288.62
759.549	297.98
759.947	312.02
760.345	330.75
760.743	358.83
761.141	293.3
761.539	269.89
761.936	342.45
762.334	305
762.732	361.17
763.129	295.64
763.527	368.2
763.924	312.02
764.322	316.7
764.719	358.83
765.117	344.79
765.514	314.36
765.911	290.96
766.308	335.43
766.705	342.45
767.102	354.15
