Data from Al_FLMS009871__704__15-09-05-134.txt Node

Date: Fri Mar 08 15:09:05 CST 2024
User: pe5414po
Spectrometer: FLMS00987
Trigger mode: 0
Integration Time (sec): 1.000000E-1
Scans to average: 1
Electric dark correction enabled: true
Nonlinearity correction enabled: false
Boxcar width: 0
XAxis mode: Wavelengths
Number of Pixels in Spectrum: 2048
>>>>>Begin Spectral Data<<<<<
188.938	-86.01
189.409	-86.01
189.879	-86.01
190.349	-86.01
190.819	-36.86
191.29	-116.44
191.76	-69.63
192.23	-107.08
192.7	-116.44
193.17	-4.1
193.64	-34.52
194.109	-57.93
194.579	2.93
195.049	-15.8
195.519	-6.44
195.988	59.1
196.458	70.8
196.927	54.42
197.397	134
197.866	40.37
198.336	166.76
198.805	213.57
199.274	197.19
199.744	96.55
200.213	166.76
200.682	187.83
201.151	187.83
201.62	248.68
202.089	274.43
202.558	229.96
203.027	290.81
203.495	244
203.964	269.75
204.433	274.43
204.902	297.83
205.37	309.54
205.839	295.49
206.307	290.81
206.776	269.75
207.244	314.22
207.712	337.62
208.181	344.64
208.649	337.62
209.117	276.77
209.585	246.34
210.053	304.85
210.521	281.45
210.989	318.9
211.457	274.43
211.925	283.79
212.393	293.15
212.861	239.32
213.328	276.77
213.796	265.07
214.264	265.07
214.731	255.7
215.199	288.47
215.666	279.11
216.133	297.83
216.601	251.02
217.068	307.2
217.535	272.09
218.003	272.09
218.47	281.45
218.937	276.77
219.404	276.77
219.871	286.13
220.338	267.41
220.805	295.49
221.271	293.15
221.738	241.66
222.205	265.07
222.671	311.88
223.138	251.02
223.605	288.47
224.071	262.73
224.538	241.66
225.004	241.66
225.47	304.85
225.937	295.49
226.403	304.85
226.869	262.73
227.335	244
227.801	288.47
228.267	222.94
228.733	279.11
229.199	286.13
229.665	220.6
230.131	258.04
230.597	178.47
231.062	244
231.528	297.83
231.994	255.7
232.459	307.2
232.925	290.81
233.39	290.81
233.856	258.04
234.321	218.25
234.786	272.09
235.252	253.36
235.717	323.58
236.182	265.07
236.647	293.15
237.112	267.41
237.577	314.22
238.042	255.7
238.507	297.83
238.972	232.3
239.436	246.34
239.901	274.43
240.366	302.51
240.83	276.77
241.295	229.96
241.76	265.07
242.224	255.7
242.688	325.92
243.153	288.47
243.617	293.15
244.081	255.7
244.545	274.43
245.01	272.09
245.474	258.04
245.938	297.83
246.402	274.43
246.866	302.51
247.33	272.09
247.793	204.21
248.257	300.17
248.721	293.15
249.185	321.24
249.648	328.26
250.112	332.94
250.575	295.49
251.039	288.47
251.502	297.83
251.965	300.17
252.429	260.38
252.892	274.43
253.355	323.58
253.818	328.26
254.281	295.49
254.744	248.68
255.207	293.15
255.67	297.83
256.133	332.94
256.596	265.07
257.059	241.66
257.522	344.64
257.984	332.94
258.447	236.98
258.909	236.98
259.372	220.6
259.834	300.17
260.297	297.83
260.759	260.38
261.221	260.38
261.684	330.6
262.146	258.04
262.608	300.17
263.07	276.77
263.532	286.13
263.994	288.47
264.456	279.11
264.918	318.9
265.38	283.79
265.842	302.51
266.303	346.98
266.765	318.9
267.227	262.73
267.688	358.69
268.15	297.83
268.611	323.58
269.072	286.13
269.534	300.17
269.995	246.34
270.456	286.13
270.918	330.6
271.379	260.38
271.84	304.85
272.301	265.07
272.762	344.64
273.223	288.47
273.684	290.81
274.144	297.83
274.605	293.15
275.066	258.04
275.527	295.49
275.987	314.22
276.448	309.54
276.908	283.79
277.369	321.24
277.829	311.88
278.289	279.11
278.75	229.96
279.21	297.83
279.67	316.56
280.13	391.45
280.59	234.64
281.05	218.25
281.51	211.23
281.97	253.36
282.43	272.09
282.89	300.17
283.35	255.7
283.809	302.51
284.269	300.17
284.729	286.13
285.188	267.41
285.648	293.15
286.107	288.47
286.567	258.04
287.026	325.92
287.485	297.83
287.944	274.43
288.404	267.41
288.863	335.28
289.322	267.41
289.781	281.45
290.24	246.34
290.699	316.56
291.158	267.41
291.616	302.51
292.075	309.54
292.534	302.51
292.992	286.13
293.451	293.15
293.91	339.96
294.368	337.62
294.827	251.02
295.285	335.28
295.743	246.34
296.202	208.89
296.66	262.73
297.118	304.85
297.576	318.9
298.034	222.94
298.492	293.15
298.95	328.26
299.408	241.66
299.866	276.77
300.324	314.22
300.781	293.15
301.239	229.96
301.697	272.09
302.154	269.75
302.612	297.83
303.069	307.2
303.527	321.24
303.984	272.09
304.441	286.13
304.899	276.77
305.356	323.58
305.813	283.79
306.27	332.94
306.727	297.83
307.184	354.01
307.641	255.7
308.098	316.56
308.555	279.11
309.012	309.54
309.468	262.73
309.925	344.64
310.382	304.85
310.838	267.41
311.295	318.9
311.751	286.13
312.208	323.58
312.664	274.43
313.12	307.2
313.577	314.22
314.033	363.37
314.489	321.24
314.945	307.2
315.401	304.85
315.857	344.64
316.313	272.09
316.769	311.88
317.225	276.77
317.681	297.83
318.136	337.62
318.592	318.9
319.048	265.07
319.503	260.38
319.959	272.09
320.414	229.96
320.869	314.22
321.325	307.2
321.78	318.9
322.235	346.98
322.691	339.96
323.146	311.88
323.601	215.91
324.056	304.85
324.511	295.49
324.966	302.51
325.421	255.7
325.875	211.23
326.33	279.11
326.785	344.64
327.24	349.32
327.694	335.28
328.149	218.25
328.603	332.94
329.058	314.22
329.512	232.3
329.966	337.62
330.421	260.38
330.875	330.6
331.329	307.2
331.783	304.85
332.237	342.3
332.691	332.94
333.145	265.07
333.599	328.26
334.053	269.75
334.507	297.83
334.96	302.51
335.414	297.83
335.868	300.17
336.321	295.49
336.775	258.04
337.228	279.11
337.682	253.36
338.135	407.84
338.588	316.56
339.042	321.24
339.495	314.22
339.948	370.39
340.401	293.15
340.854	276.77
341.307	316.56
341.76	358.69
342.213	269.75
342.666	330.6
343.119	344.64
343.571	332.94
344.024	283.79
344.477	276.77
344.929	349.32
345.382	253.36
345.834	316.56
346.287	325.92
346.739	274.43
347.191	372.73
347.644	351.67
348.096	309.54
348.548	300.17
349	349.32
349.452	300.17
349.904	265.07
350.356	337.62
350.808	337.62
351.26	358.69
351.711	300.17
352.163	321.24
352.615	276.77
353.066	342.3
353.518	255.7
353.969	328.26
354.421	265.07
354.872	325.92
355.324	274.43
355.775	339.96
356.226	314.22
356.677	339.96
357.128	290.81
357.579	368.05
358.03	283.79
358.481	288.47
358.932	335.28
359.383	356.35
359.834	349.32
360.285	321.24
360.735	272.09
361.186	300.17
361.637	346.98
362.087	302.51
362.538	363.37
362.988	342.3
363.438	309.54
363.889	295.49
364.339	325.92
364.789	323.58
365.239	321.24
365.689	365.71
366.139	368.05
366.589	300.17
367.039	265.07
367.489	335.28
367.939	309.54
368.389	344.64
368.839	304.85
369.288	302.51
369.738	323.58
370.187	314.22
370.637	262.73
371.086	283.79
371.536	302.51
371.985	302.51
372.434	307.2
372.884	304.85
373.333	293.15
373.782	293.15
374.231	283.79
374.68	332.94
375.129	372.73
375.578	316.56
376.027	288.47
376.475	368.05
376.924	386.77
377.373	267.41
377.822	328.26
378.27	342.3
378.719	246.34
379.167	330.6
379.616	311.88
380.064	300.17
380.512	349.32
380.961	288.47
381.409	325.92
381.857	246.34
382.305	314.22
382.753	297.83
383.201	309.54
383.649	276.77
384.097	279.11
384.545	297.83
384.992	332.94
385.44	351.67
385.888	255.7
386.335	276.77
386.783	361.03
387.231	293.15
387.678	358.69
388.125	316.56
388.573	279.11
389.02	274.43
389.467	354.01
389.914	358.69
390.362	337.62
390.809	351.67
391.256	335.28
391.703	290.81
392.15	302.51
392.596	328.26
393.043	311.88
393.49	346.98
393.937	290.81
394.383	316.56
394.83	375.07
395.276	246.34
395.723	332.94
396.169	318.9
396.616	253.36
397.062	346.98
397.508	325.92
397.954	349.32
398.401	295.49
398.847	309.54
399.293	318.9
399.739	267.41
400.185	321.24
400.631	358.69
401.076	295.49
401.522	328.26
401.968	344.64
402.414	307.2
402.859	321.24
403.305	311.88
403.75	375.07
404.196	314.22
404.641	328.26
405.086	330.6
405.532	368.05
405.977	300.17
406.422	274.43
406.867	314.22
407.312	316.56
407.757	293.15
408.202	276.77
408.647	260.38
409.092	330.6
409.537	328.26
409.982	330.6
410.426	330.6
410.871	328.26
411.316	265.07
411.76	351.67
412.205	368.05
412.649	330.6
413.093	323.58
413.538	288.47
413.982	297.83
414.426	255.7
414.87	246.34
415.314	279.11
415.758	262.73
416.202	281.45
416.646	363.37
417.09	316.56
417.534	337.62
417.978	290.81
418.421	346.98
418.865	328.26
419.309	267.41
419.752	314.22
420.196	234.64
420.639	346.98
421.083	356.35
421.526	316.56
421.969	302.51
422.412	309.54
422.856	300.17
423.299	286.13
423.742	267.41
424.185	297.83
424.628	304.85
425.071	318.9
425.513	255.7
425.956	339.96
426.399	234.64
426.842	335.28
427.284	403.16
427.727	372.73
428.169	307.2
428.612	318.9
429.054	332.94
429.497	239.32
429.939	300.17
430.381	295.49
430.823	267.41
431.265	382.09
431.707	311.88
432.149	318.9
432.591	382.09
433.033	251.02
433.475	314.22
433.917	297.83
434.359	328.26
434.8	370.39
435.242	286.13
435.684	325.92
436.125	365.71
436.567	314.22
437.008	311.88
437.449	316.56
437.891	300.17
438.332	300.17
438.773	321.24
439.214	302.51
439.656	253.36
440.097	346.98
440.538	375.07
440.978	260.38
441.419	307.2
441.86	267.41
442.301	281.45
442.742	314.22
443.182	258.04
443.623	365.71
444.063	316.56
444.504	318.9
444.944	293.15
445.385	307.2
445.825	267.41
446.265	290.81
446.706	323.58
447.146	325.92
447.586	351.67
448.026	283.79
448.466	295.49
448.906	330.6
449.346	309.54
449.786	274.43
450.225	321.24
450.665	307.2
451.105	213.57
451.544	314.22
451.984	307.2
452.424	265.07
452.863	375.07
453.302	262.73
453.742	358.69
454.181	332.94
454.62	330.6
455.059	300.17
455.499	286.13
455.938	330.6
456.377	302.51
456.816	349.32
457.254	276.77
457.693	382.09
458.132	265.07
458.571	363.37
459.01	302.51
459.448	279.11
459.887	309.54
460.325	288.47
460.764	286.13
461.202	325.92
461.641	393.8
462.079	276.77
462.517	351.67
462.955	279.11
463.393	346.98
463.832	304.85
464.27	321.24
464.708	321.24
465.145	356.35
465.583	262.73
466.021	302.51
466.459	316.56
466.897	288.47
467.334	323.58
467.772	272.09
468.209	330.6
468.647	332.94
469.084	361.03
469.522	354.01
469.959	323.58
470.396	283.79
470.833	288.47
471.271	297.83
471.708	318.9
472.145	321.24
472.582	279.11
473.019	351.67
473.456	375.07
473.892	342.3
474.329	283.79
474.766	332.94
475.202	302.51
475.639	356.35
476.076	260.38
476.512	354.01
476.949	363.37
477.385	288.47
477.821	342.3
478.258	318.9
478.694	323.58
479.13	332.94
479.566	346.98
480.002	354.01
480.438	337.62
480.874	311.88
481.31	330.6
481.746	323.58
482.181	393.8
482.617	248.68
483.053	330.6
483.488	330.6
483.924	297.83
484.36	304.85
484.795	232.3
485.23	293.15
485.666	255.7
486.101	295.49
486.536	363.37
486.971	272.09
487.407	246.34
487.842	288.47
488.277	283.79
488.712	337.62
489.146	328.26
489.581	246.34
490.016	258.04
490.451	265.07
490.885	361.03
491.32	379.75
491.755	283.79
492.189	307.2
492.624	307.2
493.058	330.6
493.492	302.51
493.927	307.2
494.361	304.85
494.795	276.77
495.229	307.2
495.663	302.51
496.097	351.67
496.531	358.69
496.965	325.92
497.399	272.09
497.833	311.88
498.266	311.88
498.7	335.28
499.134	375.07
499.567	361.03
500.001	368.05
500.434	363.37
500.868	384.43
501.301	309.54
501.734	302.51
502.168	293.15
502.601	318.9
503.034	295.49
503.467	346.98
503.9	325.92
504.333	372.73
504.766	365.71
505.199	325.92
505.632	272.09
506.064	332.94
506.497	286.13
506.93	361.03
507.362	290.81
507.795	304.85
508.227	260.38
508.66	349.32
509.092	335.28
509.524	295.49
509.956	344.64
510.389	323.58
510.821	311.88
511.253	342.3
511.685	265.07
512.117	346.98
512.549	344.64
512.981	339.96
513.412	372.73
513.844	377.41
514.276	309.54
514.707	384.43
515.139	372.73
515.571	239.32
516.002	368.05
516.433	351.67
516.865	314.22
517.296	290.81
517.727	311.88
518.159	311.88
518.59	311.88
519.021	330.6
519.452	351.67
519.883	330.6
520.314	316.56
520.744	311.88
521.175	307.2
521.606	311.88
522.037	293.15
522.467	346.98
522.898	325.92
523.328	304.85
523.759	293.15
524.189	288.47
524.62	314.22
525.05	351.67
525.48	311.88
525.91	302.51
526.341	375.07
526.771	321.24
527.201	241.66
527.631	288.47
528.061	349.32
528.49	300.17
528.92	372.73
529.35	272.09
529.78	276.77
530.209	354.01
530.639	267.41
531.068	314.22
531.498	309.54
531.927	344.64
532.357	267.41
532.786	335.28
533.215	339.96
533.644	290.81
534.074	309.54
534.503	316.56
534.932	361.03
535.361	344.64
535.79	332.94
536.218	300.17
536.647	295.49
537.076	325.92
537.505	272.09
537.933	335.28
538.362	328.26
538.79	330.6
539.219	286.13
539.647	318.9
540.076	332.94
540.504	234.64
540.932	316.56
541.36	368.05
541.788	365.71
542.217	325.92
542.645	342.3
543.073	304.85
543.5	288.47
543.928	332.94
544.356	370.39
544.784	372.73
545.211	349.32
545.639	332.94
546.067	311.88
546.494	330.6
546.922	309.54
547.349	339.96
547.776	335.28
548.204	293.15
548.631	349.32
549.058	225.28
549.485	307.2
549.912	332.94
550.339	325.92
550.766	316.56
551.193	300.17
551.62	337.62
552.047	269.75
552.474	332.94
552.9	403.16
553.327	328.26
553.754	356.35
554.18	309.54
554.607	288.47
555.033	328.26
555.459	295.49
555.886	300.17
556.312	361.03
556.738	337.62
557.164	332.94
557.59	339.96
558.016	300.17
558.442	363.37
558.868	332.94
559.294	325.92
559.72	316.56
560.145	328.26
560.571	361.03
560.997	260.38
561.422	290.81
561.848	323.58
562.273	318.9
562.699	288.47
563.124	370.39
563.549	356.35
563.974	354.01
564.4	356.35
564.825	304.85
565.25	354.01
565.675	248.68
566.1	323.58
566.525	304.85
566.95	269.75
567.374	328.26
567.799	330.6
568.224	325.92
568.648	260.38
569.073	309.54
569.497	351.67
569.922	358.69
570.346	290.81
570.771	300.17
571.195	328.26
571.619	363.37
572.043	354.01
572.467	300.17
572.891	215.91
573.315	356.35
573.739	323.58
574.163	295.49
574.587	290.81
575.011	295.49
575.435	328.26
575.858	274.43
576.282	339.96
576.705	342.3
577.129	316.56
577.552	309.54
577.976	316.56
578.399	321.24
578.822	265.07
579.245	323.58
579.669	356.35
580.092	379.75
580.515	302.51
580.938	372.73
581.361	344.64
581.784	281.45
582.206	344.64
582.629	288.47
583.052	304.85
583.474	304.85
583.897	290.81
584.32	281.45
584.742	342.3
585.165	302.51
585.587	297.83
586.009	332.94
586.431	258.04
586.854	330.6
587.276	283.79
587.698	323.58
588.12	302.51
588.542	302.51
588.964	368.05
589.386	325.92
589.807	222.94
590.229	335.28
590.651	339.96
591.073	311.88
591.494	346.98
591.916	356.35
592.337	323.58
592.759	302.51
593.18	325.92
593.601	361.03
594.022	309.54
594.444	349.32
594.865	344.64
595.286	403.16
595.707	316.56
596.128	267.41
596.549	288.47
596.97	412.52
597.39	346.98
597.811	337.62
598.232	335.28
598.652	314.22
599.073	351.67
599.494	295.49
599.914	342.3
600.334	248.68
600.755	354.01
601.175	368.05
601.595	325.92
602.015	302.51
602.436	325.92
602.856	431.24
603.276	274.43
603.696	295.49
604.115	311.88
604.535	318.9
604.955	332.94
605.375	368.05
605.794	279.11
606.214	316.56
606.634	332.94
607.053	354.01
607.473	354.01
607.892	314.22
608.311	389.11
608.731	302.51
609.15	300.17
609.569	337.62
609.988	311.88
610.407	297.83
610.826	321.24
611.245	389.11
611.664	323.58
612.083	316.56
612.501	337.62
612.92	265.07
613.339	424.22
613.757	302.51
614.176	346.98
614.594	300.17
615.013	297.83
615.431	321.24
615.85	307.2
616.268	318.9
616.686	375.07
617.104	384.43
617.522	330.6
617.94	295.49
618.358	295.49
618.776	258.04
619.194	328.26
619.612	316.56
620.03	283.79
620.447	372.73
620.865	274.43
621.282	314.22
621.7	379.75
622.117	307.2
622.535	379.75
622.952	349.32
623.369	293.15
623.787	339.96
624.204	323.58
624.621	358.69
625.038	316.56
625.455	316.56
625.872	330.6
626.289	307.2
626.706	339.96
627.123	332.94
627.539	332.94
627.956	344.64
628.373	314.22
628.789	302.51
629.206	344.64
629.622	307.2
630.038	286.13
630.455	316.56
630.871	349.32
631.287	267.41
631.703	365.71
632.12	297.83
632.536	295.49
632.952	279.11
633.368	354.01
633.783	290.81
634.199	389.11
634.615	293.15
635.031	328.26
635.446	384.43
635.862	361.03
636.277	307.2
636.693	349.32
637.108	267.41
637.524	328.26
637.939	288.47
638.354	234.64
638.77	302.51
639.185	344.64
639.6	318.9
640.015	342.3
640.43	272.09
640.845	372.73
641.259	229.96
641.674	309.54
642.089	335.28
642.504	309.54
642.918	332.94
643.333	321.24
643.747	323.58
644.162	300.17
644.576	361.03
644.991	335.28
645.405	288.47
645.819	339.96
646.233	346.98
646.647	335.28
647.061	389.11
647.475	258.04
647.889	321.24
648.303	328.26
648.717	318.9
649.131	297.83
649.545	297.83
649.958	307.2
650.372	356.35
650.785	346.98
651.199	346.98
651.612	295.49
652.026	304.85
652.439	389.11
652.852	258.04
653.266	304.85
653.679	307.2
654.092	386.77
654.505	316.56
654.918	325.92
655.331	297.83
655.744	356.35
656.156	344.64
656.569	351.67
656.982	304.85
657.394	295.49
657.807	342.3
658.22	304.85
658.632	325.92
659.044	354.01
659.457	335.28
659.869	288.47
660.281	344.64
660.693	332.94
661.106	323.58
661.518	314.22
661.93	309.54
662.342	337.62
662.754	293.15
663.165	279.11
663.577	321.24
663.989	272.09
664.401	295.49
664.812	335.28
665.224	328.26
665.635	302.51
666.047	323.58
666.458	330.6
666.869	290.81
667.281	337.62
667.692	302.51
668.103	265.07
668.514	265.07
668.925	337.62
669.336	309.54
669.747	283.79
670.158	274.43
670.569	293.15
670.979	332.94
671.39	323.58
671.801	325.92
672.211	363.37
672.622	236.98
673.032	302.51
673.443	293.15
673.853	248.68
674.263	318.9
674.674	325.92
675.084	321.24
675.494	255.7
675.904	311.88
676.314	248.68
676.724	272.09
677.134	274.43
677.544	321.24
677.953	377.41
678.363	339.96
678.773	318.9
679.182	349.32
679.592	339.96
680.001	325.92
680.411	391.45
680.82	323.58
681.23	283.79
681.639	316.56
682.048	267.41
682.457	332.94
682.866	307.2
683.275	358.69
683.684	351.67
684.093	325.92
684.502	368.05
684.911	323.58
685.32	372.73
685.728	311.88
686.137	300.17
686.546	279.11
686.954	321.24
687.363	300.17
687.771	302.51
688.179	365.71
688.588	337.62
688.996	316.56
689.404	276.77
689.812	307.2
690.22	295.49
690.628	337.62
691.036	328.26
691.444	372.73
691.852	309.54
692.26	344.64
692.667	290.81
693.075	300.17
693.483	328.26
693.89	272.09
694.298	290.81
694.705	328.26
695.112	379.75
695.52	290.81
695.927	318.9
696.334	300.17
696.741	332.94
697.148	349.32
697.555	365.71
697.962	304.85
698.369	314.22
698.776	307.2
699.183	330.6
699.59	267.41
699.996	297.83
700.403	330.6
700.81	318.9
701.216	269.75
701.623	269.75
702.029	281.45
702.435	325.92
702.842	318.9
703.248	356.35
703.654	290.81
704.06	314.22
704.466	272.09
704.872	281.45
705.278	314.22
705.684	304.85
706.09	321.24
706.496	337.62
706.901	309.54
707.307	260.38
707.712	316.56
708.118	372.73
708.523	337.62
708.929	253.36
709.334	337.62
709.74	286.13
710.145	309.54
710.55	258.04
710.955	375.07
711.36	262.73
711.765	354.01
712.17	337.62
712.575	279.11
712.98	875.95
713.385	337.62
713.789	272.09
714.194	318.9
714.599	267.41
715.003	330.6
715.408	332.94
715.812	304.85
716.217	342.3
716.621	269.75
717.025	307.2
717.429	335.28
717.833	372.73
718.238	344.64
718.642	361.03
719.046	328.26
719.449	267.41
719.853	342.3
720.257	328.26
720.661	302.51
721.065	346.98
721.468	297.83
721.872	283.79
722.275	393.8
722.679	316.56
723.082	295.49
723.485	323.58
723.889	321.24
724.292	295.49
724.695	337.62
725.098	372.73
725.501	330.6
725.904	265.07
726.307	339.96
726.71	328.26
727.113	300.17
727.516	349.32
727.918	307.2
728.321	283.79
728.724	244
729.126	309.54
729.529	335.28
729.931	389.11
730.333	335.28
730.736	337.62
731.138	309.54
731.54	318.9
731.942	354.01
732.344	332.94
732.746	332.94
733.148	300.17
733.55	342.3
733.952	267.41
734.354	260.38
734.756	330.6
735.157	398.48
735.559	302.51
735.96	377.41
736.362	337.62
736.763	297.83
737.165	255.7
737.566	311.88
737.967	269.75
738.368	286.13
738.77	323.58
739.171	335.28
739.572	325.92
739.973	332.94
740.374	307.2
740.774	316.56
741.175	379.75
741.576	323.58
741.977	316.56
742.377	272.09
742.778	290.81
743.178	344.64
743.579	335.28
743.979	281.45
744.379	323.58
744.78	262.73
745.18	361.03
745.58	258.04
745.98	365.71
746.38	330.6
746.78	290.81
747.18	325.92
747.58	288.47
747.98	281.45
748.38	302.51
748.779	300.17
749.179	309.54
749.578	290.81
749.978	253.36
750.377	255.7
750.777	309.54
751.176	351.67
751.575	267.41
751.975	281.45
752.374	325.92
752.773	290.81
753.172	246.34
753.571	288.47
753.97	370.39
754.369	290.81
754.768	309.54
755.166	307.2
755.565	229.96
755.964	316.56
756.362	248.68
756.761	272.09
757.159	258.04
757.558	382.09
757.956	365.71
758.354	311.88
758.753	253.36
759.151	283.79
759.549	300.17
759.947	314.22
760.345	297.83
760.743	290.81
761.141	330.6
761.539	295.49
761.936	321.24
762.334	281.45
762.732	267.41
763.129	302.51
763.527	372.73
763.924	339.96
764.322	351.67
764.719	279.11
765.117	349.32
765.514	258.04
765.911	330.6
