Data from Al_FLMS009871__1052__16-25-17-013.txt Node

Date: Fri Mar 08 16:25:17 CST 2024
User: pe5414po
Spectrometer: FLMS00987
Trigger mode: 0
Integration Time (sec): 1.000000E-1
Scans to average: 1
Electric dark correction enabled: true
Nonlinearity correction enabled: false
Boxcar width: 0
XAxis mode: Wavelengths
Number of Pixels in Spectrum: 2048
>>>>>Begin Spectral Data<<<<<
188.938	-134
189.409	-134
189.879	-134
190.349	-61.44
190.819	-115.27
191.29	-115.27
191.76	-122.29
192.23	-103.57
192.7	-59.1
193.17	-110.59
193.64	-12.29
194.109	8.78
194.579	-5.27
195.049	-21.65
195.519	4.1
195.988	-31.01
196.458	88.36
196.927	123.46
197.397	109.42
197.866	123.46
198.336	123.46
198.805	151.55
199.274	172.61
199.744	212.4
200.213	214.74
200.682	247.51
201.151	242.83
201.62	198.36
202.089	179.64
202.558	280.28
203.027	315.39
203.495	200.7
203.964	186.66
204.433	261.55
204.902	270.92
205.37	287.3
205.839	291.98
206.307	228.79
206.776	331.77
207.244	308.37
207.712	306.03
208.181	289.64
208.649	343.47
209.117	254.53
209.585	308.37
210.053	329.43
210.521	303.68
210.989	296.66
211.457	270.92
211.925	256.87
212.393	308.37
212.861	306.03
213.328	254.53
213.796	289.64
214.264	306.03
214.731	270.92
215.199	235.81
215.666	289.64
216.133	294.32
216.601	282.62
217.068	284.96
217.535	247.51
218.003	313.05
218.47	320.07
218.937	336.45
219.404	245.17
219.871	240.49
220.338	235.81
220.805	355.18
221.271	299
221.738	247.51
222.205	287.3
222.671	270.92
223.138	299
223.605	233.47
224.071	212.4
224.538	259.21
225.004	219.43
225.47	359.86
225.937	261.55
226.403	291.98
226.869	268.58
227.335	357.52
227.801	315.39
228.267	270.92
228.733	242.83
229.199	263.9
229.665	317.73
230.131	329.43
230.597	303.68
231.062	275.6
231.528	308.37
231.994	270.92
232.459	317.73
232.925	334.11
233.39	301.34
233.856	261.55
234.321	308.37
234.786	299
235.252	282.62
235.717	275.6
236.182	280.28
236.647	355.18
237.112	284.96
237.577	322.41
238.042	273.26
238.507	317.73
238.972	200.7
239.436	291.98
239.901	315.39
240.366	350.5
240.83	280.28
241.295	217.08
241.76	238.15
242.224	282.62
242.688	273.26
243.153	280.28
243.617	294.32
244.081	268.58
244.545	355.18
245.01	247.51
245.474	284.96
245.938	282.62
246.402	249.85
246.866	313.05
247.33	296.66
247.793	273.26
248.257	322.41
248.721	310.71
249.185	268.58
249.648	306.03
250.112	299
250.575	240.49
251.039	247.51
251.502	385.6
251.965	296.66
252.429	387.94
252.892	259.21
253.355	254.53
253.818	280.28
254.281	207.72
254.744	296.66
255.207	268.58
255.67	294.32
256.133	313.05
256.596	256.87
257.059	287.3
257.522	217.08
257.984	291.98
258.447	306.03
258.909	291.98
259.372	254.53
259.834	266.24
260.297	303.68
260.759	315.39
261.221	284.96
261.684	331.77
262.146	296.66
262.608	287.3
263.07	310.71
263.532	263.9
263.994	254.53
264.456	348.15
264.918	245.17
265.38	345.81
265.842	242.83
266.303	313.05
266.765	256.87
267.227	256.87
267.688	289.64
268.15	261.55
268.611	268.58
269.072	306.03
269.534	315.39
269.995	266.24
270.456	270.92
270.918	310.71
271.379	306.03
271.84	306.03
272.301	343.47
272.762	341.13
273.223	317.73
273.684	291.98
274.144	301.34
274.605	277.94
275.066	343.47
275.527	313.05
275.987	275.6
276.448	308.37
276.908	310.71
277.369	310.71
277.829	245.17
278.289	245.17
278.75	341.13
279.21	242.83
279.67	233.47
280.13	266.24
280.59	299
281.05	263.9
281.51	294.32
281.97	289.64
282.43	329.43
282.89	256.87
283.35	299
283.809	329.43
284.269	280.28
284.729	289.64
285.188	320.07
285.648	345.81
286.107	284.96
286.567	289.64
287.026	299
287.485	299
287.944	247.51
288.404	324.75
288.863	336.45
289.322	303.68
289.781	303.68
290.24	249.85
290.699	268.58
291.158	322.41
291.616	296.66
292.075	306.03
292.534	315.39
292.992	343.47
293.451	296.66
293.91	231.13
294.368	329.43
294.827	324.75
295.285	306.03
295.743	287.3
296.202	329.43
296.66	359.86
297.118	287.3
297.576	320.07
298.034	254.53
298.492	336.45
298.95	324.75
299.408	287.3
299.866	359.86
300.324	270.92
300.781	322.41
301.239	324.75
301.697	315.39
302.154	296.66
302.612	378.58
303.069	334.11
303.527	296.66
303.984	296.66
304.441	338.79
304.899	306.03
305.356	324.75
305.813	329.43
306.27	273.26
306.727	303.68
307.184	296.66
307.641	231.13
308.098	289.64
308.555	336.45
309.012	291.98
309.468	282.62
309.925	273.26
310.382	224.11
310.838	266.24
311.295	303.68
311.751	392.62
312.208	238.15
312.664	313.05
313.12	231.13
313.577	277.94
314.033	359.86
314.489	320.07
314.945	352.84
315.401	324.75
315.857	268.58
316.313	329.43
316.769	341.13
317.225	338.79
317.681	348.15
318.136	320.07
318.592	364.54
319.048	320.07
319.503	313.05
319.959	303.68
320.414	303.68
320.869	317.73
321.325	336.45
321.78	268.58
322.235	277.94
322.691	315.39
323.146	270.92
323.601	284.96
324.056	287.3
324.511	273.26
324.966	268.58
325.421	341.13
325.875	301.34
326.33	273.26
326.785	322.41
327.24	329.43
327.694	240.49
328.149	299
328.603	331.77
329.058	296.66
329.512	270.92
329.966	226.45
330.421	317.73
330.875	273.26
331.329	301.34
331.783	313.05
332.237	355.18
332.691	308.37
333.145	317.73
333.599	313.05
334.053	324.75
334.507	322.41
334.96	238.15
335.414	313.05
335.868	287.3
336.321	320.07
336.775	277.94
337.228	306.03
337.682	310.71
338.135	235.81
338.588	252.19
339.042	249.85
339.495	287.3
339.948	289.64
340.401	308.37
340.854	313.05
341.307	268.58
341.76	310.71
342.213	313.05
342.666	266.24
343.119	282.62
343.571	301.34
344.024	242.83
344.477	254.53
344.929	371.56
345.382	266.24
345.834	378.58
346.287	327.09
346.739	266.24
347.191	334.11
347.644	324.75
348.096	329.43
348.548	242.83
349	282.62
349.452	329.43
349.904	268.58
350.356	327.09
350.808	322.41
351.26	317.73
351.711	303.68
352.163	306.03
352.615	313.05
353.066	306.03
353.518	270.92
353.969	263.9
354.421	240.49
354.872	282.62
355.324	348.15
355.775	383.26
356.226	327.09
356.677	334.11
357.128	247.51
357.579	317.73
358.03	299
358.481	289.64
358.932	263.9
359.383	315.39
359.834	252.19
360.285	303.68
360.735	345.81
361.186	336.45
361.637	291.98
362.087	313.05
362.538	301.34
362.988	331.77
363.438	261.55
363.889	327.09
364.339	306.03
364.789	359.86
365.239	324.75
365.689	317.73
366.139	341.13
366.589	338.79
367.039	366.88
367.489	324.75
367.939	261.55
368.389	245.17
368.839	256.87
369.288	280.28
369.738	399.65
370.187	336.45
370.637	345.81
371.086	259.21
371.536	270.92
371.985	301.34
372.434	294.32
372.884	261.55
373.333	301.34
373.782	313.05
374.231	284.96
374.68	329.43
375.129	336.45
375.578	289.64
376.027	287.3
376.475	329.43
376.924	303.68
377.373	350.5
377.822	313.05
378.27	334.11
378.719	341.13
379.167	362.2
379.616	320.07
380.064	282.62
380.512	315.39
380.961	296.66
381.409	343.47
381.857	378.58
382.305	256.87
382.753	259.21
383.201	362.2
383.649	371.56
384.097	282.62
384.545	343.47
384.992	273.26
385.44	320.07
385.888	338.79
386.335	238.15
386.783	282.62
387.231	294.32
387.678	299
388.125	275.6
388.573	315.39
389.02	303.68
389.467	329.43
389.914	317.73
390.362	296.66
390.809	310.71
391.256	320.07
391.703	341.13
392.15	294.32
392.596	343.47
393.043	303.68
393.49	294.32
393.937	254.53
394.383	306.03
394.83	291.98
395.276	306.03
395.723	320.07
396.169	327.09
396.616	268.58
397.062	308.37
397.508	291.98
397.954	252.19
398.401	313.05
398.847	320.07
399.293	280.28
399.739	299
400.185	313.05
400.631	296.66
401.076	284.96
401.522	256.87
401.968	289.64
402.414	263.9
402.859	343.47
403.305	362.2
403.75	320.07
404.196	313.05
404.641	308.37
405.086	263.9
405.532	273.26
405.977	303.68
406.422	277.94
406.867	266.24
407.312	313.05
407.757	289.64
408.202	291.98
408.647	306.03
409.092	306.03
409.537	348.15
409.982	336.45
410.426	317.73
410.871	301.34
411.316	315.39
411.76	299
412.205	299
412.649	341.13
413.093	336.45
413.538	352.84
413.982	294.32
414.426	299
414.87	371.56
415.314	299
415.758	273.26
416.202	235.81
416.646	299
417.09	380.92
417.534	327.09
417.978	299
418.421	331.77
418.865	289.64
419.309	315.39
419.752	299
420.196	261.55
420.639	324.75
421.083	280.28
421.526	352.84
421.969	284.96
422.412	313.05
422.856	315.39
423.299	308.37
423.742	315.39
424.185	362.2
424.628	306.03
425.071	329.43
425.513	313.05
425.956	338.79
426.399	352.84
426.842	273.26
427.284	294.32
427.727	296.66
428.169	359.86
428.612	306.03
429.054	364.54
429.497	320.07
429.939	315.39
430.381	324.75
430.823	315.39
431.265	345.81
431.707	275.6
432.149	376.24
432.591	287.3
433.033	348.15
433.475	275.6
433.917	352.84
434.359	280.28
434.8	310.71
435.242	341.13
435.684	329.43
436.125	376.24
436.567	289.64
437.008	345.81
437.449	343.47
437.891	280.28
438.332	294.32
438.773	327.09
439.214	336.45
439.656	352.84
440.097	355.18
440.538	291.98
440.978	308.37
441.419	350.5
441.86	301.34
442.301	336.45
442.742	308.37
443.182	299
443.623	296.66
444.063	322.41
444.504	270.92
444.944	331.77
445.385	303.68
445.825	352.84
446.265	385.6
446.706	313.05
447.146	338.79
447.586	399.65
448.026	338.79
448.466	345.81
448.906	352.84
449.346	313.05
449.786	287.3
450.225	397.31
450.665	280.28
451.105	310.71
451.544	371.56
451.984	343.47
452.424	310.71
452.863	359.86
453.302	317.73
453.742	329.43
454.181	343.47
454.62	313.05
455.059	277.94
455.499	336.45
455.938	336.45
456.377	324.75
456.816	338.79
457.254	320.07
457.693	336.45
458.132	322.41
458.571	315.39
459.01	308.37
459.448	308.37
459.887	322.41
460.325	376.24
460.764	338.79
461.202	313.05
461.641	289.64
462.079	334.11
462.517	303.68
462.955	270.92
463.393	306.03
463.832	359.86
464.27	310.71
464.708	282.62
465.145	233.47
465.583	357.52
466.021	343.47
466.459	303.68
466.897	294.32
467.334	317.73
467.772	364.54
468.209	404.33
468.647	324.75
469.084	320.07
469.522	313.05
469.959	369.22
470.396	331.77
470.833	306.03
471.271	284.96
471.708	310.71
472.145	352.84
472.582	324.75
473.019	343.47
473.456	287.3
473.892	284.96
474.329	282.62
474.766	310.71
475.202	334.11
475.639	291.98
476.076	310.71
476.512	392.62
476.949	299
477.385	338.79
477.821	317.73
478.258	345.81
478.694	369.22
479.13	317.73
479.566	331.77
480.002	261.55
480.438	313.05
480.874	287.3
481.31	317.73
481.746	334.11
482.181	313.05
482.617	310.71
483.053	390.28
483.488	303.68
483.924	338.79
484.36	329.43
484.795	266.24
485.23	277.94
485.666	315.39
486.101	345.81
486.536	313.05
486.971	277.94
487.407	315.39
487.842	380.92
488.277	317.73
488.712	334.11
489.146	385.6
489.581	348.15
490.016	320.07
490.451	294.32
490.885	268.58
491.32	294.32
491.755	369.22
492.189	331.77
492.624	334.11
493.058	343.47
493.492	371.56
493.927	226.45
494.361	268.58
494.795	329.43
495.229	291.98
495.663	301.34
496.097	294.32
496.531	352.84
496.965	327.09
497.399	322.41
497.833	261.55
498.266	296.66
498.7	329.43
499.134	331.77
499.567	310.71
500.001	336.45
500.434	282.62
500.868	270.92
501.301	371.56
501.734	256.87
502.168	284.96
502.601	294.32
503.034	275.6
503.467	273.26
503.9	324.75
504.333	366.88
504.766	315.39
505.199	348.15
505.632	308.37
506.064	376.24
506.497	284.96
506.93	296.66
507.362	327.09
507.795	345.81
508.227	252.19
508.66	282.62
509.092	254.53
509.524	313.05
509.956	327.09
510.389	322.41
510.821	261.55
511.253	308.37
511.685	310.71
512.117	238.15
512.549	315.39
512.981	327.09
513.412	294.32
513.844	317.73
514.276	338.79
514.707	385.6
515.139	256.87
515.571	357.52
516.002	355.18
516.433	317.73
516.865	331.77
517.296	310.71
517.727	289.64
518.159	313.05
518.59	303.68
519.021	310.71
519.452	303.68
519.883	317.73
520.314	366.88
520.744	249.85
521.175	317.73
521.606	357.52
522.037	261.55
522.467	341.13
522.898	231.13
523.328	289.64
523.759	331.77
524.189	317.73
524.62	207.72
525.05	296.66
525.48	359.86
525.91	329.43
526.341	327.09
526.771	331.77
527.201	334.11
527.631	352.84
528.061	364.54
528.49	266.24
528.92	324.75
529.35	291.98
529.78	306.03
530.209	331.77
530.639	371.56
531.068	306.03
531.498	289.64
531.927	404.33
532.357	348.15
532.786	277.94
533.215	287.3
533.644	345.81
534.074	341.13
534.503	350.5
534.932	273.26
535.361	268.58
535.79	355.18
536.218	315.39
536.647	376.24
537.076	270.92
537.505	329.43
537.933	369.22
538.362	315.39
538.79	359.86
539.219	341.13
539.647	284.96
540.076	329.43
540.504	287.3
540.932	273.26
541.36	348.15
541.788	376.24
542.217	308.37
542.645	320.07
543.073	359.86
543.5	294.32
543.928	256.87
544.356	294.32
544.784	256.87
545.211	357.52
545.639	301.34
546.067	273.26
546.494	287.3
546.922	245.17
547.349	364.54
547.776	345.81
548.204	373.9
548.631	306.03
549.058	331.77
549.485	308.37
549.912	294.32
550.339	289.64
550.766	287.3
551.193	348.15
551.62	303.68
552.047	287.3
552.474	345.81
552.9	394.97
553.327	280.28
553.754	334.11
554.18	287.3
554.607	317.73
555.033	317.73
555.459	317.73
555.886	291.98
556.312	324.75
556.738	406.67
557.164	261.55
557.59	294.32
558.016	280.28
558.442	282.62
558.868	352.84
559.294	275.6
559.72	301.34
560.145	317.73
560.571	308.37
560.997	291.98
561.422	334.11
561.848	322.41
562.273	308.37
562.699	355.18
563.124	336.45
563.549	263.9
563.974	259.21
564.4	364.54
564.825	317.73
565.25	369.22
565.675	299
566.1	301.34
566.525	331.77
566.95	284.96
567.374	329.43
567.799	341.13
568.224	350.5
568.648	348.15
569.073	306.03
569.497	280.28
569.922	310.71
570.346	268.58
570.771	317.73
571.195	357.52
571.619	331.77
572.043	308.37
572.467	320.07
572.891	359.86
573.315	299
573.739	352.84
574.163	322.41
574.587	341.13
575.011	334.11
575.435	359.86
575.858	324.75
576.282	282.62
576.705	277.94
577.129	334.11
577.552	343.47
577.976	306.03
578.399	331.77
578.822	357.52
579.245	334.11
579.669	352.84
580.092	306.03
580.515	306.03
580.938	313.05
581.361	296.66
581.784	362.2
582.206	268.58
582.629	259.21
583.052	310.71
583.474	268.58
583.897	338.79
584.32	287.3
584.742	390.28
585.165	294.32
585.587	291.98
586.009	322.41
586.431	306.03
586.854	329.43
587.276	287.3
587.698	397.31
588.12	291.98
588.542	334.11
588.964	331.77
589.386	348.15
589.807	362.2
590.229	369.22
590.651	352.84
591.073	334.11
591.494	256.87
591.916	315.39
592.337	310.71
592.759	296.66
593.18	273.26
593.601	291.98
594.022	343.47
594.444	355.18
594.865	348.15
595.286	284.96
595.707	294.32
596.128	334.11
596.549	387.94
596.97	313.05
597.39	306.03
597.811	334.11
598.232	334.11
598.652	306.03
599.073	287.3
599.494	324.75
599.914	291.98
600.334	324.75
600.755	399.65
601.175	268.58
601.595	366.88
602.015	303.68
602.436	263.9
602.856	465.18
603.276	315.39
603.696	275.6
604.115	334.11
604.535	284.96
604.955	348.15
605.375	310.71
605.794	306.03
606.214	362.2
606.634	334.11
607.053	303.68
607.473	350.5
607.892	343.47
608.311	306.03
608.731	343.47
609.15	357.52
609.569	306.03
609.988	324.75
610.407	348.15
610.826	385.6
611.245	341.13
611.664	320.07
612.083	310.71
612.501	275.6
612.92	327.09
613.339	343.47
613.757	313.05
614.176	327.09
614.594	329.43
615.013	284.96
615.431	320.07
615.85	320.07
616.268	266.24
616.686	313.05
617.104	306.03
617.522	303.68
617.94	369.22
618.358	273.26
618.776	306.03
619.194	399.65
619.612	277.94
620.03	245.17
620.447	341.13
620.865	334.11
621.282	296.66
621.7	324.75
622.117	331.77
622.535	301.34
622.952	334.11
623.369	240.49
623.787	301.34
624.204	296.66
624.621	322.41
625.038	324.75
625.455	343.47
625.872	327.09
626.289	301.34
626.706	334.11
627.123	287.3
627.539	254.53
627.956	350.5
628.373	256.87
628.789	291.98
629.206	291.98
629.622	341.13
630.038	315.39
630.455	366.88
630.871	284.96
631.287	294.32
631.703	273.26
632.12	362.2
632.536	331.77
632.952	240.49
633.368	231.13
633.783	284.96
634.199	348.15
634.615	315.39
635.031	320.07
635.446	338.79
635.862	324.75
636.277	336.45
636.693	277.94
637.108	294.32
637.524	294.32
637.939	306.03
638.354	317.73
638.77	287.3
639.185	320.07
639.6	287.3
640.015	334.11
640.43	303.68
640.845	324.75
641.259	313.05
641.674	343.47
642.089	348.15
642.504	277.94
642.918	362.2
643.333	301.34
643.747	259.21
644.162	233.47
644.576	343.47
644.991	315.39
645.405	294.32
645.819	254.53
646.233	322.41
646.647	385.6
647.061	268.58
647.475	357.52
647.889	275.6
648.303	245.17
648.717	280.28
649.131	315.39
649.545	280.28
649.958	371.56
650.372	350.5
650.785	303.68
651.199	310.71
651.612	341.13
652.026	371.56
652.439	371.56
652.852	371.56
653.266	383.26
653.679	338.79
654.092	343.47
654.505	301.34
654.918	273.26
655.331	284.96
655.744	336.45
656.156	320.07
656.569	280.28
656.982	327.09
657.394	320.07
657.807	313.05
658.22	313.05
658.632	303.68
659.044	401.99
659.457	378.58
659.869	310.71
660.281	348.15
660.693	296.66
661.106	294.32
661.518	301.34
661.93	313.05
662.342	327.09
662.754	310.71
663.165	362.2
663.577	294.32
663.989	334.11
664.401	331.77
664.812	294.32
665.224	315.39
665.635	348.15
666.047	296.66
666.458	343.47
666.869	366.88
667.281	348.15
667.692	308.37
668.103	338.79
668.514	371.56
668.925	317.73
669.336	303.68
669.747	294.32
670.158	317.73
670.569	315.39
670.979	284.96
671.39	320.07
671.801	268.58
672.211	322.41
672.622	291.98
673.032	282.62
673.443	303.68
673.853	259.21
674.263	371.56
674.674	308.37
675.084	303.68
675.494	277.94
675.904	249.85
676.314	366.88
676.724	336.45
677.134	277.94
677.544	320.07
677.953	306.03
678.363	280.28
678.773	397.31
679.182	324.75
679.592	387.94
680.001	240.49
680.411	275.6
680.82	277.94
681.23	334.11
681.639	268.58
682.048	366.88
682.457	380.92
682.866	235.81
683.275	338.79
683.684	329.43
684.093	275.6
684.502	306.03
684.911	270.92
685.32	280.28
685.728	327.09
686.137	334.11
686.546	352.84
686.954	317.73
687.363	308.37
687.771	383.26
688.179	306.03
688.588	338.79
688.996	294.32
689.404	322.41
689.812	350.5
690.22	343.47
690.628	313.05
691.036	282.62
691.444	296.66
691.852	263.9
692.26	371.56
692.667	310.71
693.075	270.92
693.483	273.26
693.89	266.24
694.298	254.53
694.705	280.28
695.112	308.37
695.52	308.37
695.927	296.66
696.334	327.09
696.741	299
697.148	336.45
697.555	350.5
697.962	273.26
698.369	341.13
698.776	289.64
699.183	322.41
699.59	343.47
699.996	373.9
700.403	306.03
700.81	280.28
701.216	235.81
701.623	366.88
702.029	341.13
702.435	320.07
702.842	327.09
703.248	341.13
703.654	341.13
704.06	301.34
704.466	303.68
704.872	242.83
705.278	343.47
705.684	324.75
706.09	299
706.496	301.34
706.901	350.5
707.307	273.26
707.712	291.98
708.118	336.45
708.523	350.5
708.929	334.11
709.334	294.32
709.74	280.28
710.145	275.6
710.55	263.9
710.955	310.71
711.36	324.75
711.765	341.13
712.17	343.47
712.575	336.45
712.98	809.24
713.385	390.28
713.789	310.71
714.194	310.71
714.599	256.87
715.003	315.39
715.408	320.07
715.812	359.86
716.217	378.58
716.621	371.56
717.025	282.62
717.429	280.28
717.833	348.15
718.238	338.79
718.642	329.43
719.046	350.5
719.449	261.55
719.853	256.87
720.257	341.13
720.661	345.81
721.065	338.79
721.468	299
721.872	343.47
722.275	324.75
722.679	331.77
723.082	327.09
723.485	294.32
723.889	273.26
724.292	362.2
724.695	268.58
725.098	331.77
725.501	254.53
725.904	327.09
726.307	385.6
726.71	291.98
727.113	268.58
727.516	256.87
727.918	317.73
728.321	303.68
728.724	270.92
729.126	352.84
729.529	296.66
729.931	345.81
730.333	310.71
730.736	336.45
731.138	273.26
731.54	254.53
731.942	224.11
732.344	284.96
732.746	355.18
733.148	317.73
733.55	294.32
733.952	299
734.354	282.62
734.756	270.92
735.157	299
735.559	334.11
735.96	261.55
736.362	289.64
736.763	378.58
737.165	313.05
737.566	329.43
737.967	355.18
738.368	313.05
738.77	324.75
739.171	320.07
739.572	317.73
739.973	275.6
740.374	343.47
740.774	334.11
741.175	261.55
741.576	359.86
741.977	343.47
742.377	343.47
742.778	296.66
743.178	303.68
743.579	338.79
743.979	287.3
744.379	254.53
744.78	287.3
745.18	352.84
745.58	331.77
745.98	301.34
746.38	256.87
746.78	310.71
747.18	334.11
747.58	366.88
747.98	294.32
748.38	301.34
748.779	341.13
749.179	366.88
749.578	317.73
749.978	338.79
750.377	303.68
750.777	324.75
751.176	280.28
751.575	322.41
751.975	313.05
752.374	273.26
752.773	343.47
753.172	299
753.571	310.71
753.97	287.3
754.369	345.81
754.768	291.98
755.166	350.5
755.565	355.18
755.964	320.07
756.362	299
756.761	308.37
757.159	310.71
757.558	327.09
757.956	270.92
758.354	303.68
758.753	280.28
759.151	317.73
759.549	261.55
759.947	369.22
760.345	371.56
760.743	303.68
761.141	256.87
761.539	266.24
761.936	320.07
762.334	268.58
762.732	231.13
763.129	315.39
763.527	306.03
763.924	284.96
764.322	371.56
764.719	277.94
765.117	310.71
765.514	343.47
765.911	268.58
766.308	306.03
766.705	352.84
