Data from Al_FLMS009871__1041__16-25-15-913.txt Node

Date: Fri Mar 08 16:25:15 CST 2024
User: pe5414po
Spectrometer: FLMS00987
Trigger mode: 0
Integration Time (sec): 1.000000E-1
Scans to average: 1
Electric dark correction enabled: true
Nonlinearity correction enabled: false
Boxcar width: 0
XAxis mode: Wavelengths
Number of Pixels in Spectrum: 2048
>>>>>Begin Spectral Data<<<<<
188.938	-88.5
189.409	-88.5
189.879	-88.5
190.349	-111.91
190.819	-172.76
191.29	-104.89
191.76	-107.23
192.23	-158.72
192.7	-93.18
193.17	-25.31
193.64	-97.86
194.109	-11.26
194.579	-13.6
195.049	47.25
195.519	-20.63
195.988	49.59
196.458	65.97
196.927	129.17
197.397	56.61
197.866	164.28
198.336	119.81
198.805	173.64
199.274	136.19
199.744	112.78
200.213	147.89
200.682	183
201.151	208.75
201.62	232.15
202.089	220.45
202.558	276.62
203.027	269.6
203.495	232.15
203.964	314.07
204.433	288.32
204.902	278.96
205.37	285.98
205.839	300.03
206.307	307.05
206.776	318.75
207.244	281.3
207.712	302.37
208.181	323.43
208.649	262.58
209.117	360.88
209.585	356.2
210.053	307.05
210.521	283.64
210.989	290.67
211.457	302.37
211.925	346.84
212.393	290.67
212.861	307.05
213.328	271.94
213.796	255.56
214.264	262.58
214.731	253.22
215.199	215.77
215.666	281.3
216.133	288.32
216.601	374.92
217.068	267.26
217.535	281.3
218.003	267.26
218.47	239.17
218.937	206.41
219.404	269.6
219.871	229.81
220.338	260.24
220.805	316.41
221.271	234.49
221.738	285.98
222.205	246.2
222.671	243.85
223.138	257.9
223.605	271.94
224.071	246.2
224.538	232.15
225.004	281.3
225.47	236.83
225.937	271.94
226.403	316.41
226.869	262.58
227.335	285.98
227.801	288.32
228.267	295.35
228.733	281.3
229.199	271.94
229.665	321.09
230.131	243.85
230.597	250.88
231.062	309.39
231.528	276.62
231.994	293.01
232.459	257.9
232.925	300.03
233.39	215.77
233.856	246.2
234.321	246.2
234.786	246.2
235.252	271.94
235.717	225.13
236.182	307.05
236.647	269.6
237.112	246.2
237.577	276.62
238.042	318.75
238.507	248.54
238.972	304.71
239.436	260.24
239.901	213.43
240.366	290.67
240.83	241.51
241.295	293.01
241.76	257.9
242.224	220.45
242.688	285.98
243.153	257.9
243.617	349.18
244.081	316.41
244.545	274.28
245.01	302.37
245.474	367.9
245.938	302.37
246.402	314.07
246.866	241.51
247.33	255.56
247.793	283.64
248.257	260.24
248.721	278.96
249.185	309.39
249.648	297.69
250.112	349.18
250.575	323.43
251.039	262.58
251.502	248.54
251.965	248.54
252.429	236.83
252.892	288.32
253.355	309.39
253.818	250.88
254.281	264.92
254.744	325.77
255.207	271.94
255.67	304.71
256.133	262.58
256.596	307.05
257.059	267.26
257.522	243.85
257.984	232.15
258.447	346.84
258.909	304.71
259.372	264.92
259.834	290.67
260.297	276.62
260.759	257.9
261.221	297.69
261.684	232.15
262.146	318.75
262.608	311.73
263.07	293.01
263.532	267.26
263.994	285.98
264.456	295.35
264.918	260.24
265.38	297.69
265.842	269.6
266.303	278.96
266.765	335.14
267.227	318.75
267.688	309.39
268.15	281.3
268.611	285.98
269.072	323.43
269.534	267.26
269.995	374.92
270.456	300.03
270.918	278.96
271.379	316.41
271.84	321.09
272.301	304.71
272.762	342.16
273.223	332.79
273.684	304.71
274.144	316.41
274.605	344.5
275.066	227.47
275.527	264.92
275.987	255.56
276.448	337.48
276.908	300.03
277.369	269.6
277.829	288.32
278.289	250.88
278.75	285.98
279.21	229.81
279.67	360.88
280.13	332.79
280.59	285.98
281.05	293.01
281.51	335.14
281.97	321.09
282.43	311.73
282.89	358.54
283.35	288.32
283.809	328.11
284.269	311.73
284.729	274.28
285.188	288.32
285.648	314.07
286.107	351.52
286.567	293.01
287.026	302.37
287.485	332.79
287.944	335.14
288.404	250.88
288.863	339.82
289.322	311.73
289.781	302.37
290.24	346.84
290.699	281.3
291.158	307.05
291.616	349.18
292.075	278.96
292.534	300.03
292.992	314.07
293.451	342.16
293.91	321.09
294.368	300.03
294.827	314.07
295.285	269.6
295.743	335.14
296.202	278.96
296.66	295.35
297.118	325.77
297.576	356.2
298.034	332.79
298.492	276.62
298.95	325.77
299.408	351.52
299.866	304.71
300.324	293.01
300.781	330.45
301.239	295.35
301.697	386.63
302.154	307.05
302.612	250.88
303.069	288.32
303.527	349.18
303.984	283.64
304.441	257.9
304.899	290.67
305.356	276.62
305.813	353.86
306.27	386.63
306.727	321.09
307.184	318.75
307.641	363.22
308.098	262.58
308.555	311.73
309.012	307.05
309.468	290.67
309.925	328.11
310.382	314.07
310.838	353.86
311.295	356.2
311.751	309.39
312.208	304.71
312.664	321.09
313.12	332.79
313.577	295.35
314.033	295.35
314.489	349.18
314.945	293.01
315.401	288.32
315.857	358.54
316.313	321.09
316.769	307.05
317.225	278.96
317.681	360.88
318.136	339.82
318.592	330.45
319.048	300.03
319.503	271.94
319.959	339.82
320.414	302.37
320.869	278.96
321.325	290.67
321.78	314.07
322.235	274.28
322.691	311.73
323.146	370.24
323.601	271.94
324.056	278.96
324.511	297.69
324.966	391.31
325.421	311.73
325.875	346.84
326.33	328.11
326.785	318.75
327.24	314.07
327.694	307.05
328.149	323.43
328.603	314.07
329.058	323.43
329.512	321.09
329.966	365.56
330.421	321.09
330.875	269.6
331.329	321.09
331.783	372.58
332.237	248.54
332.691	274.28
333.145	365.56
333.599	283.64
334.053	295.35
334.507	321.09
334.96	288.32
335.414	314.07
335.868	344.5
336.321	288.32
336.775	339.82
337.228	379.61
337.682	316.41
338.135	295.35
338.588	356.2
339.042	274.28
339.495	307.05
339.948	285.98
340.401	316.41
340.854	332.79
341.307	386.63
341.76	314.07
342.213	264.92
342.666	309.39
343.119	269.6
343.571	344.5
344.024	344.5
344.477	367.9
344.929	239.17
345.382	328.11
345.834	304.71
346.287	318.75
346.739	316.41
347.191	283.64
347.644	300.03
348.096	307.05
348.548	370.24
349	285.98
349.452	246.2
349.904	304.71
350.356	370.24
350.808	349.18
351.26	297.69
351.711	302.37
352.163	241.51
352.615	293.01
353.066	330.45
353.518	304.71
353.969	250.88
354.421	267.26
354.872	414.71
355.324	325.77
355.775	278.96
356.226	304.71
356.677	344.5
357.128	335.14
357.579	374.92
358.03	290.67
358.481	391.31
358.932	351.52
359.383	304.71
359.834	356.2
360.285	346.84
360.735	281.3
361.186	330.45
361.637	325.77
362.087	285.98
362.538	323.43
362.988	346.84
363.438	414.71
363.889	342.16
364.339	381.95
364.789	325.77
365.239	318.75
365.689	349.18
366.139	297.69
366.589	290.67
367.039	346.84
367.489	323.43
367.939	363.22
368.389	374.92
368.839	314.07
369.288	267.26
369.738	353.86
370.187	323.43
370.637	351.52
371.086	349.18
371.536	316.41
371.985	304.71
372.434	316.41
372.884	381.95
373.333	250.88
373.782	365.56
374.231	297.69
374.68	323.43
375.129	248.54
375.578	332.79
376.027	300.03
376.475	356.2
376.924	330.45
377.373	367.9
377.822	344.5
378.27	356.2
378.719	365.56
379.167	283.64
379.616	297.69
380.064	253.22
380.512	300.03
380.961	276.62
381.409	311.73
381.857	318.75
382.305	342.16
382.753	271.94
383.201	302.37
383.649	316.41
384.097	365.56
384.545	367.9
384.992	332.79
385.44	311.73
385.888	342.16
386.335	304.71
386.783	353.86
387.231	339.82
387.678	344.5
388.125	302.37
388.573	302.37
389.02	323.43
389.467	297.69
389.914	300.03
390.362	246.2
390.809	302.37
391.256	302.37
391.703	337.48
392.15	318.75
392.596	293.01
393.043	311.73
393.49	358.54
393.937	337.48
394.383	309.39
394.83	349.18
395.276	349.18
395.723	278.96
396.169	309.39
396.616	342.16
397.062	335.14
397.508	311.73
397.954	276.62
398.401	346.84
398.847	339.82
399.293	370.24
399.739	330.45
400.185	353.86
400.631	314.07
401.076	339.82
401.522	349.18
401.968	358.54
402.414	346.84
402.859	283.64
403.305	274.28
403.75	405.35
404.196	330.45
404.641	337.48
405.086	293.01
405.532	278.96
405.977	330.45
406.422	335.14
406.867	365.56
407.312	321.09
407.757	318.75
408.202	316.41
408.647	328.11
409.092	346.84
409.537	339.82
409.982	323.43
410.426	318.75
410.871	374.92
411.316	304.71
411.76	288.32
412.205	330.45
412.649	356.2
413.093	309.39
413.538	377.27
413.982	309.39
414.426	283.64
414.87	271.94
415.314	323.43
415.758	302.37
416.202	323.43
416.646	325.77
417.09	346.84
417.534	353.86
417.978	260.24
418.421	330.45
418.865	309.39
419.309	257.9
419.752	267.26
420.196	309.39
420.639	293.01
421.083	309.39
421.526	307.05
421.969	349.18
422.412	342.16
422.856	250.88
423.299	318.75
423.742	318.75
424.185	311.73
424.628	302.37
425.071	295.35
425.513	262.58
425.956	332.79
426.399	349.18
426.842	339.82
427.284	321.09
427.727	318.75
428.169	321.09
428.612	316.41
429.054	349.18
429.497	325.77
429.939	290.67
430.381	335.14
430.823	314.07
431.265	344.5
431.707	290.67
432.149	323.43
432.591	337.48
433.033	386.63
433.475	342.16
433.917	323.43
434.359	311.73
434.8	276.62
435.242	293.01
435.684	335.14
436.125	307.05
436.567	321.09
437.008	278.96
437.449	349.18
437.891	253.22
438.332	295.35
438.773	283.64
439.214	388.97
439.656	269.6
440.097	360.88
440.538	311.73
440.978	353.86
441.419	278.96
441.86	365.56
442.301	250.88
442.742	339.82
443.182	346.84
443.623	314.07
444.063	290.67
444.504	318.75
444.944	344.5
445.385	285.98
445.825	218.11
446.265	346.84
446.706	318.75
447.146	323.43
447.586	274.28
448.026	330.45
448.466	300.03
448.906	285.98
449.346	302.37
449.786	372.58
450.225	353.86
450.665	271.94
451.105	339.82
451.544	311.73
451.984	318.75
452.424	314.07
452.863	337.48
453.302	311.73
453.742	349.18
454.181	337.48
454.62	339.82
455.059	323.43
455.499	274.28
455.938	307.05
456.377	323.43
456.816	344.5
457.254	293.01
457.693	302.37
458.132	304.71
458.571	325.77
459.01	328.11
459.448	307.05
459.887	293.01
460.325	302.37
460.764	342.16
461.202	342.16
461.641	346.84
462.079	307.05
462.517	302.37
462.955	311.73
463.393	353.86
463.832	271.94
464.27	365.56
464.708	353.86
465.145	330.45
465.583	285.98
466.021	384.29
466.459	285.98
466.897	314.07
467.334	297.69
467.772	274.28
468.209	314.07
468.647	321.09
469.084	321.09
469.522	323.43
469.959	367.9
470.396	349.18
470.833	278.96
471.271	367.9
471.708	330.45
472.145	335.14
472.582	358.54
473.019	300.03
473.456	321.09
473.892	330.45
474.329	346.84
474.766	321.09
475.202	332.79
475.639	344.5
476.076	250.88
476.512	393.65
476.949	325.77
477.385	316.41
477.821	300.03
478.258	267.26
478.694	356.2
479.13	309.39
479.566	356.2
480.002	300.03
480.438	330.45
480.874	346.84
481.31	243.85
481.746	300.03
482.181	328.11
482.617	339.82
483.053	323.43
483.488	356.2
483.924	253.22
484.36	328.11
484.795	344.5
485.23	307.05
485.666	323.43
486.101	257.9
486.536	356.2
486.971	356.2
487.407	318.75
487.842	264.92
488.277	325.77
488.712	356.2
489.146	332.79
489.581	337.48
490.016	386.63
490.451	346.84
490.885	337.48
491.32	264.92
491.755	253.22
492.189	339.82
492.624	276.62
493.058	365.56
493.492	311.73
493.927	351.52
494.361	363.22
494.795	325.77
495.229	351.52
495.663	339.82
496.097	250.88
496.531	304.71
496.965	360.88
497.399	302.37
497.833	297.69
498.266	337.48
498.7	353.86
499.134	316.41
499.567	293.01
500.001	304.71
500.434	309.39
500.868	356.2
501.301	253.22
501.734	302.37
502.168	278.96
502.601	300.03
503.034	356.2
503.467	328.11
503.9	325.77
504.333	304.71
504.766	300.03
505.199	304.71
505.632	243.85
506.064	318.75
506.497	297.69
506.93	304.71
507.362	339.82
507.795	323.43
508.227	323.43
508.66	271.94
509.092	330.45
509.524	293.01
509.956	335.14
510.389	367.9
510.821	342.16
511.253	283.64
511.685	250.88
512.117	309.39
512.549	321.09
512.981	297.69
513.412	307.05
513.844	332.79
514.276	356.2
514.707	302.37
515.139	388.97
515.571	365.56
516.002	330.45
516.433	351.52
516.865	377.27
517.296	311.73
517.727	337.48
518.159	302.37
518.59	297.69
519.021	344.5
519.452	363.22
519.883	384.29
520.314	381.95
520.744	370.24
521.175	407.69
521.606	267.26
522.037	337.48
522.467	290.67
522.898	297.69
523.328	381.95
523.759	325.77
524.189	342.16
524.62	281.3
525.05	328.11
525.48	337.48
525.91	318.75
526.341	339.82
526.771	309.39
527.201	267.26
527.631	309.39
528.061	323.43
528.49	297.69
528.92	323.43
529.35	325.77
529.78	309.39
530.209	283.64
530.639	285.98
531.068	274.28
531.498	314.07
531.927	342.16
532.357	330.45
532.786	344.5
533.215	325.77
533.644	321.09
534.074	297.69
534.503	278.96
534.932	285.98
535.361	281.3
535.79	377.27
536.218	309.39
536.647	276.62
537.076	321.09
537.505	295.35
537.933	349.18
538.362	379.61
538.79	218.11
539.219	316.41
539.647	335.14
540.076	330.45
540.504	330.45
540.932	344.5
541.36	356.2
541.788	290.67
542.217	302.37
542.645	330.45
543.073	328.11
543.5	300.03
543.928	318.75
544.356	335.14
544.784	335.14
545.211	304.71
545.639	360.88
546.067	342.16
546.494	300.03
546.922	304.71
547.349	391.31
547.776	288.32
548.204	250.88
548.631	304.71
549.058	339.82
549.485	290.67
549.912	323.43
550.339	318.75
550.766	255.56
551.193	255.56
551.62	295.35
552.047	330.45
552.474	384.29
552.9	321.09
553.327	330.45
553.754	316.41
554.18	278.96
554.607	379.61
555.033	302.37
555.459	367.9
555.886	276.62
556.312	318.75
556.738	311.73
557.164	297.69
557.59	339.82
558.016	330.45
558.442	314.07
558.868	288.32
559.294	262.58
559.72	293.01
560.145	302.37
560.571	335.14
560.997	314.07
561.422	271.94
561.848	311.73
562.273	307.05
562.699	318.75
563.124	363.22
563.549	370.24
563.974	297.69
564.4	323.43
564.825	276.62
565.25	300.03
565.675	330.45
566.1	309.39
566.525	321.09
566.95	321.09
567.374	337.48
567.799	386.63
568.224	314.07
568.648	330.45
569.073	316.41
569.497	285.98
569.922	307.05
570.346	316.41
570.771	349.18
571.195	285.98
571.619	367.9
572.043	374.92
572.467	257.9
572.891	330.45
573.315	307.05
573.739	293.01
574.163	253.22
574.587	316.41
575.011	316.41
575.435	351.52
575.858	321.09
576.282	300.03
576.705	346.84
577.129	365.56
577.552	325.77
577.976	293.01
578.399	332.79
578.822	328.11
579.245	351.52
579.669	346.84
580.092	307.05
580.515	255.56
580.938	304.71
581.361	274.28
581.784	374.92
582.206	346.84
582.629	307.05
583.052	288.32
583.474	283.64
583.897	328.11
584.32	351.52
584.742	323.43
585.165	342.16
585.587	269.6
586.009	304.71
586.431	293.01
586.854	325.77
587.276	246.2
587.698	323.43
588.12	241.51
588.542	325.77
588.964	332.79
589.386	335.14
589.807	278.96
590.229	342.16
590.651	360.88
591.073	302.37
591.494	379.61
591.916	314.07
592.337	316.41
592.759	255.56
593.18	316.41
593.601	302.37
594.022	307.05
594.444	295.35
594.865	293.01
595.286	253.22
595.707	325.77
596.128	318.75
596.549	297.69
596.97	353.86
597.39	309.39
597.811	295.35
598.232	271.94
598.652	309.39
599.073	337.48
599.494	337.48
599.914	274.28
600.334	360.88
600.755	318.75
601.175	290.67
601.595	332.79
602.015	353.86
602.436	302.37
602.856	398.33
603.276	295.35
603.696	302.37
604.115	281.3
604.535	288.32
604.955	311.73
605.375	358.54
605.794	325.77
606.214	290.67
606.634	243.85
607.053	321.09
607.473	307.05
607.892	328.11
608.311	342.16
608.731	300.03
609.15	349.18
609.569	285.98
609.988	300.03
610.407	274.28
610.826	356.2
611.245	353.86
611.664	339.82
612.083	309.39
612.501	255.56
612.92	318.75
613.339	248.54
613.757	264.92
614.176	300.03
614.594	321.09
615.013	318.75
615.431	302.37
615.85	302.37
616.268	304.71
616.686	260.24
617.104	346.84
617.522	363.22
617.94	353.86
618.358	339.82
618.776	300.03
619.194	346.84
619.612	309.39
620.03	323.43
620.447	316.41
620.865	356.2
621.282	318.75
621.7	323.43
622.117	339.82
622.535	314.07
622.952	346.84
623.369	356.2
623.787	316.41
624.204	330.45
624.621	302.37
625.038	318.75
625.455	379.61
625.872	360.88
626.289	311.73
626.706	386.63
627.123	337.48
627.539	283.64
627.956	316.41
628.373	316.41
628.789	311.73
629.206	332.79
629.622	316.41
630.038	309.39
630.455	323.43
630.871	395.99
631.287	321.09
631.703	370.24
632.12	295.35
632.536	227.47
632.952	349.18
633.368	255.56
633.783	358.54
634.199	325.77
634.615	260.24
635.031	344.5
635.446	293.01
635.862	307.05
636.277	370.24
636.693	328.11
637.108	285.98
637.524	372.58
637.939	309.39
638.354	293.01
638.77	281.3
639.185	302.37
639.6	337.48
640.015	351.52
640.43	367.9
640.845	290.67
641.259	307.05
641.674	253.22
642.089	307.05
642.504	344.5
642.918	318.75
643.333	257.9
643.747	304.71
644.162	351.52
644.576	370.24
644.991	346.84
645.405	302.37
645.819	321.09
646.233	339.82
646.647	405.35
647.061	309.39
647.475	353.86
647.889	353.86
648.303	274.28
648.717	283.64
649.131	239.17
649.545	393.65
649.958	281.3
650.372	283.64
650.785	367.9
651.199	325.77
651.612	309.39
652.026	300.03
652.439	311.73
652.852	302.37
653.266	276.62
653.679	243.85
654.092	276.62
654.505	297.69
654.918	307.05
655.331	311.73
655.744	309.39
656.156	386.63
656.569	388.97
656.982	314.07
657.394	339.82
657.807	342.16
658.22	311.73
658.632	330.45
659.044	302.37
659.457	316.41
659.869	339.82
660.281	335.14
660.693	274.28
661.106	255.56
661.518	285.98
661.93	367.9
662.342	332.79
662.754	311.73
663.165	363.22
663.577	321.09
663.989	353.86
664.401	325.77
664.812	307.05
665.224	342.16
665.635	316.41
666.047	257.9
666.458	346.84
666.869	300.03
667.281	288.32
667.692	262.58
668.103	269.6
668.514	295.35
668.925	318.75
669.336	360.88
669.747	342.16
670.158	365.56
670.569	349.18
670.979	346.84
671.39	288.32
671.801	353.86
672.211	370.24
672.622	325.77
673.032	304.71
673.443	281.3
673.853	314.07
674.263	330.45
674.674	300.03
675.084	339.82
675.494	388.97
675.904	307.05
676.314	311.73
676.724	318.75
677.134	335.14
677.544	330.45
677.953	318.75
678.363	293.01
678.773	365.56
679.182	337.48
679.592	344.5
680.001	342.16
680.411	325.77
680.82	314.07
681.23	398.33
681.639	337.48
682.048	358.54
682.457	351.52
682.866	293.01
683.275	250.88
683.684	300.03
684.093	260.24
684.502	335.14
684.911	325.77
685.32	281.3
685.728	314.07
686.137	318.75
686.546	356.2
686.954	337.48
687.363	314.07
687.771	293.01
688.179	328.11
688.588	267.26
688.996	323.43
689.404	307.05
689.812	293.01
690.22	337.48
690.628	335.14
691.036	260.24
691.444	318.75
691.852	302.37
692.26	342.16
692.667	314.07
693.075	304.71
693.483	281.3
693.89	325.77
694.298	363.22
694.705	330.45
695.112	353.86
695.52	290.67
695.927	314.07
696.334	295.35
696.741	330.45
697.148	309.39
697.555	309.39
697.962	381.95
698.369	325.77
698.776	307.05
699.183	276.62
699.59	271.94
699.996	332.79
700.403	346.84
700.81	239.17
701.216	264.92
701.623	295.35
702.029	335.14
702.435	323.43
702.842	339.82
703.248	321.09
703.654	274.28
704.06	290.67
704.466	391.31
704.872	307.05
705.278	302.37
705.684	321.09
706.09	285.98
706.496	248.54
706.901	267.26
707.307	344.5
707.712	316.41
708.118	321.09
708.523	297.69
708.929	358.54
709.334	332.79
709.74	295.35
710.145	316.41
710.55	295.35
710.955	264.92
711.36	325.77
711.765	288.32
712.17	332.79
712.575	297.69
712.98	770.48
713.385	295.35
713.789	332.79
714.194	293.01
714.599	304.71
715.003	321.09
715.408	297.69
715.812	307.05
716.217	311.73
716.621	339.82
717.025	325.77
717.429	346.84
717.833	332.79
718.238	241.51
718.642	339.82
719.046	360.88
719.449	318.75
719.853	297.69
720.257	346.84
720.661	358.54
721.065	325.77
721.468	309.39
721.872	257.9
722.275	328.11
722.679	274.28
723.082	318.75
723.485	309.39
723.889	372.58
724.292	295.35
724.695	339.82
725.098	356.2
725.501	379.61
725.904	337.48
726.307	293.01
726.71	288.32
727.113	271.94
727.516	358.54
727.918	281.3
728.321	316.41
728.724	304.71
729.126	323.43
729.529	349.18
729.931	356.2
730.333	300.03
730.736	344.5
731.138	344.5
731.54	367.9
731.942	276.62
732.344	328.11
732.746	332.79
733.148	304.71
733.55	339.82
733.952	353.86
734.354	356.2
734.756	293.01
735.157	321.09
735.559	386.63
735.96	290.67
736.362	328.11
736.763	325.77
737.165	297.69
737.566	297.69
737.967	323.43
738.368	314.07
738.77	285.98
739.171	314.07
739.572	276.62
739.973	288.32
740.374	283.64
740.774	293.01
741.175	353.86
741.576	297.69
741.977	262.58
742.377	255.56
742.778	293.01
743.178	295.35
743.579	337.48
743.979	332.79
744.379	321.09
744.78	349.18
745.18	405.35
745.58	360.88
745.98	288.32
746.38	325.77
746.78	311.73
747.18	293.01
747.58	302.37
747.98	374.92
748.38	356.2
748.779	302.37
749.179	316.41
749.578	344.5
749.978	374.92
750.377	342.16
750.777	264.92
751.176	323.43
751.575	360.88
751.975	304.71
752.374	293.01
752.773	316.41
753.172	316.41
753.571	311.73
753.97	316.41
754.369	316.41
754.768	351.52
755.166	267.26
755.565	278.96
755.964	351.52
756.362	285.98
756.761	302.37
757.159	339.82
757.558	271.94
757.956	372.58
758.354	269.6
758.753	264.92
759.151	264.92
759.549	398.33
759.947	323.43
760.345	271.94
760.743	325.77
761.141	335.14
761.539	339.82
761.936	321.09
762.334	290.67
762.732	337.48
763.129	262.58
763.527	325.77
763.924	283.64
764.322	421.74
