Data from Al_FLMS009871__1042__16-25-16-013.txt Node

Date: Fri Mar 08 16:25:16 CST 2024
User: pe5414po
Spectrometer: FLMS00987
Trigger mode: 0
Integration Time (sec): 1.000000E-1
Scans to average: 1
Electric dark correction enabled: true
Nonlinearity correction enabled: false
Boxcar width: 0
XAxis mode: Wavelengths
Number of Pixels in Spectrum: 2048
>>>>>Begin Spectral Data<<<<<
188.938	-121.12
189.409	-121.12
189.879	-121.12
190.349	-121.12
190.819	-100.06
191.29	-149.21
191.76	-109.42
192.23	-135.17
192.7	-102.4
193.17	-55.59
193.64	-46.23
194.109	-27.5
194.579	-15.8
195.049	5.27
195.519	66.12
195.988	33.35
196.458	66.12
196.927	103.57
197.397	110.59
197.866	89.53
198.336	166.76
198.805	145.7
199.274	197.19
199.744	190.17
200.213	171.44
200.682	204.21
201.151	255.7
201.62	211.23
202.089	155.06
202.558	281.45
203.027	269.75
203.495	276.77
203.964	330.6
204.433	260.38
204.902	248.68
205.37	293.15
205.839	335.28
206.307	318.9
206.776	302.51
207.244	213.57
207.712	286.13
208.181	293.15
208.649	309.54
209.117	201.87
209.585	330.6
210.053	265.07
210.521	262.73
210.989	253.36
211.457	307.2
211.925	225.28
212.393	211.23
212.861	286.13
213.328	258.04
213.796	222.94
214.264	239.32
214.731	204.21
215.199	279.11
215.666	222.94
216.133	232.3
216.601	302.51
217.068	241.66
217.535	363.37
218.003	265.07
218.47	241.66
218.937	253.36
219.404	269.75
219.871	279.11
220.338	267.41
220.805	265.07
221.271	276.77
221.738	152.72
222.205	288.47
222.671	227.62
223.138	248.68
223.605	330.6
224.071	267.41
224.538	251.02
225.004	192.51
225.47	307.2
225.937	239.32
226.403	232.3
226.869	283.79
227.335	241.66
227.801	279.11
228.267	260.38
228.733	279.11
229.199	253.36
229.665	274.43
230.131	269.75
230.597	255.7
231.062	246.34
231.528	295.49
231.994	309.54
232.459	208.89
232.925	300.17
233.39	272.09
233.856	199.53
234.321	309.54
234.786	295.49
235.252	281.45
235.717	286.13
236.182	248.68
236.647	267.41
237.112	274.43
237.577	239.32
238.042	307.2
238.507	265.07
238.972	269.75
239.436	253.36
239.901	274.43
240.366	279.11
240.83	201.87
241.295	269.75
241.76	248.68
242.224	267.41
242.688	204.21
243.153	236.98
243.617	297.83
244.081	251.02
244.545	260.38
245.01	236.98
245.474	323.58
245.938	339.96
246.402	232.3
246.866	274.43
247.33	253.36
247.793	269.75
248.257	248.68
248.721	325.92
249.185	267.41
249.648	356.35
250.112	213.57
250.575	260.38
251.039	208.89
251.502	218.25
251.965	276.77
252.429	288.47
252.892	307.2
253.355	272.09
253.818	304.85
254.281	307.2
254.744	274.43
255.207	208.89
255.67	229.96
256.133	255.7
256.596	265.07
257.059	300.17
257.522	220.6
257.984	288.47
258.447	253.36
258.909	244
259.372	304.85
259.834	321.24
260.297	251.02
260.759	248.68
261.221	267.41
261.684	283.79
262.146	258.04
262.608	246.34
263.07	330.6
263.532	311.88
263.994	267.41
264.456	307.2
264.918	314.22
265.38	272.09
265.842	286.13
266.303	251.02
266.765	251.02
267.227	255.7
267.688	281.45
268.15	293.15
268.611	288.47
269.072	283.79
269.534	258.04
269.995	267.41
270.456	365.71
270.918	222.94
271.379	290.81
271.84	274.43
272.301	241.66
272.762	290.81
273.223	344.64
273.684	318.9
274.144	318.9
274.605	293.15
275.066	225.28
275.527	293.15
275.987	276.77
276.448	267.41
276.908	281.45
277.369	262.73
277.829	272.09
278.289	265.07
278.75	274.43
279.21	304.85
279.67	300.17
280.13	220.6
280.59	286.13
281.05	276.77
281.51	302.51
281.97	304.85
282.43	307.2
282.89	288.47
283.35	274.43
283.809	234.64
284.269	232.3
284.729	302.51
285.188	288.47
285.648	258.04
286.107	290.81
286.567	302.51
287.026	286.13
287.485	311.88
287.944	321.24
288.404	267.41
288.863	304.85
289.322	358.69
289.781	267.41
290.24	328.26
290.699	316.56
291.158	321.24
291.616	290.81
292.075	251.02
292.534	258.04
292.992	330.6
293.451	300.17
293.91	300.17
294.368	316.56
294.827	297.83
295.285	337.62
295.743	276.77
296.202	267.41
296.66	255.7
297.118	316.56
297.576	267.41
298.034	335.28
298.492	260.38
298.95	272.09
299.408	251.02
299.866	279.11
300.324	302.51
300.781	330.6
301.239	309.54
301.697	251.02
302.154	269.75
302.612	309.54
303.069	332.94
303.527	272.09
303.984	311.88
304.441	311.88
304.899	262.73
305.356	279.11
305.813	248.68
306.27	286.13
306.727	342.3
307.184	276.77
307.641	251.02
308.098	246.34
308.555	325.92
309.012	330.6
309.468	269.75
309.925	316.56
310.382	258.04
310.838	339.96
311.295	290.81
311.751	330.6
312.208	283.79
312.664	269.75
313.12	351.67
313.577	365.71
314.033	267.41
314.489	253.36
314.945	307.2
315.401	321.24
315.857	309.54
316.313	311.88
316.769	258.04
317.225	279.11
317.681	286.13
318.136	262.73
318.592	276.77
319.048	246.34
319.503	321.24
319.959	307.2
320.414	346.98
320.869	302.51
321.325	290.81
321.78	262.73
322.235	269.75
322.691	290.81
323.146	337.62
323.601	286.13
324.056	342.3
324.511	293.15
324.966	244
325.421	290.81
325.875	344.64
326.33	321.24
326.785	328.26
327.24	309.54
327.694	281.45
328.149	255.7
328.603	361.03
329.058	253.36
329.512	323.58
329.966	342.3
330.421	267.41
330.875	241.66
331.329	300.17
331.783	260.38
332.237	302.51
332.691	325.92
333.145	307.2
333.599	258.04
334.053	330.6
334.507	258.04
334.96	311.88
335.414	274.43
335.868	293.15
336.321	267.41
336.775	344.64
337.228	318.9
337.682	361.03
338.135	342.3
338.588	265.07
339.042	316.56
339.495	290.81
339.948	363.37
340.401	293.15
340.854	276.77
341.307	302.51
341.76	267.41
342.213	311.88
342.666	262.73
343.119	288.47
343.571	346.98
344.024	339.96
344.477	304.85
344.929	328.26
345.382	307.2
345.834	272.09
346.287	337.62
346.739	358.69
347.191	286.13
347.644	344.64
348.096	314.22
348.548	295.49
349	295.49
349.452	274.43
349.904	265.07
350.356	274.43
350.808	293.15
351.26	321.24
351.711	318.9
352.163	262.73
352.615	276.77
353.066	295.49
353.518	342.3
353.969	342.3
354.421	314.22
354.872	335.28
355.324	293.15
355.775	302.51
356.226	269.75
356.677	339.96
357.128	208.89
357.579	272.09
358.03	272.09
358.481	279.11
358.932	267.41
359.383	290.81
359.834	365.71
360.285	272.09
360.735	316.56
361.186	279.11
361.637	332.94
362.087	286.13
362.538	337.62
362.988	302.51
363.438	330.6
363.889	279.11
364.339	335.28
364.789	314.22
365.239	318.9
365.689	272.09
366.139	279.11
366.589	260.38
367.039	269.75
367.489	375.07
367.939	342.3
368.389	283.79
368.839	321.24
369.288	288.47
369.738	290.81
370.187	227.62
370.637	225.28
371.086	290.81
371.536	293.15
371.985	267.41
372.434	318.9
372.884	290.81
373.333	281.45
373.782	290.81
374.231	283.79
374.68	356.35
375.129	300.17
375.578	197.19
376.027	295.49
376.475	281.45
376.924	290.81
377.373	272.09
377.822	332.94
378.27	311.88
378.719	332.94
379.167	314.22
379.616	351.67
380.064	354.01
380.512	328.26
380.961	335.28
381.409	307.2
381.857	255.7
382.305	251.02
382.753	258.04
383.201	349.32
383.649	325.92
384.097	295.49
384.545	354.01
384.992	372.73
385.44	295.49
385.888	293.15
386.335	288.47
386.783	316.56
387.231	293.15
387.678	311.88
388.125	314.22
388.573	302.51
389.02	260.38
389.467	318.9
389.914	361.03
390.362	358.69
390.809	314.22
391.256	307.2
391.703	342.3
392.15	325.92
392.596	332.94
393.043	269.75
393.49	251.02
393.937	307.2
394.383	274.43
394.83	316.56
395.276	307.2
395.723	321.24
396.169	335.28
396.616	304.85
397.062	335.28
397.508	311.88
397.954	267.41
398.401	279.11
398.847	311.88
399.293	274.43
399.739	318.9
400.185	311.88
400.631	283.79
401.076	361.03
401.522	337.62
401.968	323.58
402.414	286.13
402.859	267.41
403.305	297.83
403.75	295.49
404.196	274.43
404.641	260.38
405.086	260.38
405.532	307.2
405.977	307.2
406.422	295.49
406.867	330.6
407.312	265.07
407.757	363.37
408.202	344.64
408.647	288.47
409.092	328.26
409.537	290.81
409.982	316.56
410.426	241.66
410.871	283.79
411.316	276.77
411.76	300.17
412.205	307.2
412.649	358.69
413.093	267.41
413.538	269.75
413.982	318.9
414.426	269.75
414.87	276.77
415.314	358.69
415.758	288.47
416.202	295.49
416.646	349.32
417.09	293.15
417.534	361.03
417.978	302.51
418.421	274.43
418.865	318.9
419.309	337.62
419.752	325.92
420.196	375.07
420.639	295.49
421.083	361.03
421.526	290.81
421.969	330.6
422.412	375.07
422.856	330.6
423.299	335.28
423.742	370.39
424.185	304.85
424.628	342.3
425.071	342.3
425.513	260.38
425.956	288.47
426.399	316.56
426.842	321.24
427.284	354.01
427.727	297.83
428.169	372.73
428.612	349.32
429.054	304.85
429.497	330.6
429.939	260.38
430.381	321.24
430.823	276.77
431.265	344.64
431.707	356.35
432.149	358.69
432.591	351.67
433.033	368.05
433.475	339.96
433.917	337.62
434.359	342.3
434.8	382.09
435.242	295.49
435.684	286.13
436.125	361.03
436.567	339.96
437.008	316.56
437.449	241.66
437.891	302.51
438.332	368.05
438.773	304.85
439.214	330.6
439.656	339.96
440.097	300.17
440.538	365.71
440.978	307.2
441.419	342.3
441.86	346.98
442.301	267.41
442.742	258.04
443.182	279.11
443.623	311.88
444.063	337.62
444.504	321.24
444.944	339.96
445.385	307.2
445.825	332.94
446.265	365.71
446.706	295.49
447.146	332.94
447.586	325.92
448.026	265.07
448.466	323.58
448.906	344.64
449.346	279.11
449.786	311.88
450.225	332.94
450.665	236.98
451.105	293.15
451.544	316.56
451.984	342.3
452.424	279.11
452.863	262.73
453.302	346.98
453.742	311.88
454.181	339.96
454.62	288.47
455.059	346.98
455.499	328.26
455.938	361.03
456.377	304.85
456.816	325.92
457.254	281.45
457.693	365.71
458.132	372.73
458.571	316.56
459.01	302.51
459.448	318.9
459.887	351.67
460.325	330.6
460.764	307.2
461.202	286.13
461.641	337.62
462.079	339.96
462.517	300.17
462.955	339.96
463.393	293.15
463.832	332.94
464.27	346.98
464.708	276.77
465.145	304.85
465.583	314.22
466.021	311.88
466.459	290.81
466.897	321.24
467.334	358.69
467.772	241.66
468.209	225.28
468.647	286.13
469.084	309.54
469.522	276.77
469.959	279.11
470.396	300.17
470.833	335.28
471.271	323.58
471.708	293.15
472.145	330.6
472.582	295.49
473.019	288.47
473.456	302.51
473.892	332.94
474.329	309.54
474.766	297.83
475.202	330.6
475.639	290.81
476.076	330.6
476.512	290.81
476.949	297.83
477.385	337.62
477.821	342.3
478.258	300.17
478.694	365.71
479.13	311.88
479.566	314.22
480.002	307.2
480.438	370.39
480.874	267.41
481.31	323.58
481.746	339.96
482.181	335.28
482.617	311.88
483.053	297.83
483.488	335.28
483.924	309.54
484.36	311.88
484.795	262.73
485.23	307.2
485.666	265.07
486.101	314.22
486.536	300.17
486.971	304.85
487.407	321.24
487.842	272.09
488.277	325.92
488.712	300.17
489.146	283.79
489.581	290.81
490.016	300.17
490.451	307.2
490.885	342.3
491.32	262.73
491.755	267.41
492.189	272.09
492.624	311.88
493.058	344.64
493.492	286.13
493.927	321.24
494.361	234.64
494.795	375.07
495.229	325.92
495.663	311.88
496.097	318.9
496.531	346.98
496.965	365.71
497.399	400.82
497.833	332.94
498.266	286.13
498.7	304.85
499.134	375.07
499.567	382.09
500.001	330.6
500.434	293.15
500.868	288.47
501.301	258.04
501.734	293.15
502.168	342.3
502.601	314.22
503.034	274.43
503.467	344.64
503.9	318.9
504.333	339.96
504.766	321.24
505.199	370.39
505.632	316.56
506.064	318.9
506.497	304.85
506.93	300.17
507.362	274.43
507.795	321.24
508.227	286.13
508.66	293.15
509.092	304.85
509.524	300.17
509.956	323.58
510.389	297.83
510.821	309.54
511.253	335.28
511.685	267.41
512.117	325.92
512.549	325.92
512.981	286.13
513.412	358.69
513.844	260.38
514.276	302.51
514.707	339.96
515.139	349.32
515.571	323.58
516.002	354.01
516.433	290.81
516.865	351.67
517.296	300.17
517.727	339.96
518.159	325.92
518.59	356.35
519.021	321.24
519.452	253.36
519.883	286.13
520.314	354.01
520.744	248.68
521.175	220.6
521.606	318.9
522.037	288.47
522.467	344.64
522.898	255.7
523.328	260.38
523.759	309.54
524.189	354.01
524.62	293.15
525.05	309.54
525.48	321.24
525.91	342.3
526.341	335.28
526.771	272.09
527.201	248.68
527.631	304.85
528.061	335.28
528.49	307.2
528.92	290.81
529.35	339.96
529.78	283.79
530.209	246.34
530.639	297.83
531.068	281.45
531.498	286.13
531.927	295.49
532.357	267.41
532.786	297.83
533.215	290.81
533.644	358.69
534.074	311.88
534.503	222.94
534.932	321.24
535.361	356.35
535.79	346.98
536.218	332.94
536.647	307.2
537.076	304.85
537.505	244
537.933	286.13
538.362	349.32
538.79	293.15
539.219	358.69
539.647	370.39
540.076	330.6
540.504	286.13
540.932	328.26
541.36	276.77
541.788	302.51
542.217	332.94
542.645	293.15
543.073	328.26
543.5	311.88
543.928	356.35
544.356	269.75
544.784	351.67
545.211	272.09
545.639	346.98
546.067	328.26
546.494	311.88
546.922	330.6
547.349	351.67
547.776	290.81
548.204	276.77
548.631	215.91
549.058	337.62
549.485	325.92
549.912	328.26
550.339	255.7
550.766	328.26
551.193	337.62
551.62	321.24
552.047	309.54
552.474	332.94
552.9	356.35
553.327	398.48
553.754	309.54
554.18	384.43
554.607	279.11
555.033	365.71
555.459	358.69
555.886	314.22
556.312	332.94
556.738	321.24
557.164	332.94
557.59	309.54
558.016	302.51
558.442	279.11
558.868	258.04
559.294	354.01
559.72	304.85
560.145	281.45
560.571	325.92
560.997	297.83
561.422	307.2
561.848	293.15
562.273	332.94
562.699	311.88
563.124	311.88
563.549	288.47
563.974	295.49
564.4	316.56
564.825	361.03
565.25	295.49
565.675	321.24
566.1	354.01
566.525	325.92
566.95	321.24
567.374	307.2
567.799	276.77
568.224	302.51
568.648	302.51
569.073	286.13
569.497	302.51
569.922	344.64
570.346	361.03
570.771	328.26
571.195	386.77
571.619	295.49
572.043	311.88
572.467	222.94
572.891	295.49
573.315	309.54
573.739	349.32
574.163	314.22
574.587	335.28
575.011	274.43
575.435	314.22
575.858	295.49
576.282	307.2
576.705	363.37
577.129	323.58
577.552	251.02
577.976	265.07
578.399	288.47
578.822	260.38
579.245	236.98
579.669	288.47
580.092	323.58
580.515	311.88
580.938	307.2
581.361	332.94
581.784	311.88
582.206	335.28
582.629	342.3
583.052	377.41
583.474	288.47
583.897	309.54
584.32	354.01
584.742	325.92
585.165	295.49
585.587	227.62
586.009	323.58
586.431	279.11
586.854	297.83
587.276	246.34
587.698	323.58
588.12	307.2
588.542	335.28
588.964	307.2
589.386	361.03
589.807	260.38
590.229	288.47
590.651	260.38
591.073	279.11
591.494	307.2
591.916	372.73
592.337	288.47
592.759	335.28
593.18	330.6
593.601	330.6
594.022	363.37
594.444	302.51
594.865	255.7
595.286	361.03
595.707	361.03
596.128	330.6
596.549	281.45
596.97	295.49
597.39	335.28
597.811	274.43
598.232	314.22
598.652	276.77
599.073	344.64
599.494	297.83
599.914	304.85
600.334	335.28
600.755	288.47
601.175	279.11
601.595	288.47
602.015	335.28
602.436	293.15
602.856	377.41
603.276	335.28
603.696	344.64
604.115	344.64
604.535	286.13
604.955	318.9
605.375	288.47
605.794	358.69
606.214	335.28
606.634	265.07
607.053	304.85
607.473	363.37
607.892	267.41
608.311	302.51
608.731	286.13
609.15	279.11
609.569	344.64
609.988	325.92
610.407	351.67
610.826	400.82
611.245	335.28
611.664	293.15
612.083	255.7
612.501	288.47
612.92	236.98
613.339	265.07
613.757	295.49
614.176	272.09
614.594	241.66
615.013	328.26
615.431	356.35
615.85	274.43
616.268	262.73
616.686	297.83
617.104	309.54
617.522	318.9
617.94	323.58
618.358	342.3
618.776	330.6
619.194	276.77
619.612	342.3
620.03	325.92
620.447	316.56
620.865	290.81
621.282	274.43
621.7	344.64
622.117	307.2
622.535	316.56
622.952	370.39
623.369	276.77
623.787	274.43
624.204	274.43
624.621	279.11
625.038	311.88
625.455	288.47
625.872	300.17
626.289	211.23
626.706	316.56
627.123	351.67
627.539	339.96
627.956	342.3
628.373	307.2
628.789	363.37
629.206	302.51
629.622	295.49
630.038	349.32
630.455	283.79
630.871	269.75
631.287	281.45
631.703	293.15
632.12	314.22
632.536	361.03
632.952	339.96
633.368	309.54
633.783	258.04
634.199	279.11
634.615	293.15
635.031	328.26
635.446	421.88
635.862	344.64
636.277	321.24
636.693	309.54
637.108	286.13
637.524	370.39
637.939	283.79
638.354	309.54
638.77	323.58
639.185	368.05
639.6	316.56
640.015	276.77
640.43	295.49
640.845	316.56
641.259	286.13
641.674	302.51
642.089	241.66
642.504	283.79
642.918	325.92
643.333	293.15
643.747	351.67
644.162	293.15
644.576	300.17
644.991	246.34
645.405	342.3
645.819	251.02
646.233	267.41
646.647	244
647.061	295.49
647.475	339.96
647.889	325.92
648.303	213.57
648.717	253.36
649.131	288.47
649.545	253.36
649.958	344.64
650.372	335.28
650.785	272.09
651.199	297.83
651.612	365.71
652.026	339.96
652.439	227.62
652.852	337.62
653.266	330.6
653.679	314.22
654.092	337.62
654.505	281.45
654.918	253.36
655.331	300.17
655.744	339.96
656.156	267.41
656.569	290.81
656.982	281.45
657.394	239.32
657.807	286.13
658.22	297.83
658.632	309.54
659.044	272.09
659.457	297.83
659.869	288.47
660.281	344.64
660.693	318.9
661.106	323.58
661.518	265.07
661.93	307.2
662.342	363.37
662.754	300.17
663.165	307.2
663.577	332.94
663.989	349.32
664.401	325.92
664.812	276.77
665.224	321.24
665.635	316.56
666.047	276.77
666.458	363.37
666.869	311.88
667.281	300.17
667.692	330.6
668.103	274.43
668.514	316.56
668.925	272.09
669.336	328.26
669.747	328.26
670.158	276.77
670.569	283.79
670.979	300.17
671.39	286.13
671.801	276.77
672.211	325.92
672.622	314.22
673.032	323.58
673.443	307.2
673.853	344.64
674.263	363.37
674.674	307.2
675.084	297.83
675.494	311.88
675.904	274.43
676.314	339.96
676.724	330.6
677.134	288.47
677.544	337.62
677.953	248.68
678.363	323.58
678.773	328.26
679.182	339.96
679.592	323.58
680.001	354.01
680.411	269.75
680.82	300.17
681.23	356.35
681.639	335.28
682.048	316.56
682.457	288.47
682.866	323.58
683.275	323.58
683.684	297.83
684.093	279.11
684.502	293.15
684.911	311.88
685.32	302.51
685.728	363.37
686.137	349.32
686.546	314.22
686.954	300.17
687.363	295.49
687.771	288.47
688.179	309.54
688.588	316.56
688.996	290.81
689.404	358.69
689.812	321.24
690.22	290.81
690.628	344.64
691.036	375.07
691.444	272.09
691.852	276.77
692.26	342.3
692.667	279.11
693.075	351.67
693.483	346.98
693.89	293.15
694.298	302.51
694.705	302.51
695.112	307.2
695.52	290.81
695.927	318.9
696.334	375.07
696.741	295.49
697.148	307.2
697.555	304.85
697.962	262.73
698.369	267.41
698.776	311.88
699.183	260.38
699.59	349.32
699.996	295.49
700.403	316.56
700.81	286.13
701.216	265.07
701.623	356.35
702.029	279.11
702.435	321.24
702.842	311.88
703.248	318.9
703.654	351.67
704.06	283.79
704.466	304.85
704.872	295.49
705.278	300.17
705.684	330.6
706.09	318.9
706.496	255.7
706.901	302.51
707.307	361.03
707.712	337.62
708.118	318.9
708.523	365.71
708.929	346.98
709.334	260.38
709.74	300.17
710.145	262.73
710.55	272.09
710.955	229.96
711.36	251.02
711.765	332.94
712.17	337.62
712.575	356.35
712.98	803.39
713.385	330.6
713.789	307.2
714.194	314.22
714.599	337.62
715.003	302.51
715.408	286.13
715.812	297.83
716.217	321.24
716.621	286.13
717.025	314.22
717.429	339.96
717.833	307.2
718.238	281.45
718.642	316.56
719.046	260.38
719.449	253.36
719.853	321.24
720.257	300.17
720.661	330.6
721.065	274.43
721.468	393.8
721.872	276.77
722.275	239.32
722.679	253.36
723.082	258.04
723.485	267.41
723.889	302.51
724.292	344.64
724.695	281.45
725.098	344.64
725.501	297.83
725.904	295.49
726.307	335.28
726.71	267.41
727.113	321.24
727.516	358.69
727.918	288.47
728.321	260.38
728.724	274.43
729.126	309.54
729.529	295.49
729.931	354.01
730.333	316.56
730.736	309.54
731.138	309.54
731.54	316.56
731.942	269.75
732.344	297.83
732.746	286.13
733.148	304.85
733.55	377.41
733.952	246.34
734.354	316.56
734.756	274.43
735.157	335.28
735.559	258.04
735.96	337.62
736.362	349.32
736.763	323.58
737.165	283.79
737.566	307.2
737.967	309.54
738.368	314.22
738.77	293.15
739.171	290.81
739.572	321.24
739.973	290.81
740.374	288.47
740.774	262.73
741.175	328.26
741.576	304.85
741.977	286.13
742.377	302.51
742.778	253.36
743.178	239.32
743.579	335.28
743.979	330.6
744.379	276.77
744.78	304.85
745.18	283.79
745.58	325.92
745.98	267.41
746.38	246.34
746.78	321.24
747.18	281.45
747.58	265.07
747.98	297.83
748.38	346.98
748.779	286.13
749.179	328.26
749.578	323.58
749.978	316.56
750.377	332.94
750.777	302.51
751.176	239.32
751.575	283.79
751.975	307.2
752.374	283.79
752.773	295.49
753.172	316.56
753.571	361.03
753.97	260.38
754.369	342.3
754.768	307.2
755.166	288.47
755.565	321.24
755.964	255.7
756.362	344.64
756.761	274.43
757.159	297.83
757.558	244
757.956	272.09
758.354	339.96
758.753	323.58
759.151	311.88
759.549	337.62
759.947	332.94
760.345	281.45
760.743	321.24
761.141	337.62
761.539	253.36
761.936	344.64
762.334	281.45
762.732	332.94
763.129	258.04
763.527	332.94
763.924	325.92
764.322	300.17
764.719	293.15
765.117	316.56
765.514	363.37
765.911	274.43
