Data from Al_FLMS009871__1049__16-25-16-713.txt Node

Date: Fri Mar 08 16:25:16 CST 2024
User: pe5414po
Spectrometer: FLMS00987
Trigger mode: 0
Integration Time (sec): 1.000000E-1
Scans to average: 1
Electric dark correction enabled: true
Nonlinearity correction enabled: false
Boxcar width: 0
XAxis mode: Wavelengths
Number of Pixels in Spectrum: 2048
>>>>>Begin Spectral Data<<<<<
188.938	-65.1
189.409	-65.1
189.879	-65.1
190.349	-93.18
190.819	-104.89
191.29	-118.93
191.76	-109.57
192.23	-72.12
192.7	-109.57
193.17	-41.69
193.64	-67.44
194.109	-6.58
194.579	-53.39
195.049	16.82
195.519	14.48
195.988	37.89
196.458	49.59
196.927	44.91
197.397	178.32
197.866	122.15
198.336	115.13
198.805	171.3
199.274	108.1
199.744	166.62
200.213	171.3
200.682	246.2
201.151	213.43
201.62	243.85
202.089	290.67
202.558	278.96
203.027	264.92
203.495	304.71
203.964	175.98
204.433	236.83
204.902	295.35
205.37	311.73
205.839	304.71
206.307	253.22
206.776	278.96
207.244	318.75
207.712	349.18
208.181	290.67
208.649	297.69
209.117	309.39
209.585	325.77
210.053	269.6
210.521	227.47
210.989	248.54
211.457	293.01
211.925	234.49
212.393	243.85
212.861	264.92
213.328	271.94
213.796	250.88
214.264	283.64
214.731	274.28
215.199	227.47
215.666	260.24
216.133	276.62
216.601	288.32
217.068	250.88
217.535	222.79
218.003	234.49
218.47	220.45
218.937	192.36
219.404	243.85
219.871	248.54
220.338	283.64
220.805	271.94
221.271	290.67
221.738	232.15
222.205	225.13
222.671	222.79
223.138	311.73
223.605	274.28
224.071	285.98
224.538	255.56
225.004	337.48
225.47	307.05
225.937	288.32
226.403	267.26
226.869	260.24
227.335	264.92
227.801	262.58
228.267	276.62
228.733	281.3
229.199	309.39
229.665	255.56
230.131	264.92
230.597	304.71
231.062	274.28
231.528	278.96
231.994	297.69
232.459	293.01
232.925	314.07
233.39	278.96
233.856	337.48
234.321	290.67
234.786	246.2
235.252	300.03
235.717	337.48
236.182	278.96
236.647	307.05
237.112	246.2
237.577	213.43
238.042	250.88
238.507	309.39
238.972	309.39
239.436	218.11
239.901	285.98
240.366	262.58
240.83	335.14
241.295	264.92
241.76	316.41
242.224	253.22
242.688	274.28
243.153	318.75
243.617	255.56
244.081	262.58
244.545	288.32
245.01	325.77
245.474	321.09
245.938	302.37
246.402	213.43
246.866	304.71
247.33	271.94
247.793	274.28
248.257	264.92
248.721	309.39
249.185	248.54
249.648	288.32
250.112	250.88
250.575	236.83
251.039	307.05
251.502	239.17
251.965	304.71
252.429	257.9
252.892	255.56
253.355	332.79
253.818	253.22
254.281	346.84
254.744	285.98
255.207	232.15
255.67	309.39
256.133	278.96
256.596	255.56
257.059	276.62
257.522	290.67
257.984	269.6
258.447	314.07
258.909	255.56
259.372	323.43
259.834	278.96
260.297	239.17
260.759	332.79
261.221	283.64
261.684	243.85
262.146	285.98
262.608	300.03
263.07	370.24
263.532	246.2
263.994	260.24
264.456	234.49
264.918	255.56
265.38	304.71
265.842	311.73
266.303	309.39
266.765	288.32
267.227	241.51
267.688	314.07
268.15	307.05
268.611	311.73
269.072	309.39
269.534	290.67
269.995	253.22
270.456	267.26
270.918	246.2
271.379	288.32
271.84	307.05
272.301	293.01
272.762	281.3
273.223	288.32
273.684	295.35
274.144	201.72
274.605	288.32
275.066	227.47
275.527	318.75
275.987	262.58
276.448	309.39
276.908	300.03
277.369	335.14
277.829	335.14
278.289	274.28
278.75	213.43
279.21	260.24
279.67	314.07
280.13	281.3
280.59	269.6
281.05	253.22
281.51	314.07
281.97	365.56
282.43	274.28
282.89	257.9
283.35	311.73
283.809	323.43
284.269	316.41
284.729	264.92
285.188	267.26
285.648	241.51
286.107	276.62
286.567	300.03
287.026	302.37
287.485	295.35
287.944	342.16
288.404	290.67
288.863	321.09
289.322	321.09
289.781	314.07
290.24	276.62
290.699	367.9
291.158	288.32
291.616	288.32
292.075	314.07
292.534	290.67
292.992	330.45
293.451	197.04
293.91	267.26
294.368	253.22
294.827	236.83
295.285	321.09
295.743	321.09
296.202	314.07
296.66	278.96
297.118	325.77
297.576	293.01
298.034	222.79
298.492	262.58
298.95	239.17
299.408	304.71
299.866	297.69
300.324	351.52
300.781	274.28
301.239	262.58
301.697	234.49
302.154	370.24
302.612	295.35
303.069	297.69
303.527	260.24
303.984	250.88
304.441	281.3
304.899	318.75
305.356	295.35
305.813	271.94
306.27	295.35
306.727	250.88
307.184	297.69
307.641	257.9
308.098	283.64
308.555	295.35
309.012	351.52
309.468	300.03
309.925	314.07
310.382	302.37
310.838	304.71
311.295	295.35
311.751	307.05
312.208	304.71
312.664	297.69
313.12	323.43
313.577	281.3
314.033	346.84
314.489	304.71
314.945	342.16
315.401	290.67
315.857	321.09
316.313	288.32
316.769	337.48
317.225	314.07
317.681	236.83
318.136	260.24
318.592	300.03
319.048	302.37
319.503	300.03
319.959	293.01
320.414	314.07
320.869	325.77
321.325	264.92
321.78	297.69
322.235	255.56
322.691	290.67
323.146	215.77
323.601	297.69
324.056	323.43
324.511	227.47
324.966	307.05
325.421	274.28
325.875	276.62
326.33	271.94
326.785	264.92
327.24	304.71
327.694	288.32
328.149	285.98
328.603	250.88
329.058	311.73
329.512	257.9
329.966	300.03
330.421	285.98
330.875	267.26
331.329	236.83
331.783	300.03
332.237	278.96
332.691	271.94
333.145	323.43
333.599	297.69
334.053	307.05
334.507	281.3
334.96	274.28
335.414	257.9
335.868	276.62
336.321	304.71
336.775	302.37
337.228	293.01
337.682	267.26
338.135	323.43
338.588	318.75
339.042	297.69
339.495	274.28
339.948	314.07
340.401	276.62
340.854	246.2
341.307	281.3
341.76	335.14
342.213	281.3
342.666	374.92
343.119	297.69
343.571	330.45
344.024	314.07
344.477	297.69
344.929	269.6
345.382	365.56
345.834	269.6
346.287	332.79
346.739	360.88
347.191	360.88
347.644	293.01
348.096	276.62
348.548	356.2
349	337.48
349.452	323.43
349.904	325.77
350.356	281.3
350.808	330.45
351.26	307.05
351.711	356.2
352.163	328.11
352.615	358.54
353.066	339.82
353.518	300.03
353.969	316.41
354.421	358.54
354.872	307.05
355.324	335.14
355.775	264.92
356.226	300.03
356.677	288.32
357.128	300.03
357.579	304.71
358.03	293.01
358.481	316.41
358.932	290.67
359.383	283.64
359.834	342.16
360.285	321.09
360.735	257.9
361.186	283.64
361.637	274.28
362.087	290.67
362.538	335.14
362.988	309.39
363.438	386.63
363.889	278.96
364.339	302.37
364.789	304.71
365.239	321.09
365.689	302.37
366.139	360.88
366.589	330.45
367.039	337.48
367.489	260.24
367.939	297.69
368.389	323.43
368.839	269.6
369.288	311.73
369.738	309.39
370.187	271.94
370.637	388.97
371.086	276.62
371.536	208.75
371.985	307.05
372.434	250.88
372.884	290.67
373.333	215.77
373.782	349.18
374.231	253.22
374.68	332.79
375.129	297.69
375.578	330.45
376.027	246.2
376.475	236.83
376.924	337.48
377.373	337.48
377.822	297.69
378.27	288.32
378.719	367.9
379.167	297.69
379.616	307.05
380.064	267.26
380.512	248.54
380.961	353.86
381.409	384.29
381.857	328.11
382.305	243.85
382.753	318.75
383.201	285.98
383.649	353.86
384.097	377.27
384.545	288.32
384.992	344.5
385.44	328.11
385.888	314.07
386.335	307.05
386.783	318.75
387.231	290.67
387.678	307.05
388.125	314.07
388.573	290.67
389.02	283.64
389.467	274.28
389.914	332.79
390.362	309.39
390.809	321.09
391.256	316.41
391.703	353.86
392.15	323.43
392.596	349.18
393.043	260.24
393.49	342.16
393.937	300.03
394.383	337.48
394.83	274.28
395.276	337.48
395.723	300.03
396.169	339.82
396.616	274.28
397.062	278.96
397.508	283.64
397.954	213.43
398.401	395.99
398.847	353.86
399.293	304.71
399.739	363.22
400.185	374.92
400.631	264.92
401.076	337.48
401.522	332.79
401.968	295.35
402.414	316.41
402.859	395.99
403.305	264.92
403.75	281.3
404.196	285.98
404.641	332.79
405.086	311.73
405.532	311.73
405.977	330.45
406.422	365.56
406.867	314.07
407.312	264.92
407.757	363.22
408.202	288.32
408.647	297.69
409.092	281.3
409.537	307.05
409.982	360.88
410.426	314.07
410.871	295.35
411.316	288.32
411.76	323.43
412.205	351.52
412.649	332.79
413.093	323.43
413.538	398.33
413.982	285.98
414.426	342.16
414.87	309.39
415.314	304.71
415.758	360.88
416.202	346.84
416.646	295.35
417.09	293.01
417.534	370.24
417.978	271.94
418.421	307.05
418.865	323.43
419.309	264.92
419.752	300.03
420.196	316.41
420.639	337.48
421.083	309.39
421.526	302.37
421.969	236.83
422.412	290.67
422.856	321.09
423.299	386.63
423.742	349.18
424.185	311.73
424.628	353.86
425.071	358.54
425.513	349.18
425.956	302.37
426.399	321.09
426.842	304.71
427.284	297.69
427.727	307.05
428.169	325.77
428.612	311.73
429.054	318.75
429.497	276.62
429.939	253.22
430.381	309.39
430.823	246.2
431.265	250.88
431.707	281.3
432.149	246.2
432.591	321.09
433.033	311.73
433.475	300.03
433.917	283.64
434.359	344.5
434.8	311.73
435.242	283.64
435.684	363.22
436.125	311.73
436.567	351.52
437.008	307.05
437.449	325.77
437.891	337.48
438.332	288.32
438.773	229.81
439.214	337.48
439.656	337.48
440.097	293.01
440.538	360.88
440.978	332.79
441.419	311.73
441.86	264.92
442.301	278.96
442.742	290.67
443.182	300.03
443.623	339.82
444.063	335.14
444.504	271.94
444.944	283.64
445.385	311.73
445.825	311.73
446.265	351.52
446.706	264.92
447.146	335.14
447.586	335.14
448.026	330.45
448.466	309.39
448.906	321.09
449.346	360.88
449.786	342.16
450.225	316.41
450.665	278.96
451.105	283.64
451.544	323.43
451.984	290.67
452.424	337.48
452.863	262.58
453.302	297.69
453.742	323.43
454.181	302.37
454.62	293.01
455.059	325.77
455.499	328.11
455.938	220.45
456.377	246.2
456.816	278.96
457.254	328.11
457.693	302.37
458.132	304.71
458.571	325.77
459.01	407.69
459.448	307.05
459.887	297.69
460.325	346.84
460.764	323.43
461.202	337.48
461.641	285.98
462.079	300.03
462.517	316.41
462.955	295.35
463.393	260.24
463.832	328.11
464.27	335.14
464.708	309.39
465.145	271.94
465.583	314.07
466.021	344.5
466.459	407.69
466.897	260.24
467.334	311.73
467.772	253.22
468.209	304.71
468.647	267.26
469.084	262.58
469.522	321.09
469.959	307.05
470.396	356.2
470.833	295.35
471.271	344.5
471.708	307.05
472.145	267.26
472.582	302.37
473.019	295.35
473.456	276.62
473.892	346.84
474.329	314.07
474.766	321.09
475.202	271.94
475.639	304.71
476.076	325.77
476.512	318.75
476.949	307.05
477.385	344.5
477.821	281.3
478.258	295.35
478.694	311.73
479.13	332.79
479.566	290.67
480.002	283.64
480.438	323.43
480.874	293.01
481.31	332.79
481.746	302.37
482.181	316.41
482.617	262.58
483.053	311.73
483.488	337.48
483.924	339.82
484.36	342.16
484.795	246.2
485.23	358.54
485.666	335.14
486.101	283.64
486.536	300.03
486.971	302.37
487.407	274.28
487.842	365.56
488.277	325.77
488.712	335.14
489.146	297.69
489.581	255.56
490.016	246.2
490.451	346.84
490.885	285.98
491.32	239.17
491.755	335.14
492.189	381.95
492.624	293.01
493.058	314.07
493.492	300.03
493.927	267.26
494.361	318.75
494.795	293.01
495.229	309.39
495.663	311.73
496.097	328.11
496.531	288.32
496.965	330.45
497.399	311.73
497.833	260.24
498.266	316.41
498.7	285.98
499.134	278.96
499.567	353.86
500.001	360.88
500.434	351.52
500.868	323.43
501.301	370.24
501.734	253.22
502.168	285.98
502.601	262.58
503.034	351.52
503.467	332.79
503.9	316.41
504.333	318.75
504.766	335.14
505.199	318.75
505.632	309.39
506.064	314.07
506.497	321.09
506.93	356.2
507.362	339.82
507.795	307.05
508.227	314.07
508.66	330.45
509.092	264.92
509.524	395.99
509.956	346.84
510.389	356.2
510.821	321.09
511.253	278.96
511.685	218.11
512.117	307.05
512.549	250.88
512.981	246.2
513.412	351.52
513.844	353.86
514.276	300.03
514.707	257.9
515.139	283.64
515.571	328.11
516.002	393.65
516.433	339.82
516.865	295.35
517.296	278.96
517.727	335.14
518.159	302.37
518.59	372.58
519.021	332.79
519.452	290.67
519.883	300.03
520.314	339.82
520.744	332.79
521.175	281.3
521.606	307.05
522.037	311.73
522.467	321.09
522.898	328.11
523.328	255.56
523.759	271.94
524.189	283.64
524.62	316.41
525.05	302.37
525.48	250.88
525.91	339.82
526.341	269.6
526.771	360.88
527.201	260.24
527.631	276.62
528.061	283.64
528.49	243.85
528.92	346.84
529.35	342.16
529.78	370.24
530.209	250.88
530.639	283.64
531.068	269.6
531.498	295.35
531.927	243.85
532.357	360.88
532.786	330.45
533.215	300.03
533.644	290.67
534.074	316.41
534.503	271.94
534.932	297.69
535.361	344.5
535.79	288.32
536.218	337.48
536.647	288.32
537.076	290.67
537.505	351.52
537.933	276.62
538.362	307.05
538.79	314.07
539.219	325.77
539.647	314.07
540.076	351.52
540.504	309.39
540.932	271.94
541.36	300.03
541.788	318.75
542.217	257.9
542.645	283.64
543.073	288.32
543.5	278.96
543.928	349.18
544.356	379.61
544.784	358.54
545.211	295.35
545.639	323.43
546.067	330.45
546.494	323.43
546.922	325.77
547.349	281.3
547.776	407.69
548.204	367.9
548.631	309.39
549.058	309.39
549.485	349.18
549.912	267.26
550.339	316.41
550.766	316.41
551.193	330.45
551.62	344.5
552.047	337.48
552.474	285.98
552.9	309.39
553.327	349.18
553.754	300.03
554.18	363.22
554.607	314.07
555.033	274.28
555.459	349.18
555.886	339.82
556.312	346.84
556.738	253.22
557.164	264.92
557.59	344.5
558.016	302.37
558.442	325.77
558.868	330.45
559.294	335.14
559.72	332.79
560.145	288.32
560.571	323.43
560.997	302.37
561.422	314.07
561.848	295.35
562.273	332.79
562.699	365.56
563.124	288.32
563.549	304.71
563.974	295.35
564.4	243.85
564.825	288.32
565.25	295.35
565.675	290.67
566.1	337.48
566.525	255.56
566.95	267.26
567.374	281.3
567.799	316.41
568.224	325.77
568.648	372.58
569.073	309.39
569.497	353.86
569.922	337.48
570.346	332.79
570.771	318.75
571.195	330.45
571.619	342.16
572.043	325.77
572.467	318.75
572.891	330.45
573.315	344.5
573.739	351.52
574.163	337.48
574.587	330.45
575.011	330.45
575.435	267.26
575.858	323.43
576.282	288.32
576.705	293.01
577.129	400.67
577.552	290.67
577.976	351.52
578.399	295.35
578.822	330.45
579.245	267.26
579.669	307.05
580.092	332.79
580.515	346.84
580.938	274.28
581.361	314.07
581.784	300.03
582.206	257.9
582.629	264.92
583.052	335.14
583.474	271.94
583.897	372.58
584.32	332.79
584.742	307.05
585.165	332.79
585.587	297.69
586.009	314.07
586.431	300.03
586.854	285.98
587.276	332.79
587.698	318.75
588.12	300.03
588.542	321.09
588.964	300.03
589.386	323.43
589.807	335.14
590.229	344.5
590.651	321.09
591.073	386.63
591.494	285.98
591.916	314.07
592.337	276.62
592.759	250.88
593.18	372.58
593.601	290.67
594.022	304.71
594.444	300.03
594.865	290.67
595.286	300.03
595.707	269.6
596.128	356.2
596.549	339.82
596.97	358.54
597.39	288.32
597.811	323.43
598.232	311.73
598.652	325.77
599.073	325.77
599.494	332.79
599.914	314.07
600.334	297.69
600.755	337.48
601.175	314.07
601.595	323.43
602.015	271.94
602.436	234.49
602.856	466.21
603.276	309.39
603.696	304.71
604.115	358.54
604.535	316.41
604.955	351.52
605.375	386.63
605.794	356.2
606.214	335.14
606.634	285.98
607.053	332.79
607.473	405.35
607.892	349.18
608.311	328.11
608.731	342.16
609.15	337.48
609.569	349.18
609.988	363.22
610.407	302.37
610.826	290.67
611.245	339.82
611.664	316.41
612.083	262.58
612.501	274.28
612.92	325.77
613.339	335.14
613.757	370.24
614.176	293.01
614.594	283.64
615.013	314.07
615.431	318.75
615.85	314.07
616.268	325.77
616.686	288.32
617.104	295.35
617.522	288.32
617.94	248.54
618.358	243.85
618.776	384.29
619.194	328.11
619.612	374.92
620.03	300.03
620.447	297.69
620.865	316.41
621.282	330.45
621.7	358.54
622.117	349.18
622.535	285.98
622.952	323.43
623.369	278.96
623.787	307.05
624.204	311.73
624.621	300.03
625.038	267.26
625.455	243.85
625.872	342.16
626.289	311.73
626.706	349.18
627.123	374.92
627.539	335.14
627.956	332.79
628.373	278.96
628.789	302.37
629.206	330.45
629.622	323.43
630.038	285.98
630.455	290.67
630.871	325.77
631.287	344.5
631.703	295.35
632.12	248.54
632.536	269.6
632.952	328.11
633.368	257.9
633.783	267.26
634.199	309.39
634.615	328.11
635.031	288.32
635.446	351.52
635.862	365.56
636.277	325.77
636.693	344.5
637.108	323.43
637.524	332.79
637.939	307.05
638.354	304.71
638.77	309.39
639.185	314.07
639.6	281.3
640.015	328.11
640.43	328.11
640.845	278.96
641.259	318.75
641.674	274.28
642.089	269.6
642.504	283.64
642.918	318.75
643.333	264.92
643.747	316.41
644.162	281.3
644.576	297.69
644.991	264.92
645.405	367.9
645.819	281.3
646.233	307.05
646.647	281.3
647.061	264.92
647.475	321.09
647.889	232.15
648.303	337.48
648.717	288.32
649.131	321.09
649.545	297.69
649.958	314.07
650.372	283.64
650.785	318.75
651.199	330.45
651.612	262.58
652.026	281.3
652.439	325.77
652.852	316.41
653.266	293.01
653.679	307.05
654.092	335.14
654.505	309.39
654.918	276.62
655.331	335.14
655.744	300.03
656.156	337.48
656.569	316.41
656.982	360.88
657.394	318.75
657.807	297.69
658.22	297.69
658.632	332.79
659.044	271.94
659.457	264.92
659.869	351.52
660.281	285.98
660.693	309.39
661.106	311.73
661.518	307.05
661.93	267.26
662.342	318.75
662.754	283.64
663.165	395.99
663.577	262.58
663.989	337.48
664.401	283.64
664.812	339.82
665.224	325.77
665.635	264.92
666.047	260.24
666.458	339.82
666.869	321.09
667.281	328.11
667.692	307.05
668.103	351.52
668.514	316.41
668.925	302.37
669.336	372.58
669.747	262.58
670.158	323.43
670.569	281.3
670.979	335.14
671.39	271.94
671.801	278.96
672.211	304.71
672.622	274.28
673.032	309.39
673.443	274.28
673.853	346.84
674.263	323.43
674.674	377.27
675.084	297.69
675.494	335.14
675.904	311.73
676.314	314.07
676.724	278.96
677.134	295.35
677.544	379.61
677.953	335.14
678.363	309.39
678.773	388.97
679.182	304.71
679.592	304.71
680.001	323.43
680.411	353.86
680.82	323.43
681.23	271.94
681.639	300.03
682.048	267.26
682.457	342.16
682.866	253.22
683.275	278.96
683.684	302.37
684.093	285.98
684.502	318.75
684.911	302.37
685.32	271.94
685.728	246.2
686.137	323.43
686.546	274.28
686.954	321.09
687.363	269.6
687.771	283.64
688.179	281.3
688.588	316.41
688.996	330.45
689.404	290.67
689.812	367.9
690.22	260.24
690.628	304.71
691.036	246.2
691.444	316.41
691.852	302.37
692.26	356.2
692.667	370.24
693.075	353.86
693.483	323.43
693.89	274.28
694.298	297.69
694.705	346.84
695.112	314.07
695.52	346.84
695.927	274.28
696.334	337.48
696.741	321.09
697.148	300.03
697.555	321.09
697.962	293.01
698.369	330.45
698.776	260.24
699.183	335.14
699.59	335.14
699.996	293.01
700.403	283.64
700.81	276.62
701.216	356.2
701.623	300.03
702.029	297.69
702.435	335.14
702.842	276.62
703.248	283.64
703.654	316.41
704.06	267.26
704.466	314.07
704.872	225.13
705.278	297.69
705.684	234.49
706.09	281.3
706.496	225.13
706.901	349.18
707.307	271.94
707.712	288.32
708.118	316.41
708.523	316.41
708.929	344.5
709.334	288.32
709.74	309.39
710.145	271.94
710.55	328.11
710.955	337.48
711.36	332.79
711.765	297.69
712.17	344.5
712.575	330.45
712.98	807.92
713.385	323.43
713.789	332.79
714.194	290.67
714.599	288.32
715.003	321.09
715.408	285.98
715.812	262.58
716.217	302.37
716.621	220.45
717.025	307.05
717.429	332.79
717.833	274.28
718.238	274.28
718.642	323.43
719.046	304.71
719.449	314.07
719.853	311.73
720.257	260.24
720.661	314.07
721.065	267.26
721.468	323.43
721.872	307.05
722.275	337.48
722.679	267.26
723.082	281.3
723.485	328.11
723.889	314.07
724.292	307.05
724.695	304.71
725.098	293.01
725.501	302.37
725.904	351.52
726.307	304.71
726.71	276.62
727.113	278.96
727.516	339.82
727.918	332.79
728.321	267.26
728.724	304.71
729.126	281.3
729.529	311.73
729.931	314.07
730.333	271.94
730.736	318.75
731.138	213.43
731.54	293.01
731.942	267.26
732.344	302.37
732.746	302.37
733.148	314.07
733.55	260.24
733.952	314.07
734.354	297.69
734.756	283.64
735.157	276.62
735.559	295.35
735.96	290.67
736.362	267.26
736.763	293.01
737.165	365.56
737.566	351.52
737.967	335.14
738.368	323.43
738.77	349.18
739.171	339.82
739.572	328.11
739.973	300.03
740.374	309.39
740.774	288.32
741.175	316.41
741.576	293.01
741.977	264.92
742.377	307.05
742.778	370.24
743.178	318.75
743.579	307.05
743.979	311.73
744.379	309.39
744.78	290.67
745.18	311.73
745.58	295.35
745.98	274.28
746.38	311.73
746.78	353.86
747.18	372.58
747.58	323.43
747.98	316.41
748.38	381.95
748.779	300.03
749.179	309.39
749.578	304.71
749.978	285.98
750.377	281.3
750.777	232.15
751.176	311.73
751.575	276.62
751.975	281.3
752.374	227.47
752.773	276.62
753.172	302.37
753.571	267.26
753.97	321.09
754.369	297.69
754.768	243.85
755.166	321.09
755.565	271.94
755.964	353.86
756.362	351.52
756.761	339.82
757.159	330.45
757.558	316.41
757.956	285.98
758.354	356.2
758.753	316.41
759.151	311.73
759.549	318.75
759.947	295.35
760.345	335.14
760.743	323.43
761.141	236.83
761.539	283.64
761.936	290.67
762.334	398.33
762.732	304.71
763.129	307.05
763.527	316.41
763.924	349.18
