Data from Al_FLMS009871__1047__16-25-16-514.txt Node

Date: Fri Mar 08 16:25:16 CST 2024
User: pe5414po
Spectrometer: FLMS00987
Trigger mode: 0
Integration Time (sec): 1.000000E-1
Scans to average: 1
Electric dark correction enabled: true
Nonlinearity correction enabled: false
Boxcar width: 0
XAxis mode: Wavelengths
Number of Pixels in Spectrum: 2048
>>>>>Begin Spectral Data<<<<<
188.938	-70.65
189.409	-70.65
189.879	-70.65
190.349	-103.42
190.819	-54.27
191.29	-47.25
191.76	-105.76
192.23	-154.91
192.7	-119.81
193.17	-73
193.64	25.31
194.109	37.01
194.579	-56.61
195.049	15.94
195.519	62.76
195.988	37.01
196.458	6.58
196.927	67.44
197.397	97.86
197.866	121.27
198.336	86.16
198.805	200.85
199.274	170.42
199.744	238.3
200.213	221.91
200.682	259.36
201.151	233.61
201.62	306.17
202.089	294.47
202.558	285.11
203.027	317.87
203.495	362.34
203.964	327.24
204.433	345.96
204.902	411.5
205.37	376.39
205.839	434.9
206.307	460.65
206.776	451.28
207.244	549.59
207.712	474.69
208.181	481.71
208.649	488.73
209.117	488.73
209.585	505.12
210.053	575.33
210.521	570.65
210.989	540.22
211.457	680.66
211.925	704.06
212.393	776.62
212.861	811.73
213.328	678.32
213.796	645.55
214.264	605.76
214.731	516.82
215.199	509.8
215.666	505.12
216.133	587.04
216.601	785.98
217.068	863.22
217.535	870.24
218.003	1008.33
218.47	1277.49
218.937	1101.95
219.404	924.07
219.871	905.35
220.338	1052.8
220.805	1038.76
221.271	818.75
221.738	776.62
222.205	739.17
222.671	743.85
223.138	863.22
223.605	921.73
224.071	1022.38
224.538	881.94
225.004	818.75
225.47	895.99
225.937	921.73
226.403	1008.33
226.869	886.62
227.335	598.74
227.801	462.99
228.267	537.88
228.733	556.61
229.199	537.88
229.665	488.73
230.131	570.65
230.597	458.31
231.062	603.42
231.528	486.39
231.994	540.22
232.459	488.73
232.925	470.01
233.39	439.58
233.856	484.05
234.321	519.16
234.786	619.8
235.252	938.12
235.717	1485.8
236.182	2073.28
236.647	2255.84
237.112	1752.62
237.577	1064.5
238.042	654.91
238.507	542.57
238.972	558.95
239.436	563.63
239.901	547.25
240.366	549.59
240.83	549.59
241.295	500.44
241.76	470.01
242.224	453.63
242.688	509.8
243.153	458.31
243.617	453.63
244.081	437.24
244.545	397.45
245.01	533.2
245.474	484.05
245.938	514.48
246.402	622.14
246.866	645.55
247.33	708.74
247.793	645.55
248.257	591.72
248.721	551.93
249.185	516.82
249.648	561.29
250.112	530.86
250.575	619.8
251.039	568.31
251.502	582.35
251.965	577.67
252.429	580.01
252.892	526.18
253.355	542.57
253.818	526.18
254.281	617.46
254.744	558.95
255.207	624.48
255.67	910.03
256.133	1289.2
256.596	1785.39
257.059	1792.41
257.522	1511.55
257.984	980.25
258.447	888.96
258.909	940.46
259.372	973.22
259.834	917.05
260.297	921.73
260.759	797.68
261.221	828.11
261.684	1027.06
262.146	1495.16
262.608	1904.76
263.07	1733.9
263.532	1174.51
263.994	860.88
264.456	851.52
264.918	921.73
265.38	998.97
265.842	823.43
266.303	788.32
266.765	572.99
267.227	584.7
267.688	514.48
268.15	470.01
268.611	493.41
269.072	544.91
269.534	612.78
269.995	535.54
270.456	601.08
270.918	570.65
271.379	568.31
271.84	551.93
272.301	549.59
272.762	544.91
273.223	493.41
273.684	533.2
274.144	615.12
274.605	654.91
275.066	713.42
275.527	678.32
275.987	704.06
276.448	734.49
276.908	736.83
277.369	952.16
277.829	1469.42
278.289	2913.53
278.75	5345.34
279.21	7049.25
279.67	7213.09
280.13	5464.71
280.59	3643.78
281.05	3058.64
281.51	2450.1
281.97	1637.94
282.43	903.01
282.89	643.21
283.35	659.59
283.809	631.51
284.269	755.55
284.729	959.18
285.188	917.05
285.648	748.53
286.107	664.27
286.567	556.61
287.026	626.82
287.485	615.12
287.944	558.95
288.404	502.78
288.863	612.78
289.322	582.35
289.781	594.06
290.24	622.14
290.699	654.91
291.158	673.64
291.616	619.8
292.075	757.89
292.534	795.34
292.992	938.12
293.451	961.52
293.91	947.48
294.368	778.96
294.827	666.61
295.285	568.31
295.743	500.44
296.202	437.24
296.66	493.41
297.118	479.37
297.576	462.99
298.034	486.39
298.492	425.54
298.95	448.94
299.408	427.88
299.866	495.75
300.324	498.1
300.781	523.84
301.239	465.33
301.697	453.63
302.154	470.01
302.612	479.37
303.069	460.65
303.527	472.35
303.984	580.01
304.441	554.27
304.899	652.57
305.356	764.92
305.813	715.77
306.27	895.99
306.727	1041.1
307.184	1623.89
307.641	2958
308.098	4385.73
308.555	5359.39
309.012	5492.8
309.468	4619.78
309.925	2290.95
310.382	973.22
310.838	640.87
311.295	594.06
311.751	462.99
312.208	467.67
312.664	530.86
313.12	509.8
313.577	491.07
314.033	458.31
314.489	479.37
314.945	523.84
315.401	575.33
315.857	500.44
316.313	498.1
316.769	399.79
317.225	338.94
317.681	397.45
318.136	388.09
318.592	404.47
319.048	434.9
319.503	441.92
319.959	411.5
320.414	360
320.869	376.39
321.325	420.86
321.78	362.34
322.235	352.98
322.691	383.41
323.146	516.82
323.601	540.22
324.056	631.51
324.511	921.73
324.966	867.9
325.421	718.11
325.875	547.25
326.33	486.39
326.785	617.46
327.24	781.3
327.694	837.47
328.149	720.45
328.603	526.18
329.058	488.73
329.512	481.71
329.966	486.39
330.421	479.37
330.875	413.84
331.329	451.28
331.783	467.67
332.237	493.41
332.691	507.46
333.145	446.6
333.599	526.18
334.053	549.59
334.507	565.97
334.96	563.63
335.414	533.2
335.868	629.17
336.321	659.59
336.775	734.49
337.228	657.25
337.682	615.12
338.135	451.28
338.588	462.99
339.042	453.63
339.495	446.6
339.948	505.12
340.401	423.2
340.854	369.37
341.307	514.48
341.76	374.05
342.213	465.33
342.666	357.66
343.119	444.26
343.571	493.41
344.024	474.69
344.477	411.5
344.929	479.37
345.382	453.63
345.834	434.9
346.287	509.8
346.739	455.97
347.191	432.56
347.644	402.13
348.096	481.71
348.548	406.81
349	448.94
349.452	549.59
349.904	446.6
350.356	425.54
350.808	439.58
351.26	460.65
351.711	477.03
352.163	486.39
352.615	551.93
353.066	558.95
353.518	563.63
353.969	502.78
354.421	530.86
354.872	540.22
355.324	505.12
355.775	493.41
356.226	650.23
356.677	795.34
357.128	1043.44
357.579	1438.99
358.03	2527.34
358.481	4142.31
358.932	4626.8
359.383	3501
359.834	2752.03
360.285	2787.14
360.735	2513.3
361.186	1972.63
361.637	1551.34
362.087	947.48
362.538	645.55
362.988	603.42
363.438	551.93
363.889	519.16
364.339	544.91
364.789	540.22
365.239	584.7
365.689	535.54
366.139	505.12
366.589	470.01
367.039	458.31
367.489	467.67
367.939	470.01
368.389	582.35
368.839	558.95
369.288	591.72
369.738	624.48
370.187	774.28
370.637	783.64
371.086	968.54
371.536	853.86
371.985	865.56
372.434	631.51
372.884	580.01
373.333	551.93
373.782	512.14
374.231	491.07
374.68	547.25
375.129	582.35
375.578	498.1
376.027	481.71
376.475	462.99
376.924	458.31
377.373	441.92
377.822	441.92
378.27	411.5
378.719	491.07
379.167	516.82
379.616	521.5
380.064	507.46
380.512	530.86
380.961	533.2
381.409	540.22
381.857	570.65
382.305	657.25
382.753	711.08
383.201	802.36
383.649	860.88
384.097	886.62
384.545	793
384.992	661.93
385.44	706.4
385.888	619.8
386.335	584.7
386.783	608.1
387.231	565.97
387.678	584.7
388.125	610.44
388.573	565.97
389.02	432.56
389.467	472.35
389.914	547.25
390.362	540.22
390.809	565.97
391.256	521.5
391.703	537.88
392.15	589.38
392.596	612.78
393.043	837.47
393.49	1216.64
393.937	2297.97
394.383	3625.05
394.83	4544.88
395.276	3669.52
395.723	3554.83
396.169	5354.71
396.616	5614.51
397.062	3393.34
397.508	1406.22
397.954	711.08
398.401	572.99
398.847	528.52
399.293	528.52
399.739	563.63
400.185	568.31
400.631	591.72
401.076	467.67
401.522	505.12
401.968	577.67
402.414	523.84
402.859	582.35
403.305	619.8
403.75	769.6
404.196	668.95
404.641	643.21
405.086	596.4
405.532	587.04
405.977	699.38
406.422	697.04
406.867	626.82
407.312	580.01
407.757	603.42
408.202	565.97
408.647	537.88
409.092	493.41
409.537	610.44
409.982	551.93
410.426	547.25
410.871	514.48
411.316	565.97
411.76	558.95
412.205	647.89
412.649	664.27
413.093	643.21
413.538	673.64
413.982	725.13
414.426	736.83
414.87	811.73
415.314	879.6
415.758	853.86
416.202	963.86
416.646	800.02
417.09	753.21
417.534	778.96
417.978	708.74
418.421	652.57
418.865	589.38
419.309	519.16
419.752	540.22
420.196	533.2
420.639	448.94
421.083	465.33
421.526	514.48
421.969	523.84
422.412	502.78
422.856	535.54
423.299	533.2
423.742	577.67
424.185	572.99
424.628	528.52
425.071	540.22
425.513	446.6
425.956	481.71
426.399	437.24
426.842	519.16
427.284	467.67
427.727	477.03
428.169	505.12
428.612	430.22
429.054	467.67
429.497	488.73
429.939	441.92
430.381	418.52
430.823	498.1
431.265	451.28
431.707	479.37
432.149	395.11
432.591	458.31
433.033	488.73
433.475	488.73
433.917	451.28
434.359	484.05
434.8	479.37
435.242	455.97
435.684	498.1
436.125	488.73
436.567	477.03
437.008	465.33
437.449	388.09
437.891	474.69
438.332	460.65
438.773	470.01
439.214	420.86
439.656	514.48
440.097	425.54
440.538	451.28
440.978	479.37
441.419	512.14
441.86	507.46
442.301	514.48
442.742	479.37
443.182	563.63
443.623	561.29
444.063	577.67
444.504	582.35
444.944	718.11
445.385	690.02
445.825	694.7
446.265	790.66
446.706	924.07
447.146	1062.16
447.586	1202.6
448.026	1673.04
448.466	1745.6
448.906	1539.63
449.346	1132.38
449.786	1062.16
450.225	917.05
450.665	945.14
451.105	1076.21
451.544	1434.31
451.984	1628.57
452.424	1495.16
452.863	1612.19
453.302	2005.4
453.742	2000.72
454.181	1453.03
454.62	931.09
455.059	704.06
455.499	563.63
455.938	542.57
456.377	488.73
456.816	500.44
457.254	451.28
457.693	413.84
458.132	479.37
458.571	479.37
459.01	434.9
459.448	404.47
459.887	446.6
460.325	516.82
460.764	558.95
461.202	561.29
461.641	479.37
462.079	528.52
462.517	516.82
462.955	523.84
463.393	591.72
463.832	572.99
464.27	565.97
464.708	558.95
465.145	601.08
465.583	549.59
466.021	591.72
466.459	753.21
466.897	973.22
467.334	928.75
467.772	622.14
468.209	498.1
468.647	453.63
469.084	526.18
469.522	549.59
469.959	481.71
470.396	484.05
470.833	491.07
471.271	498.1
471.708	458.31
472.145	477.03
472.582	495.75
473.019	453.63
473.456	460.65
473.892	437.24
474.329	484.05
474.766	451.28
475.202	458.31
475.639	502.78
476.076	406.81
476.512	434.9
476.949	479.37
477.385	413.84
477.821	458.31
478.258	528.52
478.694	519.16
479.13	502.78
479.566	451.28
480.002	521.5
480.438	458.31
480.874	519.16
481.31	462.99
481.746	540.22
482.181	467.67
482.617	502.78
483.053	486.39
483.488	472.35
483.924	477.03
484.36	470.01
484.795	547.25
485.23	619.8
485.666	603.42
486.101	652.57
486.536	643.21
486.971	678.32
487.407	605.76
487.842	594.06
488.277	519.16
488.712	509.8
489.146	519.16
489.581	495.75
490.016	453.63
490.451	500.44
490.885	514.48
491.32	481.71
491.755	446.6
492.189	533.2
492.624	472.35
493.058	540.22
493.492	481.71
493.927	533.2
494.361	423.2
494.795	448.94
495.229	444.26
495.663	448.94
496.097	484.05
496.531	460.65
496.965	470.01
497.399	402.13
497.833	441.92
498.266	448.94
498.7	544.91
499.134	568.31
499.567	685.34
500.001	666.61
500.434	825.77
500.868	975.56
501.301	973.22
501.734	741.51
502.168	657.25
502.601	526.18
503.034	484.05
503.467	427.88
503.9	465.33
504.333	521.5
504.766	540.22
505.199	589.38
505.632	434.9
506.064	491.07
506.497	523.84
506.93	519.16
507.362	479.37
507.795	467.67
508.227	411.5
508.66	502.78
509.092	458.31
509.524	544.91
509.956	465.33
510.389	507.46
510.821	495.75
511.253	563.63
511.685	591.72
512.117	477.03
512.549	512.14
512.981	530.86
513.412	512.14
513.844	554.27
514.276	526.18
514.707	575.33
515.139	514.48
515.571	589.38
516.002	591.72
516.433	601.08
516.865	594.06
517.296	647.89
517.727	699.38
518.159	764.92
518.59	797.68
519.021	776.62
519.452	675.98
519.883	580.01
520.314	542.57
520.744	587.04
521.175	563.63
521.606	572.99
522.037	596.4
522.467	587.04
522.898	584.7
523.328	596.4
523.759	530.86
524.189	608.1
524.62	589.38
525.05	533.2
525.48	547.25
525.91	561.29
526.341	624.48
526.771	638.53
527.201	643.21
527.631	701.72
528.061	741.51
528.49	893.65
528.92	961.52
529.35	1244.73
529.78	2688.84
530.209	13235.29
530.639	32486.2
531.068	48654.62
531.498	63023.17
531.927	63023.17
532.357	63023.17
532.786	63023.17
533.215	63023.17
533.644	34047.33
534.074	11997.15
534.503	4919.37
534.932	2328.39
535.361	1499.84
535.79	1043.44
536.218	874.92
536.647	706.4
537.076	631.51
537.505	601.08
537.933	514.48
538.362	547.25
538.79	542.57
539.219	500.44
539.647	535.54
540.076	479.37
540.504	495.75
540.932	502.78
541.36	509.8
541.788	474.69
542.217	460.65
542.645	446.6
543.073	430.22
543.5	500.44
543.928	416.18
544.356	441.92
544.784	481.71
545.211	432.56
545.639	486.39
546.067	406.81
546.494	451.28
546.922	434.9
547.349	362.34
547.776	460.65
548.204	430.22
548.631	409.15
549.058	481.71
549.485	383.41
549.912	371.71
550.339	418.52
550.766	462.99
551.193	481.71
551.62	418.52
552.047	439.58
552.474	444.26
552.9	425.54
553.327	439.58
553.754	495.75
554.18	498.1
554.607	434.9
555.033	439.58
555.459	413.84
555.886	357.66
556.312	446.6
556.738	448.94
557.164	441.92
557.59	437.24
558.016	460.65
558.442	416.18
558.868	507.46
559.294	554.27
559.72	654.91
560.145	746.19
560.571	636.19
560.997	526.18
561.422	530.86
561.848	470.01
562.273	345.96
562.699	432.56
563.124	465.33
563.549	397.45
563.974	409.15
564.4	423.2
564.825	460.65
565.25	425.54
565.675	416.18
566.1	392.77
566.525	507.46
566.95	488.73
567.374	551.93
567.799	622.14
568.224	643.21
568.648	704.06
569.073	793
569.497	793
569.922	1151.1
570.346	1722.2
570.771	1462.4
571.195	982.59
571.619	729.81
572.043	699.38
572.467	755.55
572.891	1008.33
573.315	914.71
573.739	699.38
574.163	500.44
574.587	430.22
575.011	453.63
575.435	411.5
575.858	416.18
576.282	444.26
576.705	423.2
577.129	397.45
577.552	409.15
577.976	317.87
578.399	374.05
578.822	441.92
579.245	439.58
579.669	360
580.092	418.52
580.515	357.66
580.938	357.66
581.361	352.98
581.784	285.11
582.206	388.09
582.629	357.66
583.052	441.92
583.474	392.77
583.897	397.45
584.32	355.32
584.742	381.07
585.165	381.07
585.587	413.84
586.009	374.05
586.431	385.75
586.854	336.6
587.276	392.77
587.698	399.79
588.12	409.15
588.542	404.47
588.964	371.71
589.386	390.43
589.807	402.13
590.229	397.45
590.651	395.11
591.073	378.73
591.494	378.73
591.916	409.15
592.337	369.37
592.759	381.07
593.18	378.73
593.601	411.5
594.022	434.9
594.444	411.5
594.865	448.94
595.286	500.44
595.707	399.79
596.128	374.05
596.549	338.94
596.97	465.33
597.39	397.45
597.811	374.05
598.232	413.84
598.652	357.66
599.073	402.13
599.494	411.5
599.914	381.07
600.334	381.07
600.755	348.3
601.175	399.79
601.595	357.66
602.015	364.68
602.436	317.87
602.856	484.05
603.276	411.5
603.696	437.24
604.115	348.3
604.535	404.47
604.955	331.92
605.375	367.03
605.794	331.92
606.214	441.92
606.634	381.07
607.053	364.68
607.473	399.79
607.892	369.37
608.311	338.94
608.731	355.32
609.15	409.15
609.569	388.09
609.988	402.13
610.407	385.75
610.826	381.07
611.245	402.13
611.664	416.18
612.083	418.52
612.501	404.47
612.92	322.56
613.339	427.88
613.757	374.05
614.176	402.13
614.594	329.58
615.013	341.28
615.431	378.73
615.85	371.71
616.268	390.43
616.686	465.33
617.104	402.13
617.522	448.94
617.94	425.54
618.358	383.41
618.776	406.81
619.194	441.92
619.612	409.15
620.03	411.5
620.447	413.84
620.865	434.9
621.282	395.11
621.7	467.67
622.117	413.84
622.535	470.01
622.952	580.01
623.369	596.4
623.787	755.55
624.204	933.43
624.621	905.35
625.038	942.8
625.455	1001.31
625.872	757.89
626.289	622.14
626.706	491.07
627.123	458.31
627.539	441.92
627.956	437.24
628.373	369.37
628.789	406.81
629.206	427.88
629.622	348.3
630.038	364.68
630.455	355.32
630.871	336.6
631.287	341.28
631.703	367.03
632.12	348.3
632.536	362.34
632.952	278.08
633.368	313.19
633.783	404.47
634.199	395.11
634.615	341.28
635.031	341.28
635.446	383.41
635.862	399.79
636.277	413.84
636.693	350.64
637.108	411.5
637.524	371.71
637.939	360
638.354	282.77
638.77	331.92
639.185	381.07
639.6	360
640.015	411.5
640.43	306.17
640.845	345.96
641.259	299.15
641.674	327.24
642.089	306.17
642.504	388.09
642.918	334.26
643.333	437.24
643.747	357.66
644.162	369.37
644.576	289.79
644.991	374.05
645.405	397.45
645.819	371.71
646.233	369.37
646.647	278.08
647.061	338.94
647.475	327.24
647.889	402.13
648.303	430.22
648.717	397.45
649.131	362.34
649.545	385.75
649.958	418.52
650.372	395.11
650.785	360
651.199	388.09
651.612	371.71
652.026	303.83
652.439	367.03
652.852	378.73
653.266	345.96
653.679	369.37
654.092	411.5
654.505	451.28
654.918	416.18
655.331	446.6
655.744	533.2
656.156	643.21
656.569	849.18
656.982	977.91
657.394	888.96
657.807	699.38
658.22	528.52
658.632	514.48
659.044	439.58
659.457	362.34
659.869	350.64
660.281	420.86
660.693	352.98
661.106	404.47
661.518	425.54
661.93	317.87
662.342	352.98
662.754	341.28
663.165	381.07
663.577	364.68
663.989	367.03
664.401	378.73
664.812	355.32
665.224	374.05
665.635	367.03
666.047	381.07
666.458	313.19
666.869	329.58
667.281	348.3
667.692	376.39
668.103	360
668.514	364.68
668.925	371.71
669.336	385.75
669.747	385.75
670.158	350.64
670.569	371.71
670.979	303.83
671.39	390.43
671.801	357.66
672.211	397.45
672.622	341.28
673.032	360
673.443	402.13
673.853	348.3
674.263	308.51
674.674	406.81
675.084	406.81
675.494	296.81
675.904	329.58
676.314	334.26
676.724	350.64
677.134	350.64
677.544	308.51
677.953	362.34
678.363	313.19
678.773	392.77
679.182	317.87
679.592	352.98
680.001	350.64
680.411	289.79
680.82	324.9
681.23	329.58
681.639	327.24
682.048	369.37
682.457	381.07
682.866	378.73
683.275	418.52
683.684	409.15
684.093	406.81
684.502	388.09
684.911	378.73
685.32	327.24
685.728	345.96
686.137	313.19
686.546	397.45
686.954	299.15
687.363	273.4
687.771	357.66
688.179	257.02
688.588	374.05
688.996	409.15
689.404	338.94
689.812	292.13
690.22	369.37
690.628	329.58
691.036	308.51
691.444	381.07
691.852	334.26
692.26	317.87
692.667	338.94
693.075	320.21
693.483	392.77
693.89	364.68
694.298	315.53
694.705	287.45
695.112	357.66
695.52	324.9
695.927	310.85
696.334	303.83
696.741	294.47
697.148	315.53
697.555	327.24
697.962	296.81
698.369	313.19
698.776	317.87
699.183	355.32
699.59	376.39
699.996	355.32
700.403	289.79
700.81	306.17
701.216	320.21
701.623	352.98
702.029	287.45
702.435	385.75
702.842	345.96
703.248	399.79
703.654	388.09
704.06	448.94
704.466	582.35
704.872	540.22
705.278	491.07
705.684	430.22
706.09	521.5
706.496	493.41
706.901	458.31
707.307	392.77
707.712	357.66
708.118	360
708.523	350.64
708.929	301.49
709.334	292.13
709.74	296.81
710.145	308.51
710.55	275.74
710.955	367.03
711.36	385.75
711.765	350.64
712.17	348.3
712.575	350.64
712.98	788.32
713.385	287.45
713.789	289.79
714.194	362.34
714.599	383.41
715.003	292.13
715.408	336.6
715.812	357.66
716.217	360
716.621	315.53
717.025	296.81
717.429	278.08
717.833	329.58
718.238	313.19
718.642	336.6
719.046	317.87
719.449	266.38
719.853	343.62
720.257	336.6
720.661	301.49
721.065	338.94
721.468	294.47
721.872	331.92
722.275	343.62
722.679	259.36
723.082	371.71
723.485	257.02
723.889	289.79
724.292	341.28
724.695	271.06
725.098	313.19
725.501	322.56
725.904	334.26
726.307	374.05
726.71	296.81
727.113	299.15
727.516	331.92
727.918	336.6
728.321	310.85
728.724	303.83
729.126	273.4
729.529	378.73
729.931	334.26
730.333	343.62
730.736	360
731.138	296.81
731.54	327.24
731.942	364.68
732.344	280.43
732.746	294.47
733.148	345.96
733.55	371.71
733.952	324.9
734.354	310.85
734.756	266.38
735.157	278.08
735.559	299.15
735.96	350.64
736.362	324.9
736.763	294.47
737.165	299.15
737.566	264.04
737.967	289.79
738.368	238.3
738.77	317.87
739.171	352.98
739.572	310.85
739.973	301.49
740.374	294.47
740.774	324.9
741.175	341.28
741.576	334.26
741.977	329.58
742.377	313.19
742.778	364.68
743.178	364.68
743.579	420.86
743.979	338.94
744.379	402.13
744.78	395.11
745.18	310.85
745.58	390.43
745.98	352.98
746.38	324.9
746.78	343.62
747.18	371.71
747.58	383.41
747.98	350.64
748.38	416.18
748.779	336.6
749.179	345.96
749.578	352.98
749.978	294.47
750.377	317.87
750.777	287.45
751.176	329.58
751.575	313.19
751.975	214.89
752.374	324.9
752.773	271.06
753.172	273.4
753.571	402.13
753.97	320.21
754.369	266.38
754.768	381.07
755.166	324.9
755.565	292.13
755.964	282.77
756.362	331.92
756.761	317.87
757.159	364.68
757.558	329.58
757.956	334.26
758.354	345.96
758.753	259.36
759.151	348.3
759.549	338.94
759.947	313.19
760.345	259.36
760.743	313.19
761.141	306.17
761.539	278.08
761.936	299.15
762.334	303.83
762.732	327.24
763.129	303.83
763.527	341.28
