Data from Al_FLMS009871__1055__16-25-17-313.txt Node

Date: Fri Mar 08 16:25:17 CST 2024
User: pe5414po
Spectrometer: FLMS00987
Trigger mode: 0
Integration Time (sec): 1.000000E-1
Scans to average: 1
Electric dark correction enabled: true
Nonlinearity correction enabled: false
Boxcar width: 0
XAxis mode: Wavelengths
Number of Pixels in Spectrum: 2048
>>>>>Begin Spectral Data<<<<<
188.938	-76.8
189.409	-76.8
189.879	-76.8
190.349	-125.95
190.819	-41.69
191.29	-165.74
191.76	-90.84
192.23	-83.82
192.7	-74.46
193.17	-55.73
193.64	-32.33
194.109	28.53
194.579	-48.71
195.049	-11.26
195.519	21.5
195.988	28.53
196.458	105.76
196.927	119.81
197.397	96.4
197.866	70.65
198.336	91.72
198.805	229.81
199.274	166.62
199.744	131.51
200.213	145.55
200.682	138.53
201.151	159.6
201.62	208.75
202.089	218.11
202.558	206.41
203.027	232.15
203.495	269.6
203.964	309.39
204.433	276.62
204.902	283.64
205.37	307.05
205.839	260.24
206.307	208.75
206.776	309.39
207.244	356.2
207.712	307.05
208.181	330.45
208.649	220.45
209.117	293.01
209.585	316.41
210.053	274.28
210.521	276.62
210.989	248.54
211.457	285.98
211.925	293.01
212.393	225.13
212.861	323.43
213.328	187.68
213.796	243.85
214.264	276.62
214.731	278.96
215.199	225.13
215.666	302.37
216.133	260.24
216.601	248.54
217.068	208.75
217.535	236.83
218.003	215.77
218.47	297.69
218.937	234.49
219.404	300.03
219.871	253.22
220.338	227.47
220.805	264.92
221.271	316.41
221.738	255.56
222.205	227.47
222.671	234.49
223.138	285.98
223.605	222.79
224.071	248.54
224.538	257.9
225.004	274.28
225.47	314.07
225.937	274.28
226.403	285.98
226.869	225.13
227.335	370.24
227.801	243.85
228.267	234.49
228.733	281.3
229.199	278.96
229.665	211.09
230.131	246.2
230.597	269.6
231.062	288.32
231.528	246.2
231.994	285.98
232.459	248.54
232.925	227.47
233.39	227.47
233.856	300.03
234.321	243.85
234.786	248.54
235.252	206.41
235.717	323.43
236.182	246.2
236.647	246.2
237.112	234.49
237.577	227.47
238.042	243.85
238.507	285.98
238.972	253.22
239.436	283.64
239.901	309.39
240.366	232.15
240.83	248.54
241.295	260.24
241.76	267.26
242.224	232.15
242.688	260.24
243.153	257.9
243.617	227.47
244.081	300.03
244.545	260.24
245.01	302.37
245.474	257.9
245.938	318.75
246.402	246.2
246.866	250.88
247.33	253.22
247.793	229.81
248.257	222.79
248.721	168.96
249.185	260.24
249.648	241.51
250.112	253.22
250.575	199.38
251.039	283.64
251.502	255.56
251.965	278.96
252.429	222.79
252.892	304.71
253.355	304.71
253.818	206.41
254.281	264.92
254.744	335.14
255.207	267.26
255.67	234.49
256.133	255.56
256.596	276.62
257.059	307.05
257.522	257.9
257.984	255.56
258.447	276.62
258.909	276.62
259.372	316.41
259.834	323.43
260.297	257.9
260.759	187.68
261.221	290.67
261.684	297.69
262.146	281.3
262.608	309.39
263.07	236.83
263.532	325.77
263.994	264.92
264.456	246.2
264.918	278.96
265.38	318.75
265.842	288.32
266.303	281.3
266.765	295.35
267.227	255.56
267.688	236.83
268.15	255.56
268.611	316.41
269.072	295.35
269.534	253.22
269.995	229.81
270.456	276.62
270.918	255.56
271.379	281.3
271.84	260.24
272.301	285.98
272.762	323.43
273.223	243.85
273.684	293.01
274.144	260.24
274.605	173.64
275.066	229.81
275.527	278.96
275.987	262.58
276.448	293.01
276.908	290.67
277.369	318.75
277.829	278.96
278.289	293.01
278.75	253.22
279.21	311.73
279.67	335.14
280.13	335.14
280.59	342.16
281.05	325.77
281.51	262.58
281.97	307.05
282.43	293.01
282.89	300.03
283.35	264.92
283.809	246.2
284.269	325.77
284.729	290.67
285.188	311.73
285.648	351.52
286.107	243.85
286.567	236.83
287.026	349.18
287.485	248.54
287.944	290.67
288.404	307.05
288.863	276.62
289.322	281.3
289.781	300.03
290.24	311.73
290.699	255.56
291.158	257.9
291.616	311.73
292.075	232.15
292.534	253.22
292.992	276.62
293.451	262.58
293.91	276.62
294.368	330.45
294.827	278.96
295.285	285.98
295.743	232.15
296.202	276.62
296.66	267.26
297.118	293.01
297.576	290.67
298.034	241.51
298.492	243.85
298.95	257.9
299.408	285.98
299.866	283.64
300.324	246.2
300.781	335.14
301.239	309.39
301.697	342.16
302.154	337.48
302.612	271.94
303.069	293.01
303.527	302.37
303.984	365.56
304.441	180.66
304.899	236.83
305.356	211.09
305.813	243.85
306.27	250.88
306.727	220.45
307.184	309.39
307.641	290.67
308.098	335.14
308.555	269.6
309.012	309.39
309.468	325.77
309.925	269.6
310.382	264.92
310.838	316.41
311.295	278.96
311.751	311.73
312.208	293.01
312.664	239.17
313.12	293.01
313.577	353.86
314.033	314.07
314.489	370.24
314.945	267.26
315.401	318.75
315.857	325.77
316.313	253.22
316.769	257.9
317.225	295.35
317.681	274.28
318.136	316.41
318.592	274.28
319.048	323.43
319.503	257.9
319.959	285.98
320.414	363.22
320.869	267.26
321.325	332.79
321.78	267.26
322.235	309.39
322.691	250.88
323.146	323.43
323.601	281.3
324.056	304.71
324.511	293.01
324.966	278.96
325.421	271.94
325.875	204.07
326.33	337.48
326.785	300.03
327.24	288.32
327.694	232.15
328.149	307.05
328.603	283.64
329.058	311.73
329.512	288.32
329.966	274.28
330.421	316.41
330.875	323.43
331.329	239.17
331.783	288.32
332.237	300.03
332.691	232.15
333.145	192.36
333.599	257.9
334.053	344.5
334.507	330.45
334.96	349.18
335.414	328.11
335.868	253.22
336.321	264.92
336.775	267.26
337.228	276.62
337.682	293.01
338.135	293.01
338.588	318.75
339.042	290.67
339.495	314.07
339.948	342.16
340.401	300.03
340.854	307.05
341.307	218.11
341.76	276.62
342.213	281.3
342.666	260.24
343.119	297.69
343.571	318.75
344.024	388.97
344.477	358.54
344.929	339.82
345.382	311.73
345.834	307.05
346.287	276.62
346.739	318.75
347.191	318.75
347.644	314.07
348.096	321.09
348.548	337.48
349	288.32
349.452	227.47
349.904	262.58
350.356	276.62
350.808	316.41
351.26	311.73
351.711	328.11
352.163	255.56
352.615	281.3
353.066	372.58
353.518	267.26
353.969	316.41
354.421	300.03
354.872	353.86
355.324	274.28
355.775	309.39
356.226	293.01
356.677	335.14
357.128	321.09
357.579	276.62
358.03	260.24
358.481	323.43
358.932	241.51
359.383	304.71
359.834	295.35
360.285	344.5
360.735	271.94
361.186	335.14
361.637	234.49
362.087	281.3
362.538	325.77
362.988	321.09
363.438	311.73
363.889	311.73
364.339	330.45
364.789	307.05
365.239	328.11
365.689	248.54
366.139	328.11
366.589	374.92
367.039	344.5
367.489	349.18
367.939	314.07
368.389	218.11
368.839	325.77
369.288	307.05
369.738	304.71
370.187	220.45
370.637	281.3
371.086	307.05
371.536	218.11
371.985	267.26
372.434	285.98
372.884	297.69
373.333	278.96
373.782	262.58
374.231	323.43
374.68	328.11
375.129	372.58
375.578	283.64
376.027	283.64
376.475	276.62
376.924	297.69
377.373	307.05
377.822	309.39
378.27	262.58
378.719	281.3
379.167	335.14
379.616	358.54
380.064	278.96
380.512	311.73
380.961	344.5
381.409	283.64
381.857	328.11
382.305	381.95
382.753	328.11
383.201	241.51
383.649	300.03
384.097	325.77
384.545	349.18
384.992	293.01
385.44	358.54
385.888	232.15
386.335	316.41
386.783	309.39
387.231	281.3
387.678	309.39
388.125	311.73
388.573	321.09
389.02	236.83
389.467	288.32
389.914	283.64
390.362	253.22
390.809	215.77
391.256	290.67
391.703	316.41
392.15	314.07
392.596	335.14
393.043	246.2
393.49	302.37
393.937	283.64
394.383	281.3
394.83	241.51
395.276	328.11
395.723	253.22
396.169	262.58
396.616	307.05
397.062	358.54
397.508	339.82
397.954	288.32
398.401	316.41
398.847	316.41
399.293	337.48
399.739	295.35
400.185	316.41
400.631	377.27
401.076	278.96
401.522	330.45
401.968	290.67
402.414	339.82
402.859	290.67
403.305	330.45
403.75	318.75
404.196	335.14
404.641	318.75
405.086	278.96
405.532	323.43
405.977	358.54
406.422	330.45
406.867	353.86
407.312	335.14
407.757	398.33
408.202	300.03
408.647	374.92
409.092	311.73
409.537	297.69
409.982	314.07
410.426	307.05
410.871	288.32
411.316	262.58
411.76	335.14
412.205	290.67
412.649	269.6
413.093	278.96
413.538	316.41
413.982	311.73
414.426	353.86
414.87	255.56
415.314	363.22
415.758	250.88
416.202	271.94
416.646	250.88
417.09	234.49
417.534	293.01
417.978	330.45
418.421	311.73
418.865	311.73
419.309	367.9
419.752	328.11
420.196	300.03
420.639	295.35
421.083	253.22
421.526	342.16
421.969	293.01
422.412	330.45
422.856	285.98
423.299	274.28
423.742	290.67
424.185	323.43
424.628	281.3
425.071	374.92
425.513	239.17
425.956	278.96
426.399	285.98
426.842	311.73
427.284	260.24
427.727	337.48
428.169	335.14
428.612	323.43
429.054	314.07
429.497	269.6
429.939	288.32
430.381	293.01
430.823	267.26
431.265	271.94
431.707	236.83
432.149	335.14
432.591	248.54
433.033	314.07
433.475	288.32
433.917	304.71
434.359	307.05
434.8	295.35
435.242	323.43
435.684	274.28
436.125	328.11
436.567	321.09
437.008	323.43
437.449	309.39
437.891	309.39
438.332	297.69
438.773	253.22
439.214	304.71
439.656	297.69
440.097	395.99
440.538	250.88
440.978	274.28
441.419	267.26
441.86	353.86
442.301	309.39
442.742	311.73
443.182	351.52
443.623	332.79
444.063	316.41
444.504	307.05
444.944	267.26
445.385	328.11
445.825	318.75
446.265	293.01
446.706	311.73
447.146	285.98
447.586	353.86
448.026	297.69
448.466	295.35
448.906	290.67
449.346	267.26
449.786	372.58
450.225	269.6
450.665	309.39
451.105	321.09
451.544	323.43
451.984	278.96
452.424	311.73
452.863	381.95
453.302	309.39
453.742	271.94
454.181	250.88
454.62	304.71
455.059	311.73
455.499	367.9
455.938	311.73
456.377	344.5
456.816	318.75
457.254	281.3
457.693	318.75
458.132	323.43
458.571	255.56
459.01	316.41
459.448	344.5
459.887	311.73
460.325	318.75
460.764	309.39
461.202	297.69
461.641	283.64
462.079	304.71
462.517	288.32
462.955	264.92
463.393	288.32
463.832	342.16
464.27	243.85
464.708	307.05
465.145	309.39
465.583	293.01
466.021	225.13
466.459	307.05
466.897	325.77
467.334	321.09
467.772	271.94
468.209	344.5
468.647	349.18
469.084	335.14
469.522	370.24
469.959	367.9
470.396	227.47
470.833	337.48
471.271	269.6
471.708	309.39
472.145	342.16
472.582	285.98
473.019	316.41
473.456	288.32
473.892	307.05
474.329	304.71
474.766	365.56
475.202	307.05
475.639	358.54
476.076	330.45
476.512	356.2
476.949	307.05
477.385	293.01
477.821	257.9
478.258	285.98
478.694	330.45
479.13	307.05
479.566	379.61
480.002	262.58
480.438	328.11
480.874	328.11
481.31	363.22
481.746	300.03
482.181	316.41
482.617	339.82
483.053	353.86
483.488	325.77
483.924	307.05
484.36	339.82
484.795	276.62
485.23	302.37
485.666	278.96
486.101	255.56
486.536	300.03
486.971	332.79
487.407	346.84
487.842	307.05
488.277	323.43
488.712	288.32
489.146	276.62
489.581	353.86
490.016	330.45
490.451	300.03
490.885	311.73
491.32	314.07
491.755	255.56
492.189	300.03
492.624	330.45
493.058	285.98
493.492	253.22
493.927	300.03
494.361	288.32
494.795	328.11
495.229	318.75
495.663	293.01
496.097	297.69
496.531	297.69
496.965	316.41
497.399	293.01
497.833	285.98
498.266	321.09
498.7	269.6
499.134	288.32
499.567	243.85
500.001	337.48
500.434	374.92
500.868	311.73
501.301	260.24
501.734	307.05
502.168	293.01
502.601	321.09
503.034	342.16
503.467	250.88
503.9	307.05
504.333	304.71
504.766	314.07
505.199	225.13
505.632	293.01
506.064	283.64
506.497	225.13
506.93	309.39
507.362	260.24
507.795	253.22
508.227	318.75
508.66	278.96
509.092	363.22
509.524	358.54
509.956	405.35
510.389	278.96
510.821	302.37
511.253	274.28
511.685	314.07
512.117	300.03
512.549	260.24
512.981	328.11
513.412	290.67
513.844	267.26
514.276	250.88
514.707	321.09
515.139	255.56
515.571	339.82
516.002	295.35
516.433	288.32
516.865	356.2
517.296	304.71
517.727	295.35
518.159	276.62
518.59	358.54
519.021	232.15
519.452	243.85
519.883	304.71
520.314	248.54
520.744	332.79
521.175	250.88
521.606	325.77
522.037	346.84
522.467	318.75
522.898	267.26
523.328	297.69
523.759	293.01
524.189	232.15
524.62	208.75
525.05	290.67
525.48	255.56
525.91	318.75
526.341	307.05
526.771	342.16
527.201	344.5
527.631	290.67
528.061	311.73
528.49	269.6
528.92	271.94
529.35	330.45
529.78	344.5
530.209	309.39
530.639	269.6
531.068	297.69
531.498	281.3
531.927	311.73
532.357	288.32
532.786	246.2
533.215	307.05
533.644	372.58
534.074	243.85
534.503	250.88
534.932	290.67
535.361	316.41
535.79	311.73
536.218	246.2
536.647	330.45
537.076	293.01
537.505	330.45
537.933	229.81
538.362	304.71
538.79	304.71
539.219	295.35
539.647	267.26
540.076	290.67
540.504	342.16
540.932	342.16
541.36	318.75
541.788	295.35
542.217	344.5
542.645	337.48
543.073	332.79
543.5	353.86
543.928	342.16
544.356	293.01
544.784	302.37
545.211	318.75
545.639	325.77
546.067	328.11
546.494	304.71
546.922	304.71
547.349	311.73
547.776	367.9
548.204	293.01
548.631	248.54
549.058	360.88
549.485	243.85
549.912	304.71
550.339	342.16
550.766	295.35
551.193	323.43
551.62	297.69
552.047	285.98
552.474	285.98
552.9	360.88
553.327	300.03
553.754	274.28
554.18	290.67
554.607	271.94
555.033	328.11
555.459	288.32
555.886	281.3
556.312	269.6
556.738	353.86
557.164	255.56
557.59	311.73
558.016	255.56
558.442	330.45
558.868	325.77
559.294	323.43
559.72	323.43
560.145	309.39
560.571	407.69
560.997	222.79
561.422	304.71
561.848	379.61
562.273	297.69
562.699	290.67
563.124	293.01
563.549	346.84
563.974	248.54
564.4	316.41
564.825	330.45
565.25	276.62
565.675	339.82
566.1	295.35
566.525	307.05
566.95	281.3
567.374	309.39
567.799	314.07
568.224	309.39
568.648	302.37
569.073	283.64
569.497	339.82
569.922	295.35
570.346	335.14
570.771	300.03
571.195	323.43
571.619	314.07
572.043	290.67
572.467	311.73
572.891	321.09
573.315	328.11
573.739	281.3
574.163	316.41
574.587	295.35
575.011	253.22
575.435	274.28
575.858	288.32
576.282	344.5
576.705	337.48
577.129	278.96
577.552	257.9
577.976	250.88
578.399	349.18
578.822	269.6
579.245	227.47
579.669	281.3
580.092	278.96
580.515	248.54
580.938	307.05
581.361	332.79
581.784	311.73
582.206	321.09
582.629	267.26
583.052	269.6
583.474	290.67
583.897	300.03
584.32	267.26
584.742	290.67
585.165	353.86
585.587	349.18
586.009	288.32
586.431	323.43
586.854	297.69
587.276	274.28
587.698	271.94
588.12	363.22
588.542	290.67
588.964	344.5
589.386	295.35
589.807	293.01
590.229	330.45
590.651	307.05
591.073	302.37
591.494	281.3
591.916	276.62
592.337	337.48
592.759	353.86
593.18	328.11
593.601	222.79
594.022	285.98
594.444	283.64
594.865	349.18
595.286	367.9
595.707	232.15
596.128	318.75
596.549	234.49
596.97	300.03
597.39	342.16
597.811	316.41
598.232	311.73
598.652	307.05
599.073	353.86
599.494	300.03
599.914	278.96
600.334	285.98
600.755	307.05
601.175	297.69
601.595	325.77
602.015	274.28
602.436	300.03
602.856	367.9
603.276	391.31
603.696	278.96
604.115	318.75
604.535	330.45
604.955	337.48
605.375	288.32
605.794	269.6
606.214	311.73
606.634	243.85
607.053	255.56
607.473	175.98
607.892	269.6
608.311	323.43
608.731	297.69
609.15	285.98
609.569	335.14
609.988	283.64
610.407	323.43
610.826	288.32
611.245	290.67
611.664	414.71
612.083	281.3
612.501	281.3
612.92	293.01
613.339	363.22
613.757	215.77
614.176	283.64
614.594	264.92
615.013	281.3
615.431	260.24
615.85	274.28
616.268	337.48
616.686	309.39
617.104	274.28
617.522	302.37
617.94	248.54
618.358	307.05
618.776	316.41
619.194	309.39
619.612	285.98
620.03	220.45
620.447	260.24
620.865	274.28
621.282	246.2
621.7	323.43
622.117	314.07
622.535	293.01
622.952	295.35
623.369	332.79
623.787	300.03
624.204	276.62
624.621	290.67
625.038	342.16
625.455	295.35
625.872	339.82
626.289	314.07
626.706	278.96
627.123	234.49
627.539	281.3
627.956	318.75
628.373	271.94
628.789	325.77
629.206	250.88
629.622	302.37
630.038	283.64
630.455	339.82
630.871	344.5
631.287	246.2
631.703	276.62
632.12	360.88
632.536	295.35
632.952	260.24
633.368	314.07
633.783	300.03
634.199	328.11
634.615	257.9
635.031	335.14
635.446	267.26
635.862	278.96
636.277	288.32
636.693	290.67
637.108	321.09
637.524	351.52
637.939	339.82
638.354	330.45
638.77	297.69
639.185	300.03
639.6	328.11
640.015	318.75
640.43	248.54
640.845	302.37
641.259	344.5
641.674	311.73
642.089	307.05
642.504	351.52
642.918	290.67
643.333	330.45
643.747	276.62
644.162	283.64
644.576	318.75
644.991	260.24
645.405	304.71
645.819	318.75
646.233	300.03
646.647	307.05
647.061	288.32
647.475	360.88
647.889	288.32
648.303	307.05
648.717	316.41
649.131	293.01
649.545	300.03
649.958	307.05
650.372	293.01
650.785	283.64
651.199	271.94
651.612	260.24
652.026	363.22
652.439	262.58
652.852	248.54
653.266	335.14
653.679	353.86
654.092	278.96
654.505	349.18
654.918	248.54
655.331	199.38
655.744	278.96
656.156	321.09
656.569	206.41
656.982	285.98
657.394	304.71
657.807	344.5
658.22	365.56
658.632	264.92
659.044	332.79
659.457	257.9
659.869	344.5
660.281	405.35
660.693	337.48
661.106	290.67
661.518	285.98
661.93	278.96
662.342	285.98
662.754	321.09
663.165	381.95
663.577	346.84
663.989	316.41
664.401	365.56
664.812	346.84
665.224	386.63
665.635	297.69
666.047	335.14
666.458	302.37
666.869	321.09
667.281	309.39
667.692	293.01
668.103	269.6
668.514	253.22
668.925	309.39
669.336	349.18
669.747	243.85
670.158	311.73
670.569	349.18
670.979	255.56
671.39	309.39
671.801	386.63
672.211	314.07
672.622	271.94
673.032	271.94
673.443	264.92
673.853	323.43
674.263	318.75
674.674	283.64
675.084	311.73
675.494	239.17
675.904	309.39
676.314	302.37
676.724	304.71
677.134	300.03
677.544	323.43
677.953	344.5
678.363	337.48
678.773	407.69
679.182	288.32
679.592	285.98
680.001	353.86
680.411	260.24
680.82	314.07
681.23	302.37
681.639	323.43
682.048	278.96
682.457	330.45
682.866	309.39
683.275	220.45
683.684	285.98
684.093	264.92
684.502	300.03
684.911	316.41
685.32	314.07
685.728	388.97
686.137	285.98
686.546	321.09
686.954	269.6
687.363	295.35
687.771	304.71
688.179	285.98
688.588	356.2
688.996	335.14
689.404	332.79
689.812	342.16
690.22	243.85
690.628	288.32
691.036	316.41
691.444	332.79
691.852	309.39
692.26	335.14
692.667	321.09
693.075	278.96
693.483	290.67
693.89	288.32
694.298	293.01
694.705	290.67
695.112	335.14
695.52	274.28
695.927	316.41
696.334	332.79
696.741	311.73
697.148	307.05
697.555	328.11
697.962	250.88
698.369	304.71
698.776	365.56
699.183	330.45
699.59	260.24
699.996	250.88
700.403	271.94
700.81	330.45
701.216	360.88
701.623	293.01
702.029	321.09
702.435	302.37
702.842	309.39
703.248	328.11
703.654	285.98
704.06	360.88
704.466	388.97
704.872	386.63
705.278	288.32
705.684	370.24
706.09	314.07
706.496	243.85
706.901	300.03
707.307	316.41
707.712	276.62
708.118	318.75
708.523	316.41
708.929	274.28
709.334	297.69
709.74	374.92
710.145	335.14
710.55	325.77
710.955	239.17
711.36	321.09
711.765	260.24
712.17	288.32
712.575	321.09
712.98	796.22
713.385	337.48
713.789	283.64
714.194	288.32
714.599	285.98
715.003	330.45
715.408	283.64
715.812	290.67
716.217	325.77
716.621	328.11
717.025	332.79
717.429	295.35
717.833	321.09
718.238	302.37
718.642	293.01
719.046	328.11
719.449	295.35
719.853	318.75
720.257	328.11
720.661	285.98
721.065	316.41
721.468	276.62
721.872	311.73
722.275	339.82
722.679	295.35
723.082	339.82
723.485	328.11
723.889	295.35
724.292	346.84
724.695	281.3
725.098	365.56
725.501	353.86
725.904	318.75
726.307	316.41
726.71	344.5
727.113	311.73
727.516	358.54
727.918	232.15
728.321	274.28
728.724	335.14
729.126	342.16
729.529	314.07
729.931	349.18
730.333	300.03
730.736	358.54
731.138	356.2
731.54	314.07
731.942	267.26
732.344	278.96
732.746	295.35
733.148	335.14
733.55	351.52
733.952	337.48
734.354	302.37
734.756	332.79
735.157	367.9
735.559	267.26
735.96	269.6
736.362	318.75
736.763	276.62
737.165	342.16
737.566	328.11
737.967	372.58
738.368	321.09
738.77	337.48
739.171	300.03
739.572	283.64
739.973	222.79
740.374	328.11
740.774	293.01
741.175	293.01
741.576	314.07
741.977	316.41
742.377	260.24
742.778	309.39
743.178	290.67
743.579	229.81
743.979	307.05
744.379	302.37
744.78	335.14
745.18	325.77
745.58	304.71
745.98	307.05
746.38	314.07
746.78	325.77
747.18	293.01
747.58	323.43
747.98	311.73
748.38	248.54
748.779	321.09
749.179	257.9
749.578	370.24
749.978	318.75
750.377	290.67
750.777	300.03
751.176	337.48
751.575	271.94
751.975	302.37
752.374	260.24
752.773	255.56
753.172	353.86
753.571	297.69
753.97	332.79
754.369	330.45
754.768	285.98
755.166	307.05
755.565	325.77
755.964	262.58
756.362	323.43
756.761	290.67
757.159	302.37
757.558	283.64
757.956	255.56
758.354	332.79
758.753	297.69
759.151	318.75
759.549	300.03
759.947	257.9
760.345	304.71
760.743	363.22
761.141	302.37
761.539	250.88
761.936	271.94
762.334	295.35
762.732	330.45
763.129	328.11
763.527	335.14
763.924	363.22
764.322	337.48
