Data from Al_FLMS009871__1053__16-25-17-113.txt Node

Date: Fri Mar 08 16:25:17 CST 2024
User: pe5414po
Spectrometer: FLMS00987
Trigger mode: 0
Integration Time (sec): 1.000000E-1
Scans to average: 1
Electric dark correction enabled: true
Nonlinearity correction enabled: false
Boxcar width: 0
XAxis mode: Wavelengths
Number of Pixels in Spectrum: 2048
>>>>>Begin Spectral Data<<<<<
188.938	-76.07
189.409	-76.07
189.879	-76.07
190.349	-176.71
190.819	-125.22
191.29	-57.34
191.76	-97.13
192.23	-36.28
192.7	-92.45
193.17	-57.34
193.64	-29.26
194.109	-38.62
194.579	-45.64
195.049	-17.55
195.519	-15.21
195.988	17.55
196.458	55
196.927	52.66
197.397	136.92
197.866	155.65
198.336	69.05
198.805	162.67
199.274	129.9
199.744	195.43
200.213	214.16
200.682	244.59
201.151	253.95
201.62	228.2
202.089	265.65
202.558	265.65
203.027	253.95
203.495	258.63
203.964	347.57
204.433	300.76
204.902	282.03
205.37	310.12
205.839	303.1
206.307	347.57
206.776	291.4
207.244	263.31
207.712	296.08
208.181	239.9
208.649	291.4
209.117	263.31
209.585	277.35
210.053	312.46
210.521	284.38
210.989	253.95
211.457	291.4
211.925	303.1
212.393	277.35
212.861	333.53
213.328	267.99
213.796	282.03
214.264	249.27
214.731	289.06
215.199	284.38
215.666	298.42
216.133	239.9
216.601	223.52
217.068	260.97
217.535	277.35
218.003	228.2
218.47	275.01
218.937	251.61
219.404	275.01
219.871	354.59
220.338	296.08
220.805	267.99
221.271	275.01
221.738	277.35
222.205	307.78
222.671	218.84
223.138	275.01
223.605	282.03
224.071	256.29
224.538	260.97
225.004	352.25
225.47	267.99
225.937	286.72
226.403	277.35
226.869	228.2
227.335	307.78
227.801	270.33
228.267	331.19
228.733	237.56
229.199	277.35
229.665	279.69
230.131	237.56
230.597	258.63
231.062	291.4
231.528	284.38
231.994	270.33
232.459	333.53
232.925	335.87
233.39	310.12
233.856	291.4
234.321	289.06
234.786	256.29
235.252	237.56
235.717	235.22
236.182	305.44
236.647	298.42
237.112	253.95
237.577	277.35
238.042	305.44
238.507	251.61
238.972	256.29
239.436	296.08
239.901	331.19
240.366	242.25
240.83	345.23
241.295	356.93
241.76	289.06
242.224	352.25
242.688	265.65
243.153	349.91
243.617	282.03
244.081	256.29
244.545	214.16
245.01	277.35
245.474	296.08
245.938	282.03
246.402	319.48
246.866	349.91
247.33	326.5
247.793	317.14
248.257	277.35
248.721	263.31
249.185	253.95
249.648	242.25
250.112	284.38
250.575	293.74
251.039	277.35
251.502	277.35
251.965	289.06
252.429	286.72
252.892	296.08
253.355	275.01
253.818	303.1
254.281	289.06
254.744	284.38
255.207	340.55
255.67	263.31
256.133	282.03
256.596	321.82
257.059	328.85
257.522	253.95
257.984	263.31
258.447	319.48
258.909	263.31
259.372	310.12
259.834	399.06
260.297	305.44
260.759	296.08
261.221	352.25
261.684	263.31
262.146	331.19
262.608	289.06
263.07	260.97
263.532	331.19
263.994	319.48
264.456	305.44
264.918	298.42
265.38	270.33
265.842	310.12
266.303	361.61
266.765	326.5
267.227	298.42
267.688	289.06
268.15	305.44
268.611	326.5
269.072	289.06
269.534	298.42
269.995	312.46
270.456	293.74
270.918	275.01
271.379	260.97
271.84	246.93
272.301	328.85
272.762	249.27
273.223	291.4
273.684	289.06
274.144	282.03
274.605	342.89
275.066	312.46
275.527	310.12
275.987	275.01
276.448	324.16
276.908	279.69
277.369	356.93
277.829	352.25
278.289	342.89
278.75	298.42
279.21	363.95
279.67	314.8
280.13	284.38
280.59	349.91
281.05	284.38
281.51	331.19
281.97	298.42
282.43	267.99
282.89	305.44
283.35	277.35
283.809	291.4
284.269	303.1
284.729	303.1
285.188	284.38
285.648	363.95
286.107	319.48
286.567	300.76
287.026	291.4
287.485	314.8
287.944	270.33
288.404	305.44
288.863	347.57
289.322	305.44
289.781	298.42
290.24	321.82
290.699	321.82
291.158	235.22
291.616	270.33
292.075	265.65
292.534	319.48
292.992	253.95
293.451	277.35
293.91	349.91
294.368	385.02
294.827	300.76
295.285	342.89
295.743	396.72
296.202	324.16
296.66	296.08
297.118	282.03
297.576	378
298.034	291.4
298.492	209.48
298.95	284.38
299.408	314.8
299.866	389.7
300.324	342.89
300.781	310.12
301.239	282.03
301.697	340.55
302.154	270.33
302.612	317.14
303.069	310.12
303.527	291.4
303.984	286.72
304.441	298.42
304.899	340.55
305.356	291.4
305.813	305.44
306.27	331.19
306.727	307.78
307.184	267.99
307.641	328.85
308.098	340.55
308.555	370.97
309.012	345.23
309.468	340.55
309.925	319.48
310.382	291.4
310.838	293.74
311.295	359.27
311.751	366.29
312.208	300.76
312.664	328.85
313.12	342.89
313.577	356.93
314.033	324.16
314.489	300.76
314.945	305.44
315.401	359.27
315.857	333.53
316.313	223.52
316.769	282.03
317.225	326.5
317.681	342.89
318.136	293.74
318.592	279.69
319.048	272.67
319.503	326.5
319.959	378
320.414	291.4
320.869	307.78
321.325	342.89
321.78	307.78
322.235	342.89
322.691	352.25
323.146	368.63
323.601	326.5
324.056	303.1
324.511	265.65
324.966	359.27
325.421	347.57
325.875	293.74
326.33	389.7
326.785	314.8
327.24	305.44
327.694	352.25
328.149	333.53
328.603	335.87
329.058	340.55
329.512	275.01
329.966	256.29
330.421	298.42
330.875	298.42
331.329	338.21
331.783	282.03
332.237	333.53
332.691	345.23
333.145	284.38
333.599	267.99
334.053	319.48
334.507	298.42
334.96	284.38
335.414	286.72
335.868	392.04
336.321	282.03
336.775	340.55
337.228	375.66
337.682	307.78
338.135	289.06
338.588	305.44
339.042	394.38
339.495	263.31
339.948	331.19
340.401	359.27
340.854	340.55
341.307	324.16
341.76	282.03
342.213	361.61
342.666	310.12
343.119	324.16
343.571	317.14
344.024	347.57
344.477	303.1
344.929	366.29
345.382	340.55
345.834	317.14
346.287	361.61
346.739	310.12
347.191	375.66
347.644	282.03
348.096	331.19
348.548	303.1
349	291.4
349.452	319.48
349.904	366.29
350.356	305.44
350.808	324.16
351.26	347.57
351.711	314.8
352.163	366.29
352.615	265.65
353.066	349.91
353.518	352.25
353.969	317.14
354.421	291.4
354.872	310.12
355.324	305.44
355.775	312.46
356.226	359.27
356.677	352.25
357.128	328.85
357.579	340.55
358.03	286.72
358.481	370.97
358.932	317.14
359.383	267.99
359.834	352.25
360.285	293.74
360.735	340.55
361.186	326.5
361.637	298.42
362.087	340.55
362.538	342.89
362.988	366.29
363.438	331.19
363.889	293.74
364.339	361.61
364.789	256.29
365.239	342.89
365.689	296.08
366.139	342.89
366.589	279.69
367.039	296.08
367.489	392.04
367.939	317.14
368.389	312.46
368.839	293.74
369.288	289.06
369.738	354.59
370.187	340.55
370.637	338.21
371.086	370.97
371.536	275.01
371.985	354.59
372.434	324.16
372.884	347.57
373.333	270.33
373.782	272.67
374.231	340.55
374.68	326.5
375.129	319.48
375.578	363.95
376.027	356.93
376.475	333.53
376.924	354.59
377.373	333.53
377.822	317.14
378.27	328.85
378.719	331.19
379.167	373.32
379.616	378
380.064	345.23
380.512	310.12
380.961	324.16
381.409	270.33
381.857	282.03
382.305	317.14
382.753	305.44
383.201	307.78
383.649	284.38
384.097	370.97
384.545	298.42
384.992	373.32
385.44	321.82
385.888	263.31
386.335	321.82
386.783	326.5
387.231	237.56
387.678	361.61
388.125	319.48
388.573	310.12
389.02	317.14
389.467	296.08
389.914	321.82
390.362	338.21
390.809	291.4
391.256	363.95
391.703	307.78
392.15	324.16
392.596	342.89
393.043	328.85
393.49	321.82
393.937	363.95
394.383	326.5
394.83	349.91
395.276	300.76
395.723	338.21
396.169	349.91
396.616	293.74
397.062	342.89
397.508	319.48
397.954	291.4
398.401	342.89
398.847	352.25
399.293	293.74
399.739	324.16
400.185	300.76
400.631	293.74
401.076	349.91
401.522	310.12
401.968	321.82
402.414	305.44
402.859	310.12
403.305	347.57
403.75	286.72
404.196	328.85
404.641	335.87
405.086	319.48
405.532	356.93
405.977	354.59
406.422	352.25
406.867	303.1
407.312	352.25
407.757	267.99
408.202	326.5
408.647	368.63
409.092	352.25
409.537	326.5
409.982	424.81
410.426	335.87
410.871	328.85
411.316	354.59
411.76	298.42
412.205	319.48
412.649	392.04
413.093	211.82
413.538	326.5
413.982	307.78
414.426	291.4
414.87	368.63
415.314	298.42
415.758	363.95
416.202	331.19
416.646	333.53
417.09	342.89
417.534	317.14
417.978	349.91
418.421	263.31
418.865	345.23
419.309	279.69
419.752	326.5
420.196	305.44
420.639	272.67
421.083	256.29
421.526	354.59
421.969	317.14
422.412	354.59
422.856	324.16
423.299	282.03
423.742	345.23
424.185	293.74
424.628	303.1
425.071	373.32
425.513	366.29
425.956	354.59
426.399	342.89
426.842	361.61
427.284	321.82
427.727	328.85
428.169	321.82
428.612	279.69
429.054	340.55
429.497	347.57
429.939	305.44
430.381	366.29
430.823	331.19
431.265	305.44
431.707	300.76
432.149	331.19
432.591	342.89
433.033	319.48
433.475	307.78
433.917	375.66
434.359	361.61
434.8	326.5
435.242	314.8
435.684	340.55
436.125	342.89
436.567	349.91
437.008	321.82
437.449	321.82
437.891	347.57
438.332	321.82
438.773	333.53
439.214	305.44
439.656	361.61
440.097	342.89
440.538	314.8
440.978	232.88
441.419	260.97
441.86	289.06
442.301	401.4
442.742	289.06
443.182	321.82
443.623	331.19
444.063	321.82
444.504	232.88
444.944	237.56
445.385	291.4
445.825	333.53
446.265	366.29
446.706	345.23
447.146	366.29
447.586	389.7
448.026	363.95
448.466	347.57
448.906	321.82
449.346	263.31
449.786	279.69
450.225	363.95
450.665	342.89
451.105	342.89
451.544	361.61
451.984	345.23
452.424	354.59
452.863	303.1
453.302	321.82
453.742	349.91
454.181	368.63
454.62	335.87
455.059	333.53
455.499	380.34
455.938	333.53
456.377	347.57
456.816	312.46
457.254	368.63
457.693	317.14
458.132	298.42
458.571	300.76
459.01	366.29
459.448	300.76
459.887	387.36
460.325	331.19
460.764	277.35
461.202	314.8
461.641	380.34
462.079	361.61
462.517	375.66
462.955	331.19
463.393	349.91
463.832	354.59
464.27	321.82
464.708	310.12
465.145	338.21
465.583	352.25
466.021	340.55
466.459	356.93
466.897	319.48
467.334	375.66
467.772	331.19
468.209	361.61
468.647	310.12
469.084	347.57
469.522	352.25
469.959	361.61
470.396	387.36
470.833	338.21
471.271	282.03
471.708	307.78
472.145	331.19
472.582	310.12
473.019	328.85
473.456	366.29
473.892	298.42
474.329	370.97
474.766	338.21
475.202	291.4
475.639	352.25
476.076	289.06
476.512	275.01
476.949	324.16
477.385	361.61
477.821	340.55
478.258	363.95
478.694	286.72
479.13	289.06
479.566	396.72
480.002	342.89
480.438	331.19
480.874	340.55
481.31	340.55
481.746	324.16
482.181	363.95
482.617	282.03
483.053	314.8
483.488	450.55
483.924	340.55
484.36	270.33
484.795	319.48
485.23	298.42
485.666	347.57
486.101	305.44
486.536	307.78
486.971	305.44
487.407	307.78
487.842	314.8
488.277	298.42
488.712	275.01
489.146	340.55
489.581	298.42
490.016	312.46
490.451	354.59
490.885	338.21
491.32	310.12
491.755	331.19
492.189	361.61
492.624	317.14
493.058	300.76
493.492	389.7
493.927	324.16
494.361	335.87
494.795	340.55
495.229	319.48
495.663	359.27
496.097	326.5
496.531	321.82
496.965	277.35
497.399	333.53
497.833	324.16
498.266	321.82
498.7	272.67
499.134	279.69
499.567	326.5
500.001	321.82
500.434	338.21
500.868	380.34
501.301	275.01
501.734	321.82
502.168	319.48
502.601	352.25
503.034	354.59
503.467	277.35
503.9	282.03
504.333	338.21
504.766	303.1
505.199	303.1
505.632	303.1
506.064	314.8
506.497	394.38
506.93	305.44
507.362	300.76
507.795	319.48
508.227	387.36
508.66	258.63
509.092	331.19
509.524	324.16
509.956	338.21
510.389	333.53
510.821	317.14
511.253	324.16
511.685	331.19
512.117	319.48
512.549	321.82
512.981	312.46
513.412	359.27
513.844	310.12
514.276	347.57
514.707	352.25
515.139	342.89
515.571	253.95
516.002	333.53
516.433	253.95
516.865	321.82
517.296	392.04
517.727	366.29
518.159	303.1
518.59	408.42
519.021	291.4
519.452	303.1
519.883	319.48
520.314	296.08
520.744	368.63
521.175	310.12
521.606	338.21
522.037	319.48
522.467	270.33
522.898	399.06
523.328	286.72
523.759	324.16
524.189	375.66
524.62	275.01
525.05	335.87
525.48	335.87
525.91	265.65
526.341	352.25
526.771	305.44
527.201	298.42
527.631	326.5
528.061	324.16
528.49	335.87
528.92	279.69
529.35	340.55
529.78	275.01
530.209	335.87
530.639	307.78
531.068	378
531.498	361.61
531.927	356.93
532.357	312.46
532.786	387.36
533.215	333.53
533.644	387.36
534.074	328.85
534.503	342.89
534.932	347.57
535.361	335.87
535.79	277.35
536.218	333.53
536.647	378
537.076	389.7
537.505	317.14
537.933	345.23
538.362	326.5
538.79	347.57
539.219	396.72
539.647	307.78
540.076	246.93
540.504	345.23
540.932	333.53
541.36	310.12
541.788	373.32
542.217	272.67
542.645	312.46
543.073	326.5
543.5	333.53
543.928	382.68
544.356	352.25
544.784	347.57
545.211	335.87
545.639	312.46
546.067	321.82
546.494	392.04
546.922	342.89
547.349	312.46
547.776	352.25
548.204	338.21
548.631	321.82
549.058	373.32
549.485	296.08
549.912	312.46
550.339	258.63
550.766	277.35
551.193	289.06
551.62	331.19
552.047	352.25
552.474	298.42
552.9	321.82
553.327	275.01
553.754	342.89
554.18	331.19
554.607	298.42
555.033	225.86
555.459	267.99
555.886	307.78
556.312	385.02
556.738	345.23
557.164	370.97
557.59	331.19
558.016	363.95
558.442	370.97
558.868	275.01
559.294	326.5
559.72	333.53
560.145	317.14
560.571	293.74
560.997	319.48
561.422	354.59
561.848	345.23
562.273	392.04
562.699	328.85
563.124	286.72
563.549	354.59
563.974	349.91
564.4	321.82
564.825	282.03
565.25	326.5
565.675	279.69
566.1	352.25
566.525	333.53
566.95	239.9
567.374	298.42
567.799	298.42
568.224	326.5
568.648	382.68
569.073	345.23
569.497	303.1
569.922	359.27
570.346	275.01
570.771	382.68
571.195	349.91
571.619	385.02
572.043	291.4
572.467	267.99
572.891	354.59
573.315	305.44
573.739	347.57
574.163	310.12
574.587	368.63
575.011	303.1
575.435	340.55
575.858	333.53
576.282	352.25
576.705	314.8
577.129	296.08
577.552	277.35
577.976	317.14
578.399	345.23
578.822	359.27
579.245	228.2
579.669	303.1
580.092	387.36
580.515	363.95
580.938	370.97
581.361	319.48
581.784	282.03
582.206	356.93
582.629	246.93
583.052	340.55
583.474	338.21
583.897	366.29
584.32	333.53
584.742	258.63
585.165	356.93
585.587	310.12
586.009	347.57
586.431	354.59
586.854	335.87
587.276	314.8
587.698	380.34
588.12	347.57
588.542	340.55
588.964	349.91
589.386	307.78
589.807	340.55
590.229	338.21
590.651	361.61
591.073	338.21
591.494	359.27
591.916	305.44
592.337	342.89
592.759	354.59
593.18	342.89
593.601	282.03
594.022	275.01
594.444	298.42
594.865	331.19
595.286	349.91
595.707	338.21
596.128	253.95
596.549	331.19
596.97	352.25
597.39	282.03
597.811	328.85
598.232	338.21
598.652	291.4
599.073	307.78
599.494	333.53
599.914	296.08
600.334	314.8
600.755	305.44
601.175	354.59
601.595	340.55
602.015	387.36
602.436	260.97
602.856	406.08
603.276	293.74
603.696	324.16
604.115	258.63
604.535	289.06
604.955	385.02
605.375	277.35
605.794	354.59
606.214	293.74
606.634	298.42
607.053	296.08
607.473	275.01
607.892	289.06
608.311	356.93
608.731	321.82
609.15	293.74
609.569	333.53
609.988	289.06
610.407	314.8
610.826	347.57
611.245	347.57
611.664	345.23
612.083	270.33
612.501	317.14
612.92	324.16
613.339	253.95
613.757	368.63
614.176	312.46
614.594	354.59
615.013	326.5
615.431	342.89
615.85	370.97
616.268	333.53
616.686	307.78
617.104	270.33
617.522	293.74
617.94	242.25
618.358	387.36
618.776	349.91
619.194	256.29
619.612	272.67
620.03	340.55
620.447	272.67
620.865	333.53
621.282	263.31
621.7	338.21
622.117	361.61
622.535	328.85
622.952	312.46
623.369	310.12
623.787	300.76
624.204	340.55
624.621	310.12
625.038	361.61
625.455	296.08
625.872	296.08
626.289	324.16
626.706	338.21
627.123	382.68
627.539	340.55
627.956	373.32
628.373	368.63
628.789	314.8
629.206	270.33
629.622	305.44
630.038	293.74
630.455	361.61
630.871	289.06
631.287	326.5
631.703	373.32
632.12	342.89
632.536	349.91
632.952	335.87
633.368	354.59
633.783	279.69
634.199	331.19
634.615	244.59
635.031	331.19
635.446	317.14
635.862	321.82
636.277	314.8
636.693	310.12
637.108	385.02
637.524	340.55
637.939	310.12
638.354	326.5
638.77	375.66
639.185	338.21
639.6	361.61
640.015	380.34
640.43	359.27
640.845	314.8
641.259	389.7
641.674	340.55
642.089	298.42
642.504	352.25
642.918	331.19
643.333	312.46
643.747	347.57
644.162	349.91
644.576	331.19
644.991	333.53
645.405	272.67
645.819	300.76
646.233	286.72
646.647	366.29
647.061	317.14
647.475	347.57
647.889	324.16
648.303	270.33
648.717	286.72
649.131	284.38
649.545	342.89
649.958	326.5
650.372	382.68
650.785	335.87
651.199	296.08
651.612	279.69
652.026	326.5
652.439	321.82
652.852	321.82
653.266	345.23
653.679	298.42
654.092	293.74
654.505	342.89
654.918	324.16
655.331	326.5
655.744	270.33
656.156	356.93
656.569	303.1
656.982	321.82
657.394	401.4
657.807	312.46
658.22	310.12
658.632	342.89
659.044	333.53
659.457	284.38
659.869	314.8
660.281	399.06
660.693	345.23
661.106	298.42
661.518	300.76
661.93	312.46
662.342	298.42
662.754	237.56
663.165	326.5
663.577	361.61
663.989	333.53
664.401	256.29
664.812	296.08
665.224	321.82
665.635	293.74
666.047	368.63
666.458	356.93
666.869	317.14
667.281	305.44
667.692	305.44
668.103	394.38
668.514	277.35
668.925	363.95
669.336	392.04
669.747	303.1
670.158	267.99
670.569	284.38
670.979	312.46
671.39	317.14
671.801	342.89
672.211	387.36
672.622	342.89
673.032	347.57
673.443	331.19
673.853	326.5
674.263	319.48
674.674	373.32
675.084	300.76
675.494	286.72
675.904	349.91
676.314	347.57
676.724	349.91
677.134	338.21
677.544	345.23
677.953	352.25
678.363	338.21
678.773	375.66
679.182	342.89
679.592	312.46
680.001	317.14
680.411	277.35
680.82	356.93
681.23	298.42
681.639	305.44
682.048	331.19
682.457	279.69
682.866	333.53
683.275	373.32
683.684	331.19
684.093	328.85
684.502	331.19
684.911	340.55
685.32	382.68
685.728	310.12
686.137	314.8
686.546	300.76
686.954	272.67
687.363	335.87
687.771	319.48
688.179	401.4
688.588	296.08
688.996	356.93
689.404	354.59
689.812	305.44
690.22	354.59
690.628	326.5
691.036	333.53
691.444	354.59
691.852	317.14
692.26	368.63
692.667	349.91
693.075	340.55
693.483	340.55
693.89	363.95
694.298	375.66
694.705	324.16
695.112	356.93
695.52	347.57
695.927	345.23
696.334	324.16
696.741	298.42
697.148	263.31
697.555	305.44
697.962	270.33
698.369	354.59
698.776	392.04
699.183	375.66
699.59	335.87
699.996	289.06
700.403	345.23
700.81	298.42
701.216	291.4
701.623	359.27
702.029	331.19
702.435	317.14
702.842	396.72
703.248	314.8
703.654	272.67
704.06	310.12
704.466	354.59
704.872	296.08
705.278	303.1
705.684	319.48
706.09	300.76
706.496	279.69
706.901	307.78
707.307	310.12
707.712	286.72
708.118	319.48
708.523	326.5
708.929	317.14
709.334	310.12
709.74	298.42
710.145	319.48
710.55	284.38
710.955	349.91
711.36	375.66
711.765	298.42
712.17	366.29
712.575	347.57
712.98	773.55
713.385	370.97
713.789	284.38
714.194	286.72
714.599	338.21
715.003	303.1
715.408	275.01
715.812	310.12
716.217	298.42
716.621	389.7
717.025	310.12
717.429	338.21
717.833	352.25
718.238	307.78
718.642	307.78
719.046	300.76
719.449	305.44
719.853	359.27
720.257	345.23
720.661	284.38
721.065	305.44
721.468	307.78
721.872	352.25
722.275	331.19
722.679	399.06
723.082	345.23
723.485	321.82
723.889	373.32
724.292	356.93
724.695	373.32
725.098	331.19
725.501	300.76
725.904	345.23
726.307	347.57
726.71	298.42
727.113	328.85
727.516	300.76
727.918	303.1
728.321	314.8
728.724	312.46
729.126	375.66
729.529	319.48
729.931	375.66
730.333	401.4
730.736	319.48
731.138	319.48
731.54	277.35
731.942	370.97
732.344	335.87
732.746	258.63
733.148	328.85
733.55	340.55
733.952	312.46
734.354	317.14
734.756	354.59
735.157	286.72
735.559	244.59
735.96	319.48
736.362	326.5
736.763	321.82
737.165	303.1
737.566	305.44
737.967	286.72
738.368	331.19
738.77	305.44
739.171	310.12
739.572	260.97
739.973	307.78
740.374	267.99
740.774	293.74
741.175	282.03
741.576	279.69
741.977	349.91
742.377	349.91
742.778	328.85
743.178	300.76
743.579	303.1
743.979	310.12
744.379	366.29
744.78	300.76
745.18	324.16
745.58	361.61
745.98	305.44
746.38	314.8
746.78	291.4
747.18	345.23
747.58	270.33
747.98	321.82
748.38	275.01
748.779	324.16
749.179	359.27
749.578	340.55
749.978	347.57
750.377	342.89
750.777	410.76
751.176	324.16
751.575	282.03
751.975	314.8
752.374	345.23
752.773	298.42
753.172	289.06
753.571	296.08
753.97	303.1
754.369	303.1
754.768	275.01
755.166	317.14
755.565	265.65
755.964	314.8
756.362	324.16
756.761	399.06
757.159	349.91
757.558	333.53
757.956	354.59
758.354	270.33
758.753	256.29
759.151	300.76
759.549	265.65
759.947	321.82
760.345	359.27
760.743	399.06
761.141	324.16
761.539	347.57
761.936	305.44
762.334	296.08
762.732	321.82
763.129	340.55
763.527	328.85
763.924	396.72
764.322	363.95
764.719	272.67
765.117	333.53
765.514	328.85
