Data from Al_FLMS009871__771__15-18-16-825.txt Node

Date: Fri Mar 08 15:18:16 CST 2024
User: pe5414po
Spectrometer: FLMS00987
Trigger mode: 0
Integration Time (sec): 1.000000E-1
Scans to average: 1
Electric dark correction enabled: true
Nonlinearity correction enabled: false
Boxcar width: 0
XAxis mode: Wavelengths
Number of Pixels in Spectrum: 2048
>>>>>Begin Spectral Data<<<<<
188.938	-111.47
189.409	-111.47
189.879	-111.47
190.349	-90.4
190.819	-158.28
191.29	-81.04
191.76	-137.21
192.23	-102.11
192.7	-67
193.17	-76.36
193.64	-52.95
194.109	-52.95
194.579	12.58
195.049	52.37
195.519	-13.17
195.988	7.9
196.458	59.39
196.927	7.9
197.397	136.63
197.866	150.67
198.336	155.35
198.805	115.56
199.274	174.08
199.744	216.21
200.213	134.29
200.682	263.02
201.151	227.91
201.62	277.06
202.089	237.27
202.558	265.36
203.027	241.95
203.495	307.49
203.964	263.02
204.433	326.21
204.902	298.13
205.37	342.6
205.839	333.23
206.307	316.85
206.776	286.42
207.244	328.55
207.712	300.47
208.181	263.02
208.649	263.02
209.117	286.42
209.585	298.13
210.053	316.85
210.521	274.72
210.989	251.32
211.457	412.81
211.925	305.15
212.393	291.1
212.861	330.89
213.328	347.28
213.796	251.32
214.264	281.74
214.731	340.26
215.199	340.26
215.666	288.76
216.133	225.57
216.601	199.82
217.068	284.08
217.535	288.76
218.003	333.23
218.47	288.76
218.937	274.72
219.404	251.32
219.871	314.51
220.338	295.79
220.805	230.25
221.271	321.53
221.738	211.53
222.205	286.42
222.671	267.7
223.138	225.57
223.605	251.32
224.071	248.97
224.538	244.29
225.004	244.29
225.47	270.04
225.937	295.79
226.403	160.03
226.869	218.55
227.335	260.68
227.801	211.53
228.267	258.34
228.733	270.04
229.199	241.95
229.665	263.02
230.131	216.21
230.597	277.06
231.062	281.74
231.528	277.06
231.994	265.36
232.459	256
232.925	211.53
233.39	279.4
233.856	263.02
234.321	302.81
234.786	302.81
235.252	333.23
235.717	291.1
236.182	270.04
236.647	293.44
237.112	279.4
237.577	206.84
238.042	270.04
238.507	211.53
238.972	265.36
239.436	234.93
239.901	316.85
240.366	333.23
240.83	328.55
241.295	218.55
241.76	354.3
242.224	277.06
242.688	281.74
243.153	293.44
243.617	288.76
244.081	253.66
244.545	267.7
245.01	232.59
245.474	279.4
245.938	272.38
246.402	279.4
246.866	277.06
247.33	277.06
247.793	248.97
248.257	223.23
248.721	234.93
249.185	337.91
249.648	286.42
250.112	272.38
250.575	277.06
251.039	293.44
251.502	260.68
251.965	253.66
252.429	232.59
252.892	272.38
253.355	251.32
253.818	263.02
254.281	321.53
254.744	220.89
255.207	293.44
255.67	305.15
256.133	298.13
256.596	274.72
257.059	253.66
257.522	288.76
257.984	337.91
258.447	300.47
258.909	307.49
259.372	288.76
259.834	253.66
260.297	284.08
260.759	298.13
261.221	305.15
261.684	305.15
262.146	316.85
262.608	270.04
263.07	323.87
263.532	295.79
263.994	258.34
264.456	328.55
264.918	319.19
265.38	263.02
265.842	258.34
266.303	356.64
266.765	340.26
267.227	251.32
267.688	274.72
268.15	300.47
268.611	274.72
269.072	237.27
269.534	305.15
269.995	293.44
270.456	270.04
270.918	368.34
271.379	316.85
271.84	314.51
272.301	256
272.762	337.91
273.223	340.26
273.684	347.28
274.144	309.83
274.605	316.85
275.066	316.85
275.527	251.32
275.987	241.95
276.448	274.72
276.908	272.38
277.369	291.1
277.829	347.28
278.289	263.02
278.75	298.13
279.21	284.08
279.67	326.21
280.13	293.44
280.59	316.85
281.05	295.79
281.51	316.85
281.97	347.28
282.43	293.44
282.89	239.61
283.35	314.51
283.809	225.57
284.269	349.62
284.729	307.49
285.188	314.51
285.648	314.51
286.107	302.81
286.567	316.85
287.026	267.7
287.485	286.42
287.944	263.02
288.404	330.89
288.863	342.6
289.322	281.74
289.781	295.79
290.24	298.13
290.699	335.57
291.158	291.1
291.616	307.49
292.075	314.51
292.534	323.87
292.992	272.38
293.451	251.32
293.91	347.28
294.368	314.51
294.827	300.47
295.285	316.85
295.743	333.23
296.202	279.4
296.66	337.91
297.118	302.81
297.576	351.96
298.034	333.23
298.492	333.23
298.95	293.44
299.408	274.72
299.866	351.96
300.324	281.74
300.781	277.06
301.239	354.3
301.697	358.98
302.154	319.19
302.612	373.02
303.069	323.87
303.527	300.47
303.984	354.3
304.441	335.57
304.899	323.87
305.356	305.15
305.813	274.72
306.27	323.87
306.727	323.87
307.184	267.7
307.641	328.55
308.098	288.76
308.555	380.04
309.012	305.15
309.468	295.79
309.925	302.81
310.382	309.83
310.838	342.6
311.295	328.55
311.751	291.1
312.208	298.13
312.664	293.44
313.12	286.42
313.577	330.89
314.033	321.53
314.489	234.93
314.945	316.85
315.401	309.83
315.857	316.85
316.313	274.72
316.769	330.89
317.225	305.15
317.681	270.04
318.136	319.19
318.592	312.17
319.048	326.21
319.503	337.91
319.959	314.51
320.414	279.4
320.869	256
321.325	291.1
321.78	312.17
322.235	225.57
322.691	337.91
323.146	298.13
323.601	270.04
324.056	330.89
324.511	288.76
324.966	307.49
325.421	300.47
325.875	277.06
326.33	316.85
326.785	272.38
327.24	300.47
327.694	316.85
328.149	281.74
328.603	248.97
329.058	330.89
329.512	330.89
329.966	351.96
330.421	284.08
330.875	309.83
331.329	298.13
331.783	213.87
332.237	281.74
332.691	293.44
333.145	279.4
333.599	305.15
334.053	263.02
334.507	312.17
334.96	293.44
335.414	253.66
335.868	300.47
336.321	321.53
336.775	312.17
337.228	298.13
337.682	284.08
338.135	358.98
338.588	382.39
339.042	307.49
339.495	291.1
339.948	284.08
340.401	349.62
340.854	281.74
341.307	197.48
341.76	307.49
342.213	312.17
342.666	307.49
343.119	302.81
343.571	288.76
344.024	300.47
344.477	288.76
344.929	323.87
345.382	377.7
345.834	272.38
346.287	321.53
346.739	319.19
347.191	323.87
347.644	312.17
348.096	321.53
348.548	349.62
349	316.85
349.452	319.19
349.904	241.95
350.356	326.21
350.808	284.08
351.26	300.47
351.711	316.85
352.163	300.47
352.615	305.15
353.066	298.13
353.518	373.02
353.969	295.79
354.421	335.57
354.872	291.1
355.324	337.91
355.775	305.15
356.226	323.87
356.677	347.28
357.128	373.02
357.579	340.26
358.03	309.83
358.481	314.51
358.932	326.21
359.383	291.1
359.834	354.3
360.285	321.53
360.735	356.64
361.186	351.96
361.637	368.34
362.087	309.83
362.538	354.3
362.988	330.89
363.438	305.15
363.889	349.62
364.339	358.98
364.789	267.7
365.239	373.02
365.689	281.74
366.139	288.76
366.589	284.08
367.039	309.83
367.489	258.34
367.939	293.44
368.389	319.19
368.839	335.57
369.288	293.44
369.738	291.1
370.187	279.4
370.637	274.72
371.086	300.47
371.536	340.26
371.985	284.08
372.434	366
372.884	330.89
373.333	363.66
373.782	307.49
374.231	302.81
374.68	302.81
375.129	307.49
375.578	319.19
376.027	291.1
376.475	326.21
376.924	330.89
377.373	375.36
377.822	349.62
378.27	256
378.719	291.1
379.167	312.17
379.616	330.89
380.064	321.53
380.512	312.17
380.961	340.26
381.409	335.57
381.857	284.08
382.305	312.17
382.753	321.53
383.201	354.3
383.649	305.15
384.097	284.08
384.545	354.3
384.992	330.89
385.44	337.91
385.888	337.91
386.335	302.81
386.783	337.91
387.231	302.81
387.678	279.4
388.125	349.62
388.573	312.17
389.02	284.08
389.467	330.89
389.914	328.55
390.362	330.89
390.809	293.44
391.256	279.4
391.703	312.17
392.15	358.98
392.596	307.49
393.043	288.76
393.49	286.42
393.937	312.17
394.383	293.44
394.83	305.15
395.276	309.83
395.723	295.79
396.169	209.19
396.616	330.89
397.062	366
397.508	298.13
397.954	347.28
398.401	274.72
398.847	298.13
399.293	284.08
399.739	394.09
400.185	349.62
400.631	330.89
401.076	370.68
401.522	330.89
401.968	321.53
402.414	256
402.859	316.85
403.305	295.79
403.75	326.21
404.196	326.21
404.641	284.08
405.086	291.1
405.532	295.79
405.977	305.15
406.422	337.91
406.867	335.57
407.312	288.76
407.757	319.19
408.202	337.91
408.647	349.62
409.092	309.83
409.537	366
409.982	354.3
410.426	293.44
410.871	335.57
411.316	284.08
411.76	293.44
412.205	342.6
412.649	354.3
413.093	314.51
413.538	279.4
413.982	218.55
414.426	323.87
414.87	351.96
415.314	272.38
415.758	305.15
416.202	358.98
416.646	291.1
417.09	347.28
417.534	293.44
417.978	314.51
418.421	270.04
418.865	321.53
419.309	340.26
419.752	344.94
420.196	412.81
420.639	286.42
421.083	363.66
421.526	227.91
421.969	356.64
422.412	307.49
422.856	314.51
423.299	375.36
423.742	373.02
424.185	330.89
424.628	337.91
425.071	328.55
425.513	312.17
425.956	220.89
426.399	330.89
426.842	288.76
427.284	340.26
427.727	316.85
428.169	314.51
428.612	293.44
429.054	361.32
429.497	368.34
429.939	300.47
430.381	351.96
430.823	340.26
431.265	328.55
431.707	335.57
432.149	312.17
432.591	305.15
433.033	340.26
433.475	293.44
433.917	361.32
434.359	302.81
434.8	305.15
435.242	256
435.684	298.13
436.125	234.93
436.567	270.04
437.008	305.15
437.449	316.85
437.891	300.47
438.332	302.81
438.773	347.28
439.214	286.42
439.656	319.19
440.097	349.62
440.538	349.62
440.978	368.34
441.419	319.19
441.86	340.26
442.301	344.94
442.742	307.49
443.182	321.53
443.623	340.26
444.063	340.26
444.504	305.15
444.944	380.04
445.385	344.94
445.825	344.94
446.265	270.04
446.706	319.19
447.146	305.15
447.586	333.23
448.026	305.15
448.466	314.51
448.906	391.75
449.346	328.55
449.786	319.19
450.225	342.6
450.665	291.1
451.105	309.83
451.544	368.34
451.984	344.94
452.424	323.87
452.863	302.81
453.302	344.94
453.742	326.21
454.181	351.96
454.62	277.06
455.059	307.49
455.499	291.1
455.938	375.36
456.377	305.15
456.816	281.74
457.254	337.91
457.693	326.21
458.132	377.7
458.571	244.29
459.01	307.49
459.448	279.4
459.887	366
460.325	368.34
460.764	265.36
461.202	333.23
461.641	389.41
462.079	316.85
462.517	274.72
462.955	340.26
463.393	347.28
463.832	351.96
464.27	347.28
464.708	340.26
465.145	307.49
465.583	307.49
466.021	272.38
466.459	330.89
466.897	302.81
467.334	328.55
467.772	281.74
468.209	358.98
468.647	312.17
469.084	326.21
469.522	368.34
469.959	279.4
470.396	307.49
470.833	391.75
471.271	361.32
471.708	316.85
472.145	277.06
472.582	323.87
473.019	295.79
473.456	305.15
473.892	337.91
474.329	328.55
474.766	337.91
475.202	361.32
475.639	337.91
476.076	335.57
476.512	307.49
476.949	321.53
477.385	319.19
477.821	302.81
478.258	366
478.694	286.42
479.13	377.7
479.566	270.04
480.002	302.81
480.438	213.87
480.874	253.66
481.31	330.89
481.746	300.47
482.181	265.36
482.617	337.91
483.053	274.72
483.488	316.85
483.924	354.3
484.36	354.3
484.795	326.21
485.23	330.89
485.666	295.79
486.101	328.55
486.536	281.74
486.971	361.32
487.407	335.57
487.842	375.36
488.277	344.94
488.712	312.17
489.146	351.96
489.581	323.87
490.016	335.57
490.451	323.87
490.885	330.89
491.32	323.87
491.755	291.1
492.189	328.55
492.624	394.09
493.058	344.94
493.492	342.6
493.927	260.68
494.361	312.17
494.795	307.49
495.229	309.83
495.663	380.04
496.097	375.36
496.531	312.17
496.965	305.15
497.399	284.08
497.833	328.55
498.266	316.85
498.7	373.02
499.134	328.55
499.567	270.04
500.001	284.08
500.434	295.79
500.868	366
501.301	344.94
501.734	356.64
502.168	335.57
502.601	314.51
503.034	307.49
503.467	314.51
503.9	326.21
504.333	319.19
504.766	351.96
505.199	389.41
505.632	295.79
506.064	328.55
506.497	340.26
506.93	347.28
507.362	347.28
507.795	309.83
508.227	307.49
508.66	321.53
509.092	349.62
509.524	288.76
509.956	241.95
510.389	370.68
510.821	401.11
511.253	279.4
511.685	305.15
512.117	328.55
512.549	333.23
512.981	366
513.412	375.36
513.844	333.23
514.276	293.44
514.707	347.28
515.139	363.66
515.571	316.85
516.002	361.32
516.433	335.57
516.865	377.7
517.296	272.38
517.727	286.42
518.159	263.02
518.59	375.36
519.021	340.26
519.452	344.94
519.883	314.51
520.314	358.98
520.744	312.17
521.175	302.81
521.606	361.32
522.037	347.28
522.467	354.3
522.898	246.63
523.328	302.81
523.759	309.83
524.189	293.44
524.62	347.28
525.05	298.13
525.48	326.21
525.91	312.17
526.341	391.75
526.771	344.94
527.201	337.91
527.631	328.55
528.061	293.44
528.49	314.51
528.92	342.6
529.35	298.13
529.78	265.36
530.209	326.21
530.639	267.7
531.068	267.7
531.498	347.28
531.927	326.21
532.357	314.51
532.786	309.83
533.215	230.25
533.644	274.72
534.074	281.74
534.503	305.15
534.932	344.94
535.361	319.19
535.79	330.89
536.218	321.53
536.647	281.74
537.076	370.68
537.505	298.13
537.933	307.49
538.362	307.49
538.79	288.76
539.219	351.96
539.647	300.47
540.076	300.47
540.504	323.87
540.932	333.23
541.36	328.55
541.788	377.7
542.217	340.26
542.645	356.64
543.073	323.87
543.5	358.98
543.928	284.08
544.356	326.21
544.784	340.26
545.211	314.51
545.639	326.21
546.067	377.7
546.494	351.96
546.922	307.49
547.349	314.51
547.776	356.64
548.204	274.72
548.631	366
549.058	380.04
549.485	286.42
549.912	349.62
550.339	298.13
550.766	256
551.193	342.6
551.62	314.51
552.047	330.89
552.474	277.06
552.9	340.26
553.327	403.45
553.754	300.47
554.18	302.81
554.607	305.15
555.033	321.53
555.459	330.89
555.886	256
556.312	330.89
556.738	333.23
557.164	382.39
557.59	335.57
558.016	288.76
558.442	335.57
558.868	295.79
559.294	300.47
559.72	356.64
560.145	295.79
560.571	305.15
560.997	281.74
561.422	330.89
561.848	358.98
562.273	314.51
562.699	291.1
563.124	307.49
563.549	358.98
563.974	316.85
564.4	347.28
564.825	274.72
565.25	314.51
565.675	302.81
566.1	333.23
566.525	316.85
566.95	316.85
567.374	328.55
567.799	340.26
568.224	337.91
568.648	333.23
569.073	305.15
569.497	330.89
569.922	363.66
570.346	302.81
570.771	370.68
571.195	342.6
571.619	298.13
572.043	347.28
572.467	354.3
572.891	342.6
573.315	370.68
573.739	361.32
574.163	330.89
574.587	319.19
575.011	272.38
575.435	286.42
575.858	356.64
576.282	326.21
576.705	344.94
577.129	335.57
577.552	342.6
577.976	316.85
578.399	351.96
578.822	375.36
579.245	319.19
579.669	323.87
580.092	258.34
580.515	356.64
580.938	354.3
581.361	316.85
581.784	375.36
582.206	300.47
582.629	326.21
583.052	319.19
583.474	333.23
583.897	288.76
584.32	335.57
584.742	286.42
585.165	293.44
585.587	286.42
586.009	328.55
586.431	389.41
586.854	328.55
587.276	293.44
587.698	319.19
588.12	326.21
588.542	286.42
588.964	321.53
589.386	363.66
589.807	358.98
590.229	319.19
590.651	319.19
591.073	293.44
591.494	305.15
591.916	349.62
592.337	293.44
592.759	335.57
593.18	349.62
593.601	342.6
594.022	284.08
594.444	344.94
594.865	263.02
595.286	270.04
595.707	305.15
596.128	335.57
596.549	356.64
596.97	335.57
597.39	323.87
597.811	295.79
598.232	337.91
598.652	312.17
599.073	351.96
599.494	328.55
599.914	295.79
600.334	302.81
600.755	335.57
601.175	356.64
601.595	284.08
602.015	300.47
602.436	340.26
602.856	436.22
603.276	279.4
603.696	326.21
604.115	344.94
604.535	326.21
604.955	291.1
605.375	342.6
605.794	295.79
606.214	309.83
606.634	328.55
607.053	326.21
607.473	370.68
607.892	351.96
608.311	227.91
608.731	358.98
609.15	389.41
609.569	323.87
609.988	267.7
610.407	363.66
610.826	302.81
611.245	351.96
611.664	281.74
612.083	305.15
612.501	286.42
612.92	335.57
613.339	319.19
613.757	312.17
614.176	305.15
614.594	328.55
615.013	291.1
615.431	312.17
615.85	279.4
616.268	309.83
616.686	288.76
617.104	298.13
617.522	279.4
617.94	295.79
618.358	302.81
618.776	248.97
619.194	305.15
619.612	281.74
620.03	230.25
620.447	330.89
620.865	305.15
621.282	361.32
621.7	246.63
622.117	342.6
622.535	373.02
622.952	342.6
623.369	328.55
623.787	340.26
624.204	272.38
624.621	370.68
625.038	342.6
625.455	358.98
625.872	270.04
626.289	330.89
626.706	333.23
627.123	253.66
627.539	288.76
627.956	337.91
628.373	321.53
628.789	375.36
629.206	302.81
629.622	286.42
630.038	373.02
630.455	330.89
630.871	302.81
631.287	293.44
631.703	356.64
632.12	286.42
632.536	344.94
632.952	298.13
633.368	354.3
633.783	354.3
634.199	277.06
634.615	328.55
635.031	281.74
635.446	333.23
635.862	351.96
636.277	370.68
636.693	307.49
637.108	326.21
637.524	309.83
637.939	323.87
638.354	234.93
638.77	380.04
639.185	361.32
639.6	321.53
640.015	323.87
640.43	344.94
640.845	347.28
641.259	248.97
641.674	335.57
642.089	342.6
642.504	309.83
642.918	312.17
643.333	309.83
643.747	351.96
644.162	305.15
644.576	358.98
644.991	344.94
645.405	354.3
645.819	319.19
646.233	328.55
646.647	326.21
647.061	319.19
647.475	305.15
647.889	298.13
648.303	302.81
648.717	281.74
649.131	330.89
649.545	347.28
649.958	403.45
650.372	312.17
650.785	312.17
651.199	326.21
651.612	344.94
652.026	307.49
652.439	354.3
652.852	363.66
653.266	342.6
653.679	319.19
654.092	347.28
654.505	319.19
654.918	337.91
655.331	286.42
655.744	358.98
656.156	330.89
656.569	316.85
656.982	340.26
657.394	309.83
657.807	298.13
658.22	260.68
658.632	309.83
659.044	284.08
659.457	302.81
659.869	375.36
660.281	351.96
660.693	270.04
661.106	335.57
661.518	256
661.93	340.26
662.342	300.47
662.754	323.87
663.165	277.06
663.577	391.75
663.989	312.17
664.401	298.13
664.812	347.28
665.224	347.28
665.635	347.28
666.047	349.62
666.458	281.74
666.869	312.17
667.281	335.57
667.692	396.43
668.103	316.85
668.514	270.04
668.925	349.62
669.336	361.32
669.747	382.39
670.158	314.51
670.569	239.61
670.979	344.94
671.39	333.23
671.801	230.25
672.211	286.42
672.622	389.41
673.032	342.6
673.443	309.83
673.853	314.51
674.263	319.19
674.674	333.23
675.084	300.47
675.494	302.81
675.904	281.74
676.314	335.57
676.724	309.83
677.134	382.39
677.544	330.89
677.953	321.53
678.363	337.91
678.773	405.79
679.182	267.7
679.592	330.89
680.001	293.44
680.411	340.26
680.82	265.36
681.23	281.74
681.639	302.81
682.048	330.89
682.457	344.94
682.866	274.72
683.275	326.21
683.684	373.02
684.093	316.85
684.502	281.74
684.911	326.21
685.32	314.51
685.728	300.47
686.137	342.6
686.546	373.02
686.954	253.66
687.363	351.96
687.771	302.81
688.179	380.04
688.588	366
688.996	368.34
689.404	351.96
689.812	377.7
690.22	337.91
690.628	302.81
691.036	349.62
691.444	314.51
691.852	293.44
692.26	298.13
692.667	349.62
693.075	279.4
693.483	342.6
693.89	312.17
694.298	300.47
694.705	246.63
695.112	300.47
695.52	337.91
695.927	387.07
696.334	340.26
696.741	279.4
697.148	316.85
697.555	316.85
697.962	321.53
698.369	302.81
698.776	291.1
699.183	272.38
699.59	314.51
699.996	284.08
700.403	326.21
700.81	284.08
701.216	298.13
701.623	323.87
702.029	298.13
702.435	272.38
702.842	321.53
703.248	211.53
703.654	333.23
704.06	319.19
704.466	321.53
704.872	321.53
705.278	356.64
705.684	277.06
706.09	298.13
706.496	307.49
706.901	373.02
707.307	344.94
707.712	333.23
708.118	291.1
708.523	267.7
708.929	291.1
709.334	333.23
709.74	323.87
710.145	279.4
710.55	263.02
710.955	298.13
711.36	239.61
711.765	277.06
712.17	328.55
712.575	326.21
712.98	824.75
713.385	314.51
713.789	286.42
714.194	284.08
714.599	314.51
715.003	288.76
715.408	295.79
715.812	337.91
716.217	340.26
716.621	300.47
717.025	286.42
717.429	319.19
717.833	344.94
718.238	279.4
718.642	312.17
719.046	277.06
719.449	363.66
719.853	281.74
720.257	394.09
720.661	298.13
721.065	323.87
721.468	281.74
721.872	279.4
722.275	335.57
722.679	337.91
723.082	356.64
723.485	302.81
723.889	356.64
724.292	295.79
724.695	326.21
725.098	307.49
725.501	326.21
725.904	260.68
726.307	272.38
726.71	314.51
727.113	422.17
727.516	319.19
727.918	337.91
728.321	321.53
728.724	291.1
729.126	288.76
729.529	312.17
729.931	279.4
730.333	349.62
730.736	377.7
731.138	375.36
731.54	293.44
731.942	333.23
732.344	270.04
732.746	302.81
733.148	279.4
733.55	344.94
733.952	351.96
734.354	281.74
734.756	293.44
735.157	342.6
735.559	356.64
735.96	323.87
736.362	340.26
736.763	326.21
737.165	309.83
737.566	321.53
737.967	305.15
738.368	368.34
738.77	314.51
739.171	335.57
739.572	237.27
739.973	248.97
740.374	349.62
740.774	323.87
741.175	248.97
741.576	349.62
741.977	300.47
742.377	302.81
742.778	314.51
743.178	333.23
743.579	307.49
743.979	302.81
744.379	330.89
744.78	305.15
745.18	314.51
745.58	389.41
745.98	326.21
746.38	321.53
746.78	356.64
747.18	337.91
747.58	305.15
747.98	281.74
748.38	321.53
748.779	358.98
749.179	391.75
749.578	351.96
749.978	312.17
750.377	312.17
750.777	326.21
751.176	267.7
751.575	351.96
751.975	298.13
752.374	335.57
752.773	351.96
753.172	370.68
753.571	300.47
753.97	370.68
754.369	314.51
754.768	366
755.166	323.87
755.565	344.94
755.964	342.6
756.362	277.06
756.761	302.81
757.159	319.19
757.558	333.23
757.956	305.15
758.354	380.04
758.753	358.98
759.151	307.49
759.549	272.38
759.947	333.23
760.345	314.51
760.743	358.98
761.141	319.19
761.539	302.81
761.936	281.74
762.334	277.06
762.732	302.81
763.129	330.89
763.527	321.53
763.924	265.36
764.322	309.83
764.719	279.4
765.117	321.53
765.514	298.13
765.911	298.13
