Data from Al_FLMS009871__764__15-18-16-122.txt Node

Date: Fri Mar 08 15:18:16 CST 2024
User: pe5414po
Spectrometer: FLMS00987
Trigger mode: 0
Integration Time (sec): 1.000000E-1
Scans to average: 1
Electric dark correction enabled: true
Nonlinearity correction enabled: false
Boxcar width: 0
XAxis mode: Wavelengths
Number of Pixels in Spectrum: 2048
>>>>>Begin Spectral Data<<<<<
188.938	-86.31
189.409	-86.31
189.879	-86.31
190.349	-119.07
190.819	-79.29
191.29	-175.25
191.76	-86.31
192.23	-105.03
192.7	-112.05
193.17	-65.24
193.64	-107.37
194.109	-30.13
194.579	35.4
195.049	-6.73
195.519	12
195.988	56.47
196.458	86.89
196.927	96.25
197.397	164.13
197.866	122
198.336	114.98
198.805	154.77
199.274	112.64
199.744	164.13
200.213	250.73
200.682	206.26
201.151	178.17
201.62	260.09
202.089	262.43
202.558	241.37
203.027	269.45
203.495	274.14
203.964	306.9
204.433	283.5
204.902	255.41
205.37	274.14
205.839	299.88
206.307	302.22
206.776	304.56
207.244	323.29
207.712	224.98
208.181	325.63
208.649	276.48
209.117	332.65
209.585	257.75
210.053	339.67
210.521	260.09
210.989	267.11
211.457	290.52
211.925	360.74
212.393	295.2
212.861	292.86
213.328	210.94
213.796	353.71
214.264	248.39
214.731	337.33
215.199	323.29
215.666	253.07
216.133	260.09
216.601	304.56
217.068	208.6
217.535	234.35
218.003	250.73
218.47	353.71
218.937	257.75
219.404	281.16
219.871	269.45
220.338	302.22
220.805	241.37
221.271	285.84
221.738	278.82
222.205	250.73
222.671	267.11
223.138	260.09
223.605	276.48
224.071	241.37
224.538	283.5
225.004	196.9
225.47	288.18
225.937	262.43
226.403	246.05
226.869	295.2
227.335	288.18
227.801	264.77
228.267	213.28
228.733	290.52
229.199	290.52
229.665	227.32
230.131	257.75
230.597	274.14
231.062	283.5
231.528	213.28
231.994	290.52
232.459	285.84
232.925	285.84
233.39	332.65
233.856	325.63
234.321	250.73
234.786	318.61
235.252	253.07
235.717	257.75
236.182	297.54
236.647	269.45
237.112	325.63
237.577	274.14
238.042	267.11
238.507	260.09
238.972	283.5
239.436	260.09
239.901	234.35
240.366	327.97
240.83	297.54
241.295	220.3
241.76	250.73
242.224	213.28
242.688	302.22
243.153	288.18
243.617	281.16
244.081	334.99
244.545	269.45
245.01	309.24
245.474	227.32
245.938	232.01
246.402	274.14
246.866	274.14
247.33	316.26
247.793	290.52
248.257	278.82
248.721	276.48
249.185	304.56
249.648	278.82
250.112	302.22
250.575	325.63
251.039	285.84
251.502	281.16
251.965	292.86
252.429	248.39
252.892	208.6
253.355	276.48
253.818	311.58
254.281	318.61
254.744	323.29
255.207	239.03
255.67	327.97
256.133	276.48
256.596	288.18
257.059	342.01
257.522	313.92
257.984	344.35
258.447	327.97
258.909	278.82
259.372	281.16
259.834	267.11
260.297	264.77
260.759	278.82
261.221	288.18
261.684	260.09
262.146	309.24
262.608	267.11
263.07	297.54
263.532	320.95
263.994	339.67
264.456	297.54
264.918	257.75
265.38	302.22
265.842	276.48
266.303	304.56
266.765	278.82
267.227	271.79
267.688	267.11
268.15	313.92
268.611	253.07
269.072	269.45
269.534	292.86
269.995	271.79
270.456	290.52
270.918	217.96
271.379	353.71
271.84	327.97
272.301	311.58
272.762	288.18
273.223	285.84
273.684	288.18
274.144	311.58
274.605	332.65
275.066	339.67
275.527	313.92
275.987	278.82
276.448	285.84
276.908	318.61
277.369	243.71
277.829	332.65
278.289	288.18
278.75	276.48
279.21	344.35
279.67	339.67
280.13	313.92
280.59	274.14
281.05	248.39
281.51	302.22
281.97	276.48
282.43	257.75
282.89	295.2
283.35	281.16
283.809	253.07
284.269	299.88
284.729	295.2
285.188	327.97
285.648	292.86
286.107	269.45
286.567	320.95
287.026	309.24
287.485	377.12
287.944	276.48
288.404	320.95
288.863	281.16
289.322	269.45
289.781	281.16
290.24	276.48
290.699	299.88
291.158	227.32
291.616	274.14
292.075	302.22
292.534	323.29
292.992	320.95
293.451	281.16
293.91	290.52
294.368	271.79
294.827	365.42
295.285	304.56
295.743	316.26
296.202	250.73
296.66	372.44
297.118	250.73
297.576	281.16
298.034	358.39
298.492	288.18
298.95	269.45
299.408	334.99
299.866	297.54
300.324	318.61
300.781	330.31
301.239	297.54
301.697	320.95
302.154	278.82
302.612	320.95
303.069	295.2
303.527	297.54
303.984	309.24
304.441	363.08
304.899	304.56
305.356	309.24
305.813	302.22
306.27	330.31
306.727	278.82
307.184	332.65
307.641	358.39
308.098	271.79
308.555	304.56
309.012	330.31
309.468	327.97
309.925	229.67
310.382	339.67
310.838	290.52
311.295	285.84
311.751	344.35
312.208	327.97
312.664	309.24
313.12	330.31
313.577	342.01
314.033	316.26
314.489	306.9
314.945	288.18
315.401	332.65
315.857	346.69
316.313	246.05
316.769	283.5
317.225	339.67
317.681	295.2
318.136	320.95
318.592	332.65
319.048	257.75
319.503	351.37
319.959	332.65
320.414	323.29
320.869	351.37
321.325	295.2
321.78	327.97
322.235	398.18
322.691	318.61
323.146	356.05
323.601	327.97
324.056	302.22
324.511	356.05
324.966	278.82
325.421	334.99
325.875	255.41
326.33	346.69
326.785	292.86
327.24	316.26
327.694	358.39
328.149	313.92
328.603	283.5
329.058	313.92
329.512	302.22
329.966	332.65
330.421	295.2
330.875	304.56
331.329	313.92
331.783	365.42
332.237	267.11
332.691	318.61
333.145	332.65
333.599	318.61
334.053	297.54
334.507	295.2
334.96	255.41
335.414	337.33
335.868	269.45
336.321	339.67
336.775	327.97
337.228	374.78
337.682	400.52
338.135	292.86
338.588	318.61
339.042	320.95
339.495	302.22
339.948	292.86
340.401	332.65
340.854	311.58
341.307	313.92
341.76	356.05
342.213	295.2
342.666	281.16
343.119	281.16
343.571	309.24
344.024	330.31
344.477	304.56
344.929	288.18
345.382	292.86
345.834	316.26
346.287	360.74
346.739	295.2
347.191	311.58
347.644	281.16
348.096	250.73
348.548	313.92
349	346.69
349.452	323.29
349.904	306.9
350.356	339.67
350.808	313.92
351.26	367.76
351.711	337.33
352.163	349.03
352.615	365.42
353.066	267.11
353.518	346.69
353.969	344.35
354.421	318.61
354.872	339.67
355.324	360.74
355.775	372.44
356.226	306.9
356.677	292.86
357.128	374.78
357.579	318.61
358.03	372.44
358.481	255.41
358.932	342.01
359.383	297.54
359.834	260.09
360.285	363.08
360.735	351.37
361.186	318.61
361.637	288.18
362.087	358.39
362.538	316.26
362.988	365.42
363.438	269.45
363.889	358.39
364.339	290.52
364.789	325.63
365.239	334.99
365.689	339.67
366.139	299.88
366.589	302.22
367.039	339.67
367.489	386.48
367.939	299.88
368.389	334.99
368.839	290.52
369.288	295.2
369.738	262.43
370.187	203.92
370.637	372.44
371.086	377.12
371.536	323.29
371.985	302.22
372.434	349.03
372.884	320.95
373.333	318.61
373.782	365.42
374.231	332.65
374.68	332.65
375.129	309.24
375.578	363.08
376.027	320.95
376.475	318.61
376.924	342.01
377.373	316.26
377.822	316.26
378.27	365.42
378.719	269.45
379.167	290.52
379.616	330.31
380.064	264.77
380.512	278.82
380.961	297.54
381.409	334.99
381.857	290.52
382.305	370.1
382.753	283.5
383.201	297.54
383.649	353.71
384.097	292.86
384.545	309.24
384.992	313.92
385.44	325.63
385.888	320.95
386.335	323.29
386.783	344.35
387.231	337.33
387.678	274.14
388.125	271.79
388.573	285.84
389.02	433.29
389.467	344.35
389.914	281.16
390.362	330.31
390.809	365.42
391.256	271.79
391.703	264.77
392.15	344.35
392.596	309.24
393.043	292.86
393.49	260.09
393.937	295.2
394.383	311.58
394.83	278.82
395.276	318.61
395.723	325.63
396.169	313.92
396.616	360.74
397.062	269.45
397.508	330.31
397.954	339.67
398.401	327.97
398.847	342.01
399.293	302.22
399.739	299.88
400.185	379.46
400.631	283.5
401.076	379.46
401.522	332.65
401.968	349.03
402.414	285.84
402.859	360.74
403.305	295.2
403.75	299.88
404.196	342.01
404.641	351.37
405.086	356.05
405.532	356.05
405.977	334.99
406.422	337.33
406.867	332.65
407.312	320.95
407.757	302.22
408.202	377.12
408.647	349.03
409.092	332.65
409.537	285.84
409.982	332.65
410.426	295.2
410.871	327.97
411.316	313.92
411.76	370.1
412.205	351.37
412.649	379.46
413.093	330.31
413.538	309.24
413.982	323.29
414.426	304.56
414.87	360.74
415.314	271.79
415.758	278.82
416.202	285.84
416.646	327.97
417.09	346.69
417.534	260.09
417.978	302.22
418.421	379.46
418.865	358.39
419.309	292.86
419.752	283.5
420.196	295.2
420.639	346.69
421.083	276.48
421.526	342.01
421.969	290.52
422.412	360.74
422.856	283.5
423.299	290.52
423.742	313.92
424.185	311.58
424.628	262.43
425.071	346.69
425.513	306.9
425.956	285.84
426.399	313.92
426.842	283.5
427.284	316.26
427.727	344.35
428.169	309.24
428.612	327.97
429.054	323.29
429.497	405.21
429.939	339.67
430.381	391.16
430.823	311.58
431.265	285.84
431.707	257.75
432.149	351.37
432.591	349.03
433.033	313.92
433.475	285.84
433.917	239.03
434.359	360.74
434.8	337.33
435.242	299.88
435.684	365.42
436.125	299.88
436.567	299.88
437.008	316.26
437.449	297.54
437.891	306.9
438.332	311.58
438.773	278.82
439.214	297.54
439.656	316.26
440.097	325.63
440.538	370.1
440.978	302.22
441.419	250.73
441.86	283.5
442.301	330.31
442.742	323.29
443.182	304.56
443.623	395.84
444.063	285.84
444.504	309.24
444.944	318.61
445.385	290.52
445.825	332.65
446.265	370.1
446.706	349.03
447.146	274.14
447.586	330.31
448.026	327.97
448.466	201.58
448.906	342.01
449.346	384.14
449.786	295.2
450.225	316.26
450.665	356.05
451.105	332.65
451.544	311.58
451.984	285.84
452.424	372.44
452.863	292.86
453.302	351.37
453.742	370.1
454.181	346.69
454.62	316.26
455.059	281.16
455.499	327.97
455.938	299.88
456.377	334.99
456.816	349.03
457.254	320.95
457.693	344.35
458.132	414.57
458.571	339.67
459.01	276.48
459.448	323.29
459.887	334.99
460.325	342.01
460.764	313.92
461.202	337.33
461.641	356.05
462.079	288.18
462.517	332.65
462.955	323.29
463.393	288.18
463.832	334.99
464.27	288.18
464.708	299.88
465.145	342.01
465.583	246.05
466.021	339.67
466.459	316.26
466.897	316.26
467.334	295.2
467.772	285.84
468.209	332.65
468.647	278.82
469.084	283.5
469.522	281.16
469.959	342.01
470.396	323.29
470.833	339.67
471.271	309.24
471.708	372.44
472.145	327.97
472.582	365.42
473.019	323.29
473.456	269.45
473.892	325.63
474.329	311.58
474.766	363.08
475.202	271.79
475.639	316.26
476.076	344.35
476.512	346.69
476.949	292.86
477.385	316.26
477.821	288.18
478.258	316.26
478.694	311.58
479.13	374.78
479.566	306.9
480.002	311.58
480.438	372.44
480.874	356.05
481.31	288.18
481.746	306.9
482.181	313.92
482.617	353.71
483.053	264.77
483.488	302.22
483.924	320.95
484.36	304.56
484.795	367.76
485.23	356.05
485.666	285.84
486.101	295.2
486.536	318.61
486.971	332.65
487.407	349.03
487.842	290.52
488.277	346.69
488.712	367.76
489.146	276.48
489.581	388.82
490.016	320.95
490.451	339.67
490.885	327.97
491.32	257.75
491.755	327.97
492.189	285.84
492.624	309.24
493.058	395.84
493.492	290.52
493.927	339.67
494.361	323.29
494.795	297.54
495.229	257.75
495.663	330.31
496.097	370.1
496.531	342.01
496.965	311.58
497.399	351.37
497.833	281.16
498.266	332.65
498.7	327.97
499.134	318.61
499.567	370.1
500.001	320.95
500.434	253.07
500.868	377.12
501.301	344.35
501.734	356.05
502.168	346.69
502.601	269.45
503.034	271.79
503.467	278.82
503.9	367.76
504.333	320.95
504.766	330.31
505.199	264.77
505.632	363.08
506.064	332.65
506.497	342.01
506.93	285.84
507.362	318.61
507.795	302.22
508.227	299.88
508.66	304.56
509.092	332.65
509.524	297.54
509.956	351.37
510.389	349.03
510.821	356.05
511.253	267.11
511.685	316.26
512.117	342.01
512.549	379.46
512.981	320.95
513.412	281.16
513.844	353.71
514.276	327.97
514.707	332.65
515.139	356.05
515.571	349.03
516.002	367.76
516.433	344.35
516.865	281.16
517.296	311.58
517.727	337.33
518.159	318.61
518.59	395.84
519.021	292.86
519.452	276.48
519.883	320.95
520.314	311.58
520.744	342.01
521.175	281.16
521.606	309.24
522.037	267.11
522.467	356.05
522.898	271.79
523.328	260.09
523.759	306.9
524.189	337.33
524.62	320.95
525.05	344.35
525.48	414.57
525.91	349.03
526.341	344.35
526.771	276.48
527.201	358.39
527.631	323.29
528.061	285.84
528.49	409.89
528.92	346.69
529.35	304.56
529.78	267.11
530.209	295.2
530.639	353.71
531.068	316.26
531.498	342.01
531.927	285.84
532.357	267.11
532.786	325.63
533.215	358.39
533.644	239.03
534.074	290.52
534.503	257.75
534.932	344.35
535.361	295.2
535.79	313.92
536.218	292.86
536.647	398.18
537.076	344.35
537.505	351.37
537.933	346.69
538.362	384.14
538.79	295.2
539.219	306.9
539.647	374.78
540.076	334.99
540.504	344.35
540.932	323.29
541.36	344.35
541.788	306.9
542.217	344.35
542.645	339.67
543.073	304.56
543.5	330.31
543.928	349.03
544.356	288.18
544.784	337.33
545.211	313.92
545.639	290.52
546.067	304.56
546.494	334.99
546.922	330.31
547.349	290.52
547.776	349.03
548.204	342.01
548.631	274.14
549.058	313.92
549.485	316.26
549.912	332.65
550.339	290.52
550.766	342.01
551.193	276.48
551.62	297.54
552.047	356.05
552.474	381.8
552.9	281.16
553.327	342.01
553.754	278.82
554.18	306.9
554.607	292.86
555.033	320.95
555.459	299.88
555.886	260.09
556.312	391.16
556.738	299.88
557.164	299.88
557.59	330.31
558.016	334.99
558.442	320.95
558.868	250.73
559.294	292.86
559.72	365.42
560.145	334.99
560.571	342.01
560.997	367.76
561.422	356.05
561.848	325.63
562.273	292.86
562.699	262.43
563.124	370.1
563.549	358.39
563.974	330.31
564.4	365.42
564.825	320.95
565.25	327.97
565.675	318.61
566.1	407.55
566.525	349.03
566.95	337.33
567.374	311.58
567.799	353.71
568.224	290.52
568.648	356.05
569.073	353.71
569.497	332.65
569.922	236.69
570.346	353.71
570.771	339.67
571.195	325.63
571.619	351.37
572.043	285.84
572.467	344.35
572.891	304.56
573.315	288.18
573.739	327.97
574.163	323.29
574.587	306.9
575.011	351.37
575.435	311.58
575.858	316.26
576.282	267.11
576.705	320.95
577.129	327.97
577.552	323.29
577.976	278.82
578.399	332.65
578.822	374.78
579.245	353.71
579.669	351.37
580.092	292.86
580.515	327.97
580.938	288.18
581.361	377.12
581.784	332.65
582.206	313.92
582.629	363.08
583.052	274.14
583.474	342.01
583.897	313.92
584.32	299.88
584.742	377.12
585.165	313.92
585.587	313.92
586.009	323.29
586.431	330.31
586.854	342.01
587.276	290.52
587.698	374.78
588.12	346.69
588.542	370.1
588.964	323.29
589.386	334.99
589.807	367.76
590.229	363.08
590.651	342.01
591.073	309.24
591.494	363.08
591.916	271.79
592.337	320.95
592.759	332.65
593.18	241.37
593.601	316.26
594.022	339.67
594.444	276.48
594.865	290.52
595.286	302.22
595.707	264.77
596.128	332.65
596.549	290.52
596.97	325.63
597.39	356.05
597.811	271.79
598.232	337.33
598.652	311.58
599.073	395.84
599.494	344.35
599.914	241.37
600.334	278.82
600.755	398.18
601.175	346.69
601.595	334.99
602.015	278.82
602.436	367.76
602.856	449.68
603.276	320.95
603.696	325.63
604.115	349.03
604.535	388.82
604.955	377.12
605.375	281.16
605.794	288.18
606.214	365.42
606.634	318.61
607.053	313.92
607.473	330.31
607.892	363.08
608.311	316.26
608.731	255.41
609.15	365.42
609.569	327.97
609.988	269.45
610.407	339.67
610.826	342.01
611.245	334.99
611.664	297.54
612.083	330.31
612.501	309.24
612.92	290.52
613.339	334.99
613.757	292.86
614.176	318.61
614.594	288.18
615.013	372.44
615.431	344.35
615.85	304.56
616.268	353.71
616.686	372.44
617.104	302.22
617.522	344.35
617.94	313.92
618.358	367.76
618.776	302.22
619.194	281.16
619.612	316.26
620.03	318.61
620.447	285.84
620.865	327.97
621.282	330.31
621.7	320.95
622.117	302.22
622.535	365.42
622.952	353.71
623.369	304.56
623.787	285.84
624.204	356.05
624.621	330.31
625.038	363.08
625.455	276.48
625.872	285.84
626.289	302.22
626.706	351.37
627.123	241.37
627.539	276.48
627.956	337.33
628.373	356.05
628.789	271.79
629.206	353.71
629.622	356.05
630.038	311.58
630.455	306.9
630.871	320.95
631.287	334.99
631.703	297.54
632.12	346.69
632.536	339.67
632.952	318.61
633.368	349.03
633.783	367.76
634.199	316.26
634.615	309.24
635.031	274.14
635.446	337.33
635.862	351.37
636.277	306.9
636.693	320.95
637.108	384.14
637.524	292.86
637.939	309.24
638.354	292.86
638.77	295.2
639.185	372.44
639.6	257.75
640.015	306.9
640.43	206.26
640.845	342.01
641.259	325.63
641.674	374.78
642.089	320.95
642.504	334.99
642.918	332.65
643.333	349.03
643.747	297.54
644.162	351.37
644.576	367.76
644.991	318.61
645.405	365.42
645.819	306.9
646.233	309.24
646.647	356.05
647.061	278.82
647.475	250.73
647.889	349.03
648.303	386.48
648.717	320.95
649.131	306.9
649.545	320.95
649.958	313.92
650.372	313.92
650.785	388.82
651.199	302.22
651.612	370.1
652.026	318.61
652.439	313.92
652.852	342.01
653.266	304.56
653.679	351.37
654.092	292.86
654.505	271.79
654.918	327.97
655.331	323.29
655.744	323.29
656.156	323.29
656.569	349.03
656.982	306.9
657.394	290.52
657.807	374.78
658.22	318.61
658.632	342.01
659.044	320.95
659.457	372.44
659.869	292.86
660.281	358.39
660.693	295.2
661.106	337.33
661.518	330.31
661.93	332.65
662.342	327.97
662.754	285.84
663.165	246.05
663.577	299.88
663.989	356.05
664.401	358.39
664.812	327.97
665.224	309.24
665.635	358.39
666.047	334.99
666.458	327.97
666.869	288.18
667.281	330.31
667.692	346.69
668.103	363.08
668.514	358.39
668.925	320.95
669.336	379.46
669.747	232.01
670.158	316.26
670.569	267.11
670.979	332.65
671.39	304.56
671.801	302.22
672.211	283.5
672.622	351.37
673.032	327.97
673.443	323.29
673.853	351.37
674.263	267.11
674.674	295.2
675.084	311.58
675.494	351.37
675.904	262.43
676.314	374.78
676.724	323.29
677.134	285.84
677.544	313.92
677.953	297.54
678.363	344.35
678.773	374.78
679.182	318.61
679.592	360.74
680.001	297.54
680.411	316.26
680.82	349.03
681.23	358.39
681.639	295.2
682.048	260.09
682.457	349.03
682.866	332.65
683.275	290.52
683.684	267.11
684.093	320.95
684.502	360.74
684.911	281.16
685.32	306.9
685.728	295.2
686.137	281.16
686.546	281.16
686.954	325.63
687.363	344.35
687.771	309.24
688.179	255.41
688.588	353.71
688.996	283.5
689.404	283.5
689.812	311.58
690.22	356.05
690.628	325.63
691.036	346.69
691.444	342.01
691.852	342.01
692.26	358.39
692.667	349.03
693.075	414.57
693.483	374.78
693.89	271.79
694.298	356.05
694.705	332.65
695.112	267.11
695.52	386.48
695.927	344.35
696.334	292.86
696.741	313.92
697.148	365.42
697.555	220.3
697.962	297.54
698.369	313.92
698.776	327.97
699.183	334.99
699.59	337.33
699.996	297.54
700.403	309.24
700.81	288.18
701.216	325.63
701.623	283.5
702.029	339.67
702.435	306.9
702.842	316.26
703.248	353.71
703.654	290.52
704.06	356.05
704.466	241.37
704.872	269.45
705.278	320.95
705.684	292.86
706.09	302.22
706.496	255.41
706.901	297.54
707.307	299.88
707.712	327.97
708.118	304.56
708.523	346.69
708.929	274.14
709.334	349.03
709.74	320.95
710.145	342.01
710.55	400.52
710.955	309.24
711.36	351.37
711.765	374.78
712.17	412.23
712.575	302.22
712.98	751.6
713.385	379.46
713.789	349.03
714.194	269.45
714.599	290.52
715.003	346.69
715.408	332.65
715.812	290.52
716.217	334.99
716.621	381.8
717.025	316.26
717.429	313.92
717.833	334.99
718.238	320.95
718.642	325.63
719.046	292.86
719.449	309.24
719.853	288.18
720.257	351.37
720.661	330.31
721.065	360.74
721.468	311.58
721.872	334.99
722.275	281.16
722.679	285.84
723.082	318.61
723.485	327.97
723.889	334.99
724.292	353.71
724.695	351.37
725.098	311.58
725.501	363.08
725.904	358.39
726.307	334.99
726.71	304.56
727.113	337.33
727.516	278.82
727.918	356.05
728.321	334.99
728.724	323.29
729.126	367.76
729.529	344.35
729.931	316.26
730.333	358.39
730.736	337.33
731.138	318.61
731.54	255.41
731.942	292.86
732.344	313.92
732.746	316.26
733.148	292.86
733.55	318.61
733.952	290.52
734.354	295.2
734.756	283.5
735.157	281.16
735.559	344.35
735.96	344.35
736.362	285.84
736.763	337.33
737.165	320.95
737.566	353.71
737.967	372.44
738.368	342.01
738.77	278.82
739.171	276.48
739.572	292.86
739.973	292.86
740.374	267.11
740.774	297.54
741.175	309.24
741.576	318.61
741.977	229.67
742.377	365.42
742.778	292.86
743.178	320.95
743.579	372.44
743.979	342.01
744.379	372.44
744.78	299.88
745.18	318.61
745.58	377.12
745.98	337.33
746.38	278.82
746.78	264.77
747.18	395.84
747.58	323.29
747.98	325.63
748.38	274.14
748.779	281.16
749.179	360.74
749.578	271.79
749.978	288.18
750.377	346.69
750.777	344.35
751.176	304.56
751.575	316.26
751.975	311.58
752.374	320.95
752.773	255.41
753.172	281.16
753.571	274.14
753.97	346.69
754.369	327.97
754.768	276.48
755.166	320.95
755.565	295.2
755.964	334.99
756.362	316.26
756.761	346.69
757.159	257.75
757.558	356.05
757.956	297.54
758.354	306.9
758.753	274.14
759.151	318.61
759.549	236.69
759.947	278.82
760.345	358.39
760.743	299.88
761.141	274.14
761.539	327.97
761.936	288.18
762.334	295.2
762.732	297.54
763.129	342.01
763.527	320.95
763.924	334.99
