Data from Al_FLMS009871__777__15-18-17-422.txt Node

Date: Fri Mar 08 15:18:17 CST 2024
User: pe5414po
Spectrometer: FLMS00987
Trigger mode: 0
Integration Time (sec): 1.000000E-1
Scans to average: 1
Electric dark correction enabled: true
Nonlinearity correction enabled: false
Boxcar width: 0
XAxis mode: Wavelengths
Number of Pixels in Spectrum: 2048
>>>>>Begin Spectral Data<<<<<
188.938	-55.15
189.409	-55.15
189.879	-55.15
190.349	-69.19
190.819	-24.72
191.29	-104.3
191.76	-148.77
192.23	5.71
192.7	-69.19
193.17	-104.3
193.64	-139.41
194.109	45.49
194.579	19.75
195.049	-41.11
195.519	-17.7
195.988	40.81
196.458	24.43
196.927	54.86
197.397	132.09
197.866	157.84
198.336	143.8
198.805	169.54
199.274	136.78
199.744	284.23
200.213	221.03
200.682	185.93
201.151	270.19
201.62	263.16
202.089	279.55
202.558	295.93
203.027	244.44
203.495	314.66
203.964	251.46
204.433	272.53
204.902	295.93
205.37	335.72
205.839	286.57
206.307	356.79
206.776	284.23
207.244	314.66
207.712	300.61
208.181	338.06
208.649	345.08
209.117	377.85
209.585	319.34
210.053	321.68
210.521	326.36
210.989	235.08
211.457	307.63
211.925	270.19
212.393	284.23
212.861	347.42
213.328	312.32
213.796	366.15
214.264	291.25
214.731	302.95
215.199	340.4
215.666	293.59
216.133	326.36
216.601	307.63
217.068	288.91
217.535	256.14
218.003	321.68
218.47	319.34
218.937	263.16
219.404	309.97
219.871	256.14
220.338	363.81
220.805	260.82
221.271	312.32
221.738	288.91
222.205	321.68
222.671	263.16
223.138	286.57
223.605	214.01
224.071	338.06
224.538	302.95
225.004	284.23
225.47	244.44
225.937	253.8
226.403	326.36
226.869	279.55
227.335	279.55
227.801	345.08
228.267	270.19
228.733	221.03
229.199	281.89
229.665	235.08
230.131	216.35
230.597	286.57
231.062	267.85
231.528	274.87
231.994	302.95
232.459	354.44
232.925	263.16
233.39	291.25
233.856	260.82
234.321	340.4
234.786	258.48
235.252	326.36
235.717	302.95
236.182	244.44
236.647	326.36
237.112	333.38
237.577	258.48
238.042	293.59
238.507	265.5
238.972	338.06
239.436	258.48
239.901	258.48
240.366	307.63
240.83	298.27
241.295	260.82
241.76	319.34
242.224	277.21
242.688	225.72
243.153	253.8
243.617	291.25
244.081	228.06
244.545	216.35
245.01	298.27
245.474	256.14
245.938	274.87
246.402	307.63
246.866	293.59
247.33	258.48
247.793	317
248.257	242.1
248.721	314.66
249.185	251.46
249.648	286.57
250.112	267.85
250.575	417.64
251.039	291.25
251.502	291.25
251.965	333.38
252.429	272.53
252.892	314.66
253.355	265.5
253.818	298.27
254.281	272.53
254.744	321.68
255.207	342.74
255.67	246.78
256.133	253.8
256.596	312.32
257.059	321.68
257.522	314.66
257.984	331.04
258.447	260.82
258.909	331.04
259.372	349.76
259.834	225.72
260.297	284.23
260.759	319.34
261.221	345.08
261.684	251.46
262.146	312.32
262.608	302.95
263.07	270.19
263.532	277.21
263.994	370.83
264.456	363.81
264.918	265.5
265.38	281.89
265.842	338.06
266.303	347.42
266.765	342.74
267.227	293.59
267.688	326.36
268.15	302.95
268.611	298.27
269.072	295.93
269.534	284.23
269.995	342.74
270.456	359.13
270.918	338.06
271.379	305.29
271.84	279.55
272.301	281.89
272.762	307.63
273.223	293.59
273.684	314.66
274.144	277.21
274.605	302.95
275.066	286.57
275.527	317
275.987	333.38
276.448	309.97
276.908	298.27
277.369	300.61
277.829	342.74
278.289	295.93
278.75	251.46
279.21	319.34
279.67	331.04
280.13	319.34
280.59	249.12
281.05	272.53
281.51	274.87
281.97	354.44
282.43	284.23
282.89	347.42
283.35	288.91
283.809	317
284.269	291.25
284.729	246.78
285.188	349.76
285.648	291.25
286.107	333.38
286.567	326.36
287.026	274.87
287.485	307.63
287.944	307.63
288.404	347.42
288.863	249.12
289.322	279.55
289.781	277.21
290.24	314.66
290.699	317
291.158	384.87
291.616	300.61
292.075	309.97
292.534	309.97
292.992	309.97
293.451	349.76
293.91	363.81
294.368	368.49
294.827	307.63
295.285	307.63
295.743	312.32
296.202	324.02
296.66	279.55
297.118	216.35
297.576	347.42
298.034	274.87
298.492	319.34
298.95	309.97
299.408	321.68
299.866	373.17
300.324	340.4
300.781	302.95
301.239	317
301.697	354.44
302.154	342.74
302.612	274.87
303.069	359.13
303.527	309.97
303.984	324.02
304.441	328.7
304.899	363.81
305.356	284.23
305.813	359.13
306.27	300.61
306.727	284.23
307.184	272.53
307.641	335.72
308.098	326.36
308.555	359.13
309.012	246.78
309.468	321.68
309.925	361.47
310.382	366.15
310.838	321.68
311.295	293.59
311.751	335.72
312.208	249.12
312.664	232.74
313.12	326.36
313.577	345.08
314.033	361.47
314.489	338.06
314.945	305.29
315.401	277.21
315.857	319.34
316.313	389.55
316.769	340.4
317.225	281.89
317.681	267.85
318.136	354.44
318.592	263.16
319.048	307.63
319.503	307.63
319.959	305.29
320.414	338.06
320.869	312.32
321.325	380.19
321.78	361.47
322.235	295.93
322.691	335.72
323.146	331.04
323.601	309.97
324.056	281.89
324.511	333.38
324.966	309.97
325.421	302.95
325.875	321.68
326.33	331.04
326.785	277.21
327.24	368.49
327.694	302.95
328.149	298.27
328.603	331.04
329.058	281.89
329.512	359.13
329.966	326.36
330.421	314.66
330.875	335.72
331.329	302.95
331.783	288.91
332.237	258.48
332.691	291.25
333.145	361.47
333.599	326.36
334.053	249.12
334.507	295.93
334.96	349.76
335.414	338.06
335.868	314.66
336.321	272.53
336.775	333.38
337.228	331.04
337.682	340.4
338.135	309.97
338.588	321.68
339.042	281.89
339.495	298.27
339.948	363.81
340.401	345.08
340.854	288.91
341.307	335.72
341.76	347.42
342.213	328.7
342.666	319.34
343.119	309.97
343.571	328.7
344.024	326.36
344.477	274.87
344.929	307.63
345.382	335.72
345.834	256.14
346.287	338.06
346.739	354.44
347.191	286.57
347.644	338.06
348.096	345.08
348.548	340.4
349	263.16
349.452	324.02
349.904	298.27
350.356	352.1
350.808	312.32
351.26	321.68
351.711	370.83
352.163	295.93
352.615	324.02
353.066	349.76
353.518	377.85
353.969	324.02
354.421	291.25
354.872	352.1
355.324	340.4
355.775	284.23
356.226	370.83
356.677	293.59
357.128	352.1
357.579	302.95
358.03	312.32
358.481	286.57
358.932	368.49
359.383	319.34
359.834	391.89
360.285	298.27
360.735	324.02
361.186	317
361.637	331.04
362.087	361.47
362.538	389.55
362.988	295.93
363.438	324.02
363.889	331.04
364.339	356.79
364.789	286.57
365.239	305.29
365.689	347.42
366.139	377.85
366.589	293.59
367.039	314.66
367.489	286.57
367.939	274.87
368.389	293.59
368.839	359.13
369.288	300.61
369.738	300.61
370.187	317
370.637	251.46
371.086	312.32
371.536	279.55
371.985	302.95
372.434	300.61
372.884	342.74
373.333	265.5
373.782	324.02
374.231	288.91
374.68	340.4
375.129	380.19
375.578	321.68
376.027	295.93
376.475	324.02
376.924	401.26
377.373	305.29
377.822	377.85
378.27	314.66
378.719	398.92
379.167	366.15
379.616	366.15
380.064	307.63
380.512	258.48
380.961	347.42
381.409	331.04
381.857	345.08
382.305	347.42
382.753	309.97
383.201	274.87
383.649	382.53
384.097	319.34
384.545	331.04
384.992	359.13
385.44	317
385.888	305.29
386.335	312.32
386.783	298.27
387.231	340.4
387.678	352.1
388.125	319.34
388.573	340.4
389.02	338.06
389.467	335.72
389.914	309.97
390.362	298.27
390.809	349.76
391.256	363.81
391.703	319.34
392.15	359.13
392.596	384.87
393.043	326.36
393.49	324.02
393.937	265.5
394.383	377.85
394.83	326.36
395.276	305.29
395.723	295.93
396.169	312.32
396.616	312.32
397.062	295.93
397.508	324.02
397.954	305.29
398.401	359.13
398.847	363.81
399.293	324.02
399.739	291.25
400.185	324.02
400.631	345.08
401.076	305.29
401.522	342.74
401.968	293.59
402.414	333.38
402.859	352.1
403.305	333.38
403.75	384.87
404.196	317
404.641	375.51
405.086	389.55
405.532	333.38
405.977	363.81
406.422	398.92
406.867	368.49
407.312	324.02
407.757	342.74
408.202	370.83
408.647	394.23
409.092	321.68
409.537	281.89
409.982	272.53
410.426	309.97
410.871	354.44
411.316	321.68
411.76	373.17
412.205	359.13
412.649	312.32
413.093	324.02
413.538	363.81
413.982	272.53
414.426	345.08
414.87	317
415.314	281.89
415.758	314.66
416.202	349.76
416.646	267.85
417.09	338.06
417.534	284.23
417.978	277.21
418.421	307.63
418.865	305.29
419.309	317
419.752	331.04
420.196	328.7
420.639	295.93
421.083	356.79
421.526	295.93
421.969	288.91
422.412	321.68
422.856	328.7
423.299	326.36
423.742	347.42
424.185	384.87
424.628	359.13
425.071	368.49
425.513	356.79
425.956	335.72
426.399	279.55
426.842	288.91
427.284	331.04
427.727	405.94
428.169	267.85
428.612	314.66
429.054	300.61
429.497	298.27
429.939	288.91
430.381	300.61
430.823	338.06
431.265	279.55
431.707	319.34
432.149	319.34
432.591	345.08
433.033	321.68
433.475	291.25
433.917	293.59
434.359	373.17
434.8	309.97
435.242	349.76
435.684	317
436.125	326.36
436.567	305.29
437.008	335.72
437.449	288.91
437.891	281.89
438.332	333.38
438.773	291.25
439.214	291.25
439.656	375.51
440.097	246.78
440.538	324.02
440.978	405.94
441.419	405.94
441.86	312.32
442.301	368.49
442.742	338.06
443.182	321.68
443.623	401.26
444.063	335.72
444.504	302.95
444.944	312.32
445.385	331.04
445.825	305.29
446.265	295.93
446.706	321.68
447.146	312.32
447.586	307.63
448.026	338.06
448.466	352.1
448.906	331.04
449.346	298.27
449.786	281.89
450.225	363.81
450.665	300.61
451.105	302.95
451.544	361.47
451.984	331.04
452.424	338.06
452.863	387.21
453.302	288.91
453.742	361.47
454.181	284.23
454.62	335.72
455.059	335.72
455.499	286.57
455.938	389.55
456.377	331.04
456.816	295.93
457.254	356.79
457.693	291.25
458.132	352.1
458.571	298.27
459.01	314.66
459.448	354.44
459.887	317
460.325	333.38
460.764	309.97
461.202	366.15
461.641	347.42
462.079	347.42
462.517	277.21
462.955	317
463.393	335.72
463.832	312.32
464.27	321.68
464.708	412.96
465.145	361.47
465.583	356.79
466.021	391.89
466.459	321.68
466.897	354.44
467.334	328.7
467.772	368.49
468.209	305.29
468.647	335.72
469.084	328.7
469.522	302.95
469.959	368.49
470.396	324.02
470.833	333.38
471.271	326.36
471.708	331.04
472.145	335.72
472.582	342.74
473.019	295.93
473.456	352.1
473.892	279.55
474.329	361.47
474.766	333.38
475.202	356.79
475.639	333.38
476.076	408.28
476.512	314.66
476.949	314.66
477.385	312.32
477.821	328.7
478.258	277.21
478.694	309.97
479.13	342.74
479.566	354.44
480.002	260.82
480.438	305.29
480.874	307.63
481.31	398.92
481.746	347.42
482.181	319.34
482.617	370.83
483.053	347.42
483.488	319.34
483.924	302.95
484.36	284.23
484.795	342.74
485.23	331.04
485.666	321.68
486.101	363.81
486.536	340.4
486.971	286.57
487.407	354.44
487.842	293.59
488.277	291.25
488.712	326.36
489.146	384.87
489.581	314.66
490.016	349.76
490.451	302.95
490.885	394.23
491.32	410.62
491.755	342.74
492.189	340.4
492.624	340.4
493.058	340.4
493.492	295.93
493.927	253.8
494.361	335.72
494.795	312.32
495.229	340.4
495.663	328.7
496.097	321.68
496.531	324.02
496.965	293.59
497.399	387.21
497.833	373.17
498.266	349.76
498.7	300.61
499.134	298.27
499.567	448.07
500.001	319.34
500.434	307.63
500.868	373.17
501.301	352.1
501.734	291.25
502.168	326.36
502.601	361.47
503.034	370.83
503.467	300.61
503.9	298.27
504.333	380.19
504.766	375.51
505.199	324.02
505.632	237.42
506.064	389.55
506.497	281.89
506.93	284.23
507.362	300.61
507.795	293.59
508.227	338.06
508.66	359.13
509.092	335.72
509.524	321.68
509.956	340.4
510.389	321.68
510.821	307.63
511.253	361.47
511.685	274.87
512.117	256.14
512.549	354.44
512.981	352.1
513.412	328.7
513.844	359.13
514.276	331.04
514.707	338.06
515.139	361.47
515.571	270.19
516.002	335.72
516.433	349.76
516.865	298.27
517.296	347.42
517.727	356.79
518.159	347.42
518.59	298.27
519.021	281.89
519.452	349.76
519.883	298.27
520.314	345.08
520.744	352.1
521.175	349.76
521.606	317
522.037	366.15
522.467	342.74
522.898	375.51
523.328	279.55
523.759	361.47
524.189	284.23
524.62	295.93
525.05	279.55
525.48	333.38
525.91	342.74
526.341	359.13
526.771	342.74
527.201	300.61
527.631	267.85
528.061	417.64
528.49	340.4
528.92	309.97
529.35	293.59
529.78	305.29
530.209	352.1
530.639	373.17
531.068	331.04
531.498	307.63
531.927	324.02
532.357	389.55
532.786	277.21
533.215	302.95
533.644	384.87
534.074	309.97
534.503	375.51
534.932	342.74
535.361	340.4
535.79	335.72
536.218	349.76
536.647	335.72
537.076	305.29
537.505	387.21
537.933	281.89
538.362	345.08
538.79	380.19
539.219	389.55
539.647	419.98
540.076	317
540.504	267.85
540.932	338.06
541.36	281.89
541.788	342.74
542.217	328.7
542.645	333.38
543.073	354.44
543.5	317
543.928	394.23
544.356	335.72
544.784	375.51
545.211	324.02
545.639	314.66
546.067	307.63
546.494	384.87
546.922	284.23
547.349	324.02
547.776	300.61
548.204	286.57
548.631	335.72
549.058	331.04
549.485	338.06
549.912	274.87
550.339	324.02
550.766	370.83
551.193	377.85
551.62	274.87
552.047	345.08
552.474	291.25
552.9	352.1
553.327	382.53
553.754	434.02
554.18	314.66
554.607	354.44
555.033	328.7
555.459	324.02
555.886	317
556.312	305.29
556.738	319.34
557.164	359.13
557.59	333.38
558.016	347.42
558.442	300.61
558.868	382.53
559.294	317
559.72	286.57
560.145	326.36
560.571	415.3
560.997	398.92
561.422	356.79
561.848	319.34
562.273	370.83
562.699	293.59
563.124	338.06
563.549	321.68
563.974	340.4
564.4	338.06
564.825	312.32
565.25	265.5
565.675	382.53
566.1	317
566.525	354.44
566.95	274.87
567.374	331.04
567.799	309.97
568.224	319.34
568.648	342.74
569.073	317
569.497	359.13
569.922	326.36
570.346	293.59
570.771	342.74
571.195	347.42
571.619	331.04
572.043	328.7
572.467	331.04
572.891	361.47
573.315	274.87
573.739	312.32
574.163	265.5
574.587	331.04
575.011	352.1
575.435	373.17
575.858	307.63
576.282	354.44
576.705	363.81
577.129	258.48
577.552	356.79
577.976	342.74
578.399	333.38
578.822	328.7
579.245	263.16
579.669	307.63
580.092	277.21
580.515	295.93
580.938	415.3
581.361	242.1
581.784	319.34
582.206	295.93
582.629	356.79
583.052	302.95
583.474	361.47
583.897	293.59
584.32	333.38
584.742	363.81
585.165	326.36
585.587	338.06
586.009	312.32
586.431	375.51
586.854	342.74
587.276	291.25
587.698	340.4
588.12	340.4
588.542	391.89
588.964	291.25
589.386	354.44
589.807	335.72
590.229	298.27
590.651	309.97
591.073	326.36
591.494	324.02
591.916	277.21
592.337	347.42
592.759	302.95
593.18	309.97
593.601	370.83
594.022	384.87
594.444	326.36
594.865	345.08
595.286	326.36
595.707	314.66
596.128	335.72
596.549	347.42
596.97	375.51
597.39	370.83
597.811	324.02
598.232	291.25
598.652	345.08
599.073	312.32
599.494	352.1
599.914	314.66
600.334	284.23
600.755	309.97
601.175	335.72
601.595	324.02
602.015	324.02
602.436	354.44
602.856	522.96
603.276	347.42
603.696	314.66
604.115	384.87
604.535	333.38
604.955	328.7
605.375	340.4
605.794	333.38
606.214	335.72
606.634	291.25
607.053	354.44
607.473	312.32
607.892	291.25
608.311	389.55
608.731	363.81
609.15	328.7
609.569	331.04
609.988	335.72
610.407	300.61
610.826	314.66
611.245	391.89
611.664	340.4
612.083	300.61
612.501	326.36
612.92	281.89
613.339	380.19
613.757	382.53
614.176	335.72
614.594	328.7
615.013	312.32
615.431	370.83
615.85	319.34
616.268	263.16
616.686	279.55
617.104	228.06
617.522	309.97
617.94	242.1
618.358	331.04
618.776	305.29
619.194	368.49
619.612	405.94
620.03	305.29
620.447	312.32
620.865	291.25
621.282	326.36
621.7	331.04
622.117	319.34
622.535	298.27
622.952	359.13
623.369	342.74
623.787	317
624.204	317
624.621	375.51
625.038	340.4
625.455	347.42
625.872	347.42
626.289	291.25
626.706	368.49
627.123	312.32
627.539	340.4
627.956	288.91
628.373	317
628.789	340.4
629.206	349.76
629.622	256.14
630.038	319.34
630.455	366.15
630.871	340.4
631.287	368.49
631.703	340.4
632.12	359.13
632.536	345.08
632.952	359.13
633.368	373.17
633.783	354.44
634.199	345.08
634.615	305.29
635.031	340.4
635.446	347.42
635.862	291.25
636.277	291.25
636.693	281.89
637.108	335.72
637.524	326.36
637.939	349.76
638.354	363.81
638.77	335.72
639.185	300.61
639.6	347.42
640.015	377.85
640.43	309.97
640.845	366.15
641.259	293.59
641.674	317
642.089	302.95
642.504	382.53
642.918	321.68
643.333	288.91
643.747	384.87
644.162	335.72
644.576	314.66
644.991	307.63
645.405	338.06
645.819	312.32
646.233	305.29
646.647	324.02
647.061	403.6
647.475	302.95
647.889	331.04
648.303	338.06
648.717	370.83
649.131	288.91
649.545	321.68
649.958	274.87
650.372	331.04
650.785	389.55
651.199	319.34
651.612	363.81
652.026	345.08
652.439	363.81
652.852	370.83
653.266	317
653.679	366.15
654.092	324.02
654.505	305.29
654.918	361.47
655.331	319.34
655.744	326.36
656.156	253.8
656.569	295.93
656.982	305.29
657.394	340.4
657.807	361.47
658.22	354.44
658.632	347.42
659.044	342.74
659.457	298.27
659.869	277.21
660.281	319.34
660.693	242.1
661.106	291.25
661.518	352.1
661.93	347.42
662.342	359.13
662.754	333.38
663.165	331.04
663.577	309.97
663.989	419.98
664.401	307.63
664.812	338.06
665.224	354.44
665.635	307.63
666.047	328.7
666.458	300.61
666.869	359.13
667.281	309.97
667.692	300.61
668.103	340.4
668.514	302.95
668.925	335.72
669.336	373.17
669.747	368.49
670.158	317
670.569	326.36
670.979	324.02
671.39	328.7
671.801	340.4
672.211	366.15
672.622	338.06
673.032	412.96
673.443	345.08
673.853	331.04
674.263	349.76
674.674	359.13
675.084	312.32
675.494	314.66
675.904	345.08
676.314	349.76
676.724	293.59
677.134	349.76
677.544	356.79
677.953	342.74
678.363	307.63
678.773	415.3
679.182	312.32
679.592	321.68
680.001	314.66
680.411	352.1
680.82	354.44
681.23	307.63
681.639	359.13
682.048	291.25
682.457	333.38
682.866	347.42
683.275	356.79
683.684	270.19
684.093	368.49
684.502	342.74
684.911	288.91
685.32	312.32
685.728	314.66
686.137	288.91
686.546	347.42
686.954	370.83
687.363	298.27
687.771	384.87
688.179	333.38
688.588	298.27
688.996	352.1
689.404	352.1
689.812	326.36
690.22	347.42
690.628	352.1
691.036	286.57
691.444	291.25
691.852	319.34
692.26	265.5
692.667	347.42
693.075	338.06
693.483	373.17
693.89	293.59
694.298	340.4
694.705	368.49
695.112	377.85
695.52	272.53
695.927	284.23
696.334	321.68
696.741	340.4
697.148	321.68
697.555	302.95
697.962	326.36
698.369	302.95
698.776	312.32
699.183	326.36
699.59	321.68
699.996	328.7
700.403	312.32
700.81	335.72
701.216	370.83
701.623	359.13
702.029	368.49
702.435	363.81
702.842	347.42
703.248	328.7
703.654	335.72
704.06	302.95
704.466	347.42
704.872	368.49
705.278	312.32
705.684	319.34
706.09	302.95
706.496	368.49
706.901	373.17
707.307	368.49
707.712	331.04
708.118	302.95
708.523	331.04
708.929	309.97
709.334	307.63
709.74	401.26
710.145	354.44
710.55	359.13
710.955	326.36
711.36	281.89
711.765	366.15
712.17	356.79
712.575	256.14
712.98	815.53
713.385	340.4
713.789	288.91
714.194	321.68
714.599	256.14
715.003	340.4
715.408	312.32
715.812	277.21
716.217	321.68
716.621	302.95
717.025	354.44
717.429	359.13
717.833	347.42
718.238	279.55
718.642	345.08
719.046	352.1
719.449	317
719.853	302.95
720.257	342.74
720.661	319.34
721.065	267.85
721.468	309.97
721.872	368.49
722.275	291.25
722.679	307.63
723.082	300.61
723.485	312.32
723.889	326.36
724.292	387.21
724.695	352.1
725.098	377.85
725.501	359.13
725.904	328.7
726.307	321.68
726.71	366.15
727.113	321.68
727.516	270.19
727.918	298.27
728.321	321.68
728.724	345.08
729.126	377.85
729.529	389.55
729.931	267.85
730.333	326.36
730.736	338.06
731.138	288.91
731.54	333.38
731.942	347.42
732.344	291.25
732.746	331.04
733.148	309.97
733.55	342.74
733.952	307.63
734.354	377.85
734.756	354.44
735.157	349.76
735.559	356.79
735.96	291.25
736.362	317
736.763	314.66
737.165	377.85
737.566	359.13
737.967	363.81
738.368	314.66
738.77	300.61
739.171	326.36
739.572	317
739.973	338.06
740.374	338.06
740.774	312.32
741.175	352.1
741.576	352.1
741.977	434.02
742.377	345.08
742.778	298.27
743.178	309.97
743.579	328.7
743.979	288.91
744.379	356.79
744.78	389.55
745.18	345.08
745.58	298.27
745.98	328.7
746.38	326.36
746.78	356.79
747.18	370.83
747.58	300.61
747.98	331.04
748.38	291.25
748.779	284.23
749.179	324.02
749.578	317
749.978	270.19
750.377	345.08
750.777	349.76
751.176	328.7
751.575	356.79
751.975	319.34
752.374	314.66
752.773	377.85
753.172	331.04
753.571	326.36
753.97	265.5
754.369	342.74
754.768	279.55
755.166	293.59
755.565	333.38
755.964	270.19
756.362	295.93
756.761	300.61
757.159	345.08
757.558	338.06
757.956	333.38
758.354	333.38
758.753	317
759.151	356.79
759.549	363.81
759.947	314.66
760.345	324.02
760.743	356.79
761.141	335.72
761.539	319.34
761.936	328.7
762.334	356.79
762.732	321.68
763.129	267.85
763.527	265.5
763.924	302.95
764.322	312.32
764.719	368.49
765.117	333.38
765.514	298.27
765.911	340.4
766.308	317
766.705	270.19
767.102	356.79
