Data from Al_FLMS009871__778__15-18-17-522.txt Node

Date: Fri Mar 08 15:18:17 CST 2024
User: pe5414po
Spectrometer: FLMS00987
Trigger mode: 0
Integration Time (sec): 1.000000E-1
Scans to average: 1
Electric dark correction enabled: true
Nonlinearity correction enabled: false
Boxcar width: 0
XAxis mode: Wavelengths
Number of Pixels in Spectrum: 2048
>>>>>Begin Spectral Data<<<<<
188.938	-46.81
189.409	-46.81
189.879	-46.81
190.349	-77.24
190.819	-86.6
191.29	-114.69
191.76	-95.96
192.23	-107.66
192.7	-37.45
193.17	-84.26
193.64	-18.72
194.109	-70.22
194.579	-37.45
195.049	49.15
195.519	49.15
195.988	53.83
196.458	28.09
196.927	100.64
197.397	72.56
197.866	58.51
198.336	154.48
198.805	114.69
199.274	154.48
199.744	140.43
200.213	231.71
200.682	210.65
201.151	184.9
201.62	262.14
202.089	236.39
202.558	252.78
203.027	210.65
203.495	285.55
203.964	278.52
204.433	278.52
204.902	245.76
205.37	318.31
205.839	313.63
206.307	351.08
206.776	280.86
207.244	287.89
207.712	227.03
208.181	262.14
208.649	271.5
209.117	315.97
209.585	304.27
210.053	334.7
210.521	297.25
210.989	198.95
211.457	276.18
211.925	285.55
212.393	407.25
212.861	266.82
213.328	306.61
213.796	304.27
214.264	332.36
214.731	346.4
215.199	313.63
215.666	313.63
216.133	299.59
216.601	220.01
217.068	301.93
217.535	308.95
218.003	266.82
218.47	245.76
218.937	266.82
219.404	278.52
219.871	287.89
220.338	304.27
220.805	292.57
221.271	276.18
221.738	271.5
222.205	252.78
222.671	229.37
223.138	245.76
223.605	234.05
224.071	292.57
224.538	255.12
225.004	276.18
225.47	236.39
225.937	245.76
226.403	255.12
226.869	264.48
227.335	294.91
227.801	358.1
228.267	273.84
228.733	245.76
229.199	222.35
229.665	271.5
230.131	222.35
230.597	311.29
231.062	259.8
231.528	262.14
231.994	269.16
232.459	187.24
232.925	311.29
233.39	280.86
233.856	264.48
234.321	313.63
234.786	292.57
235.252	306.61
235.717	245.76
236.182	217.67
236.647	257.46
237.112	311.29
237.577	276.18
238.042	292.57
238.507	255.12
238.972	257.46
239.436	259.8
239.901	290.23
240.366	259.8
240.83	269.16
241.295	276.18
241.76	341.72
242.224	212.99
242.688	276.18
243.153	262.14
243.617	294.91
244.081	337.04
244.545	313.63
245.01	234.05
245.474	250.44
245.938	248.1
246.402	273.84
246.866	337.04
247.33	255.12
247.793	285.55
248.257	257.46
248.721	311.29
249.185	301.93
249.648	315.97
250.112	308.95
250.575	280.86
251.039	217.67
251.502	250.44
251.965	290.23
252.429	292.57
252.892	330.02
253.355	344.06
253.818	299.59
254.281	287.89
254.744	306.61
255.207	306.61
255.67	266.82
256.133	311.29
256.596	224.69
257.059	266.82
257.522	313.63
257.984	285.55
258.447	231.71
258.909	245.76
259.372	304.27
259.834	299.59
260.297	271.5
260.759	280.86
261.221	241.08
261.684	248.1
262.146	245.76
262.608	236.39
263.07	306.61
263.532	248.1
263.994	299.59
264.456	334.7
264.918	320.65
265.38	257.46
265.842	290.23
266.303	259.8
266.765	360.44
267.227	283.2
267.688	313.63
268.15	325.33
268.611	243.42
269.072	304.27
269.534	311.29
269.995	238.73
270.456	308.95
270.918	222.35
271.379	304.27
271.84	315.97
272.301	299.59
272.762	381.51
273.223	290.23
273.684	304.27
274.144	327.68
274.605	367.46
275.066	341.72
275.527	222.35
275.987	304.27
276.448	269.16
276.908	273.84
277.369	346.4
277.829	355.76
278.289	308.95
278.75	355.76
279.21	245.76
279.67	269.16
280.13	297.25
280.59	297.25
281.05	325.33
281.51	245.76
281.97	294.91
282.43	304.27
282.89	299.59
283.35	322.99
283.809	250.44
284.269	332.36
284.729	318.31
285.188	255.12
285.648	294.91
286.107	322.99
286.567	346.4
287.026	306.61
287.485	250.44
287.944	351.08
288.404	205.97
288.863	283.2
289.322	299.59
289.781	285.55
290.24	294.91
290.699	344.06
291.158	330.02
291.616	297.25
292.075	243.42
292.534	308.95
292.992	327.68
293.451	273.84
293.91	299.59
294.368	222.35
294.827	250.44
295.285	269.16
295.743	311.29
296.202	315.97
296.66	327.68
297.118	346.4
297.576	318.31
298.034	297.25
298.492	360.44
298.95	287.89
299.408	353.42
299.866	325.33
300.324	285.55
300.781	351.08
301.239	341.72
301.697	271.5
302.154	257.46
302.612	243.42
303.069	294.91
303.527	299.59
303.984	283.2
304.441	313.63
304.899	287.89
305.356	285.55
305.813	259.8
306.27	358.1
306.727	332.36
307.184	252.78
307.641	210.65
308.098	369.8
308.555	250.44
309.012	304.27
309.468	264.48
309.925	290.23
310.382	299.59
310.838	337.04
311.295	308.95
311.751	287.89
312.208	273.84
312.664	269.16
313.12	250.44
313.577	297.25
314.033	271.5
314.489	292.57
314.945	369.8
315.401	332.36
315.857	290.23
316.313	250.44
316.769	311.29
317.225	257.46
317.681	238.73
318.136	367.46
318.592	285.55
319.048	273.84
319.503	229.37
319.959	341.72
320.414	325.33
320.869	374.49
321.325	386.19
321.78	351.08
322.235	308.95
322.691	369.8
323.146	301.93
323.601	344.06
324.056	332.36
324.511	306.61
324.966	308.95
325.421	334.7
325.875	308.95
326.33	299.59
326.785	369.8
327.24	334.7
327.694	346.4
328.149	311.29
328.603	301.93
329.058	257.46
329.512	285.55
329.966	367.46
330.421	269.16
330.875	306.61
331.329	285.55
331.783	337.04
332.237	330.02
332.691	341.72
333.145	313.63
333.599	341.72
334.053	330.02
334.507	344.06
334.96	332.36
335.414	327.68
335.868	285.55
336.321	217.67
336.775	290.23
337.228	276.18
337.682	330.02
338.135	294.91
338.588	315.97
339.042	315.97
339.495	351.08
339.948	339.38
340.401	299.59
340.854	299.59
341.307	322.99
341.76	294.91
342.213	325.33
342.666	376.83
343.119	306.61
343.571	304.27
344.024	341.72
344.477	299.59
344.929	339.38
345.382	271.5
345.834	346.4
346.287	285.55
346.739	301.93
347.191	292.57
347.644	273.84
348.096	259.8
348.548	299.59
349	315.97
349.452	255.12
349.904	325.33
350.356	341.72
350.808	344.06
351.26	341.72
351.711	278.52
352.163	285.55
352.615	332.36
353.066	355.76
353.518	290.23
353.969	332.36
354.421	313.63
354.872	285.55
355.324	353.42
355.775	301.93
356.226	332.36
356.677	318.31
357.128	280.86
357.579	369.8
358.03	278.52
358.481	280.86
358.932	315.97
359.383	344.06
359.834	322.99
360.285	355.76
360.735	306.61
361.186	262.14
361.637	318.31
362.087	383.85
362.538	320.65
362.988	304.27
363.438	325.33
363.889	301.93
364.339	334.7
364.789	344.06
365.239	374.49
365.689	369.8
366.139	358.1
366.589	294.91
367.039	308.95
367.489	367.46
367.939	294.91
368.389	292.57
368.839	327.68
369.288	273.84
369.738	269.16
370.187	285.55
370.637	273.84
371.086	372.15
371.536	292.57
371.985	313.63
372.434	308.95
372.884	287.89
373.333	388.53
373.782	301.93
374.231	355.76
374.68	348.74
375.129	337.04
375.578	308.95
376.027	278.52
376.475	315.97
376.924	325.33
377.373	339.38
377.822	273.84
378.27	327.68
378.719	355.76
379.167	341.72
379.616	344.06
380.064	372.15
380.512	273.84
380.961	358.1
381.409	332.36
381.857	266.82
382.305	304.27
382.753	334.7
383.201	386.19
383.649	271.5
384.097	341.72
384.545	313.63
384.992	318.31
385.44	348.74
385.888	269.16
386.335	360.44
386.783	313.63
387.231	334.7
387.678	334.7
388.125	388.53
388.573	346.4
389.02	332.36
389.467	313.63
389.914	379.17
390.362	332.36
390.809	372.15
391.256	290.23
391.703	322.99
392.15	285.55
392.596	346.4
393.043	332.36
393.49	287.89
393.937	308.95
394.383	341.72
394.83	320.65
395.276	341.72
395.723	337.04
396.169	287.89
396.616	266.82
397.062	292.57
397.508	318.31
397.954	339.38
398.401	322.99
398.847	318.31
399.293	395.55
399.739	287.89
400.185	301.93
400.631	355.76
401.076	372.15
401.522	339.38
401.968	327.68
402.414	339.38
402.859	330.02
403.305	374.49
403.75	348.74
404.196	358.1
404.641	334.7
405.086	259.8
405.532	306.61
405.977	287.89
406.422	330.02
406.867	262.14
407.312	304.27
407.757	341.72
408.202	388.53
408.647	330.02
409.092	367.46
409.537	337.04
409.982	346.4
410.426	346.4
410.871	311.29
411.316	301.93
411.76	236.39
412.205	334.7
412.649	301.93
413.093	255.12
413.538	320.65
413.982	255.12
414.426	304.27
414.87	287.89
415.314	390.87
415.758	311.29
416.202	344.06
416.646	332.36
417.09	337.04
417.534	304.27
417.978	344.06
418.421	341.72
418.865	304.27
419.309	306.61
419.752	327.68
420.196	318.31
420.639	355.76
421.083	365.12
421.526	355.76
421.969	315.97
422.412	255.12
422.856	245.76
423.299	362.78
423.742	348.74
424.185	285.55
424.628	334.7
425.071	344.06
425.513	322.99
425.956	320.65
426.399	337.04
426.842	280.86
427.284	374.49
427.727	318.31
428.169	250.44
428.612	358.1
429.054	311.29
429.497	278.52
429.939	287.89
430.381	304.27
430.823	339.38
431.265	339.38
431.707	304.27
432.149	290.23
432.591	327.68
433.033	320.65
433.475	348.74
433.917	304.27
434.359	395.55
434.8	334.7
435.242	330.02
435.684	278.52
436.125	332.36
436.567	278.52
437.008	318.31
437.449	320.65
437.891	294.91
438.332	318.31
438.773	337.04
439.214	273.84
439.656	287.89
440.097	369.8
440.538	203.63
440.978	250.44
441.419	367.46
441.86	299.59
442.301	299.59
442.742	294.91
443.182	308.95
443.623	325.33
444.063	301.93
444.504	241.08
444.944	313.63
445.385	334.7
445.825	337.04
446.265	306.61
446.706	304.27
447.146	322.99
447.586	290.23
448.026	367.46
448.466	346.4
448.906	322.99
449.346	313.63
449.786	297.25
450.225	372.15
450.665	311.29
451.105	285.55
451.544	341.72
451.984	294.91
452.424	341.72
452.863	292.57
453.302	248.1
453.742	322.99
454.181	285.55
454.62	365.12
455.059	315.97
455.499	341.72
455.938	318.31
456.377	318.31
456.816	297.25
457.254	304.27
457.693	332.36
458.132	297.25
458.571	278.52
459.01	332.36
459.448	369.8
459.887	327.68
460.325	322.99
460.764	262.14
461.202	290.23
461.641	332.36
462.079	358.1
462.517	313.63
462.955	348.74
463.393	376.83
463.832	257.46
464.27	381.51
464.708	280.86
465.145	301.93
465.583	330.02
466.021	304.27
466.459	393.21
466.897	344.06
467.334	334.7
467.772	330.02
468.209	383.85
468.647	292.57
469.084	318.31
469.522	322.99
469.959	301.93
470.396	353.42
470.833	330.02
471.271	292.57
471.708	252.78
472.145	306.61
472.582	266.82
473.019	273.84
473.456	292.57
473.892	315.97
474.329	355.76
474.766	294.91
475.202	278.52
475.639	334.7
476.076	318.31
476.512	259.8
476.949	280.86
477.385	318.31
477.821	313.63
478.258	315.97
478.694	327.68
479.13	325.33
479.566	330.02
480.002	285.55
480.438	276.18
480.874	283.2
481.31	313.63
481.746	372.15
482.181	238.73
482.617	365.12
483.053	325.33
483.488	308.95
483.924	337.04
484.36	322.99
484.795	320.65
485.23	341.72
485.666	353.42
486.101	414.27
486.536	322.99
486.971	339.38
487.407	290.23
487.842	332.36
488.277	367.46
488.712	365.12
489.146	325.33
489.581	325.33
490.016	318.31
490.451	395.55
490.885	245.76
491.32	290.23
491.755	332.36
492.189	306.61
492.624	283.2
493.058	390.87
493.492	367.46
493.927	318.31
494.361	337.04
494.795	306.61
495.229	337.04
495.663	301.93
496.097	227.03
496.531	306.61
496.965	299.59
497.399	292.57
497.833	301.93
498.266	320.65
498.7	262.14
499.134	306.61
499.567	301.93
500.001	269.16
500.434	325.33
500.868	273.84
501.301	285.55
501.734	372.15
502.168	299.59
502.601	327.68
503.034	353.42
503.467	327.68
503.9	351.08
504.333	372.15
504.766	311.29
505.199	327.68
505.632	334.7
506.064	313.63
506.497	252.78
506.93	283.2
507.362	315.97
507.795	280.86
508.227	280.86
508.66	287.89
509.092	301.93
509.524	332.36
509.956	311.29
510.389	301.93
510.821	318.31
511.253	264.48
511.685	308.95
512.117	306.61
512.549	330.02
512.981	320.65
513.412	278.52
513.844	330.02
514.276	365.12
514.707	409.59
515.139	273.84
515.571	313.63
516.002	283.2
516.433	353.42
516.865	290.23
517.296	330.02
517.727	346.4
518.159	330.02
518.59	280.86
519.021	297.25
519.452	325.33
519.883	330.02
520.314	344.06
520.744	311.29
521.175	337.04
521.606	257.46
522.037	330.02
522.467	308.95
522.898	358.1
523.328	292.57
523.759	299.59
524.189	320.65
524.62	367.46
525.05	353.42
525.48	334.7
525.91	287.89
526.341	344.06
526.771	311.29
527.201	351.08
527.631	393.21
528.061	299.59
528.49	276.18
528.92	278.52
529.35	308.95
529.78	301.93
530.209	344.06
530.639	346.4
531.068	280.86
531.498	273.84
531.927	245.76
532.357	313.63
532.786	376.83
533.215	301.93
533.644	320.65
534.074	330.02
534.503	332.36
534.932	437.68
535.361	222.35
535.79	283.2
536.218	334.7
536.647	299.59
537.076	322.99
537.505	327.68
537.933	320.65
538.362	276.18
538.79	301.93
539.219	369.8
539.647	292.57
540.076	358.1
540.504	327.68
540.932	315.97
541.36	308.95
541.788	297.25
542.217	330.02
542.645	301.93
543.073	322.99
543.5	358.1
543.928	313.63
544.356	306.61
544.784	362.78
545.211	332.36
545.639	311.29
546.067	341.72
546.494	351.08
546.922	304.27
547.349	337.04
547.776	273.84
548.204	299.59
548.631	332.36
549.058	360.44
549.485	320.65
549.912	297.25
550.339	325.33
550.766	308.95
551.193	304.27
551.62	278.52
552.047	346.4
552.474	280.86
552.9	358.1
553.327	322.99
553.754	271.5
554.18	344.06
554.607	339.38
555.033	344.06
555.459	271.5
555.886	264.48
556.312	276.18
556.738	344.06
557.164	322.99
557.59	297.25
558.016	353.42
558.442	285.55
558.868	271.5
559.294	280.86
559.72	271.5
560.145	318.31
560.571	318.31
560.997	367.46
561.422	358.1
561.848	306.61
562.273	287.89
562.699	287.89
563.124	283.2
563.549	400.23
563.974	360.44
564.4	351.08
564.825	285.55
565.25	311.29
565.675	308.95
566.1	341.72
566.525	322.99
566.95	327.68
567.374	311.29
567.799	330.02
568.224	369.8
568.648	294.91
569.073	344.06
569.497	292.57
569.922	367.46
570.346	327.68
570.771	280.86
571.195	248.1
571.619	344.06
572.043	344.06
572.467	344.06
572.891	376.83
573.315	337.04
573.739	322.99
574.163	355.76
574.587	304.27
575.011	344.06
575.435	358.1
575.858	322.99
576.282	292.57
576.705	322.99
577.129	332.36
577.552	306.61
577.976	285.55
578.399	315.97
578.822	294.91
579.245	313.63
579.669	341.72
580.092	318.31
580.515	332.36
580.938	276.18
581.361	360.44
581.784	299.59
582.206	297.25
582.629	304.27
583.052	234.05
583.474	318.31
583.897	344.06
584.32	252.78
584.742	355.76
585.165	367.46
585.587	306.61
586.009	322.99
586.431	330.02
586.854	353.42
587.276	283.2
587.698	318.31
588.12	271.5
588.542	367.46
588.964	308.95
589.386	381.51
589.807	283.2
590.229	283.2
590.651	297.25
591.073	400.23
591.494	327.68
591.916	320.65
592.337	245.76
592.759	351.08
593.18	290.23
593.601	320.65
594.022	283.2
594.444	381.51
594.865	332.36
595.286	353.42
595.707	330.02
596.128	339.38
596.549	379.17
596.97	383.85
597.39	341.72
597.811	367.46
598.232	339.38
598.652	313.63
599.073	330.02
599.494	355.76
599.914	348.74
600.334	334.7
600.755	308.95
601.175	344.06
601.595	306.61
602.015	297.25
602.436	299.59
602.856	423.64
603.276	332.36
603.696	285.55
604.115	285.55
604.535	334.7
604.955	334.7
605.375	322.99
605.794	327.68
606.214	327.68
606.634	322.99
607.053	304.27
607.473	318.31
607.892	283.2
608.311	292.57
608.731	327.68
609.15	294.91
609.569	353.42
609.988	273.84
610.407	297.25
610.826	376.83
611.245	285.55
611.664	332.36
612.083	334.7
612.501	308.95
612.92	334.7
613.339	341.72
613.757	280.86
614.176	346.4
614.594	311.29
615.013	322.99
615.431	322.99
615.85	264.48
616.268	278.52
616.686	339.38
617.104	313.63
617.522	266.82
617.94	301.93
618.358	304.27
618.776	315.97
619.194	346.4
619.612	299.59
620.03	287.89
620.447	322.99
620.865	327.68
621.282	325.33
621.7	315.97
622.117	355.76
622.535	271.5
622.952	358.1
623.369	322.99
623.787	322.99
624.204	353.42
624.621	381.51
625.038	301.93
625.455	355.76
625.872	313.63
626.289	332.36
626.706	355.76
627.123	311.29
627.539	330.02
627.956	308.95
628.373	308.95
628.789	259.8
629.206	358.1
629.622	344.06
630.038	330.02
630.455	339.38
630.871	327.68
631.287	292.57
631.703	313.63
632.12	315.97
632.536	390.87
632.952	315.97
633.368	315.97
633.783	290.23
634.199	304.27
634.615	313.63
635.031	337.04
635.446	276.18
635.862	367.46
636.277	351.08
636.693	369.8
637.108	311.29
637.524	393.21
637.939	400.23
638.354	337.04
638.77	257.46
639.185	297.25
639.6	301.93
640.015	313.63
640.43	320.65
640.845	276.18
641.259	266.82
641.674	250.44
642.089	318.31
642.504	348.74
642.918	351.08
643.333	234.05
643.747	327.68
644.162	292.57
644.576	330.02
644.991	322.99
645.405	287.89
645.819	348.74
646.233	339.38
646.647	362.78
647.061	337.04
647.475	337.04
647.889	325.33
648.303	301.93
648.717	374.49
649.131	301.93
649.545	362.78
649.958	351.08
650.372	339.38
650.785	250.44
651.199	278.52
651.612	304.27
652.026	280.86
652.439	283.2
652.852	243.42
653.266	332.36
653.679	262.14
654.092	315.97
654.505	344.06
654.918	273.84
655.331	313.63
655.744	348.74
656.156	374.49
656.569	327.68
656.982	376.83
657.394	346.4
657.807	367.46
658.22	409.59
658.632	297.25
659.044	362.78
659.457	292.57
659.869	283.2
660.281	280.86
660.693	285.55
661.106	294.91
661.518	344.06
661.93	315.97
662.342	306.61
662.754	327.68
663.165	322.99
663.577	327.68
663.989	327.68
664.401	355.76
664.812	241.08
665.224	262.14
665.635	297.25
666.047	320.65
666.458	358.1
666.869	337.04
667.281	278.52
667.692	266.82
668.103	353.42
668.514	315.97
668.925	334.7
669.336	304.27
669.747	379.17
670.158	304.27
670.569	369.8
670.979	243.42
671.39	308.95
671.801	313.63
672.211	327.68
672.622	332.36
673.032	320.65
673.443	344.06
673.853	332.36
674.263	339.38
674.674	313.63
675.084	278.52
675.494	308.95
675.904	332.36
676.314	372.15
676.724	360.44
677.134	322.99
677.544	320.65
677.953	337.04
678.363	365.12
678.773	440.02
679.182	327.68
679.592	311.29
680.001	306.61
680.411	306.61
680.82	236.39
681.23	255.12
681.639	306.61
682.048	313.63
682.457	341.72
682.866	283.2
683.275	283.2
683.684	280.86
684.093	252.78
684.502	374.49
684.911	311.29
685.32	320.65
685.728	259.8
686.137	330.02
686.546	278.52
686.954	325.33
687.363	344.06
687.771	299.59
688.179	348.74
688.588	355.76
688.996	341.72
689.404	294.91
689.812	330.02
690.22	315.97
690.628	386.19
691.036	313.63
691.444	332.36
691.852	372.15
692.26	332.36
692.667	372.15
693.075	346.4
693.483	327.68
693.89	346.4
694.298	337.04
694.705	304.27
695.112	358.1
695.52	381.51
695.927	358.1
696.334	287.89
696.741	360.44
697.148	362.78
697.555	313.63
697.962	362.78
698.369	266.82
698.776	355.76
699.183	346.4
699.59	360.44
699.996	341.72
700.403	271.5
700.81	297.25
701.216	423.64
701.623	346.4
702.029	304.27
702.435	334.7
702.842	285.55
703.248	339.38
703.654	269.16
704.06	337.04
704.466	360.44
704.872	369.8
705.278	306.61
705.684	308.95
706.09	287.89
706.496	337.04
706.901	280.86
707.307	337.04
707.712	297.25
708.118	304.27
708.523	273.84
708.929	287.89
709.334	358.1
709.74	327.68
710.145	322.99
710.55	301.93
710.955	224.69
711.36	334.7
711.765	381.51
712.17	313.63
712.575	301.93
712.98	746.63
713.385	416.62
713.789	337.04
714.194	248.1
714.599	344.06
715.003	299.59
715.408	294.91
715.812	283.2
716.217	313.63
716.621	351.08
717.025	334.7
717.429	280.86
717.833	339.38
718.238	332.36
718.642	290.23
719.046	318.31
719.449	236.39
719.853	320.65
720.257	290.23
720.661	278.52
721.065	278.52
721.468	362.78
721.872	311.29
722.275	301.93
722.679	280.86
723.082	337.04
723.485	318.31
723.889	301.93
724.292	311.29
724.695	278.52
725.098	372.15
725.501	311.29
725.904	315.97
726.307	353.42
726.71	276.18
727.113	365.12
727.516	348.74
727.918	271.5
728.321	341.72
728.724	346.4
729.126	330.02
729.529	353.42
729.931	278.52
730.333	351.08
730.736	325.33
731.138	362.78
731.54	341.72
731.942	346.4
732.344	243.42
732.746	318.31
733.148	299.59
733.55	322.99
733.952	325.33
734.354	301.93
734.756	283.2
735.157	292.57
735.559	341.72
735.96	266.82
736.362	278.52
736.763	287.89
737.165	325.33
737.566	280.86
737.967	308.95
738.368	337.04
738.77	304.27
739.171	304.27
739.572	283.2
739.973	311.29
740.374	292.57
740.774	341.72
741.175	248.1
741.576	353.42
741.977	301.93
742.377	325.33
742.778	276.18
743.178	280.86
743.579	332.36
743.979	353.42
744.379	238.73
744.78	257.46
745.18	334.7
745.58	318.31
745.98	327.68
746.38	332.36
746.78	322.99
747.18	341.72
747.58	400.23
747.98	315.97
748.38	355.76
748.779	369.8
749.179	313.63
749.578	351.08
749.978	351.08
750.377	306.61
750.777	285.55
751.176	308.95
751.575	346.4
751.975	308.95
752.374	337.04
752.773	280.86
753.172	353.42
753.571	358.1
753.97	311.29
754.369	381.51
754.768	231.71
755.166	290.23
755.565	278.52
755.964	344.06
756.362	337.04
756.761	327.68
757.159	334.7
757.558	290.23
757.956	299.59
758.354	362.78
758.753	358.1
759.151	280.86
759.549	339.38
759.947	306.61
760.345	332.36
760.743	325.33
761.141	311.29
761.539	330.02
761.936	341.72
762.334	318.31
762.732	308.95
763.129	273.84
763.527	297.25
763.924	318.31
764.322	273.84
764.719	255.12
765.117	320.65
765.514	313.63
