Data from Al_FLMS009871__762__15-18-15-922.txt Node

Date: Fri Mar 08 15:18:15 CST 2024
User: pe5414po
Spectrometer: FLMS00987
Trigger mode: 0
Integration Time (sec): 1.000000E-1
Scans to average: 1
Electric dark correction enabled: true
Nonlinearity correction enabled: false
Boxcar width: 0
XAxis mode: Wavelengths
Number of Pixels in Spectrum: 2048
>>>>>Begin Spectral Data<<<<<
188.938	-66.71
189.409	-66.71
189.879	-66.71
190.349	-134.58
190.819	-85.43
191.29	-115.86
191.76	-45.64
192.23	-111.18
192.7	-80.75
193.17	-83.09
193.64	-85.43
194.109	-36.28
194.579	-12.87
195.049	36.28
195.519	10.53
195.988	29.26
196.458	71.39
196.927	83.09
197.397	57.34
197.866	146.28
198.336	136.92
198.805	148.62
199.274	160.33
199.744	169.69
200.213	200.12
200.682	162.67
201.151	253.95
201.62	230.54
202.089	249.27
202.558	298.42
203.027	298.42
203.495	253.95
203.964	289.06
204.433	284.38
204.902	249.27
205.37	263.31
205.839	282.03
206.307	324.16
206.776	228.2
207.244	251.61
207.712	272.67
208.181	310.12
208.649	256.29
209.117	317.14
209.585	296.08
210.053	324.16
210.521	249.27
210.989	246.93
211.457	300.76
211.925	251.61
212.393	307.78
212.861	232.88
213.328	228.2
213.796	286.72
214.264	282.03
214.731	258.63
215.199	296.08
215.666	251.61
216.133	275.01
216.601	253.95
217.068	237.56
217.535	251.61
218.003	314.8
218.47	303.1
218.937	296.08
219.404	242.25
219.871	230.54
220.338	251.61
220.805	209.48
221.271	260.97
221.738	230.54
222.205	256.29
222.671	277.35
223.138	214.16
223.605	286.72
224.071	209.48
224.538	251.61
225.004	298.42
225.47	272.67
225.937	307.78
226.403	214.16
226.869	230.54
227.335	277.35
227.801	296.08
228.267	258.63
228.733	272.67
229.199	293.74
229.665	293.74
230.131	223.52
230.597	256.29
231.062	239.9
231.528	303.1
231.994	256.29
232.459	244.59
232.925	256.29
233.39	265.65
233.856	270.33
234.321	251.61
234.786	263.31
235.252	340.55
235.717	275.01
236.182	263.31
236.647	300.76
237.112	277.35
237.577	256.29
238.042	284.38
238.507	263.31
238.972	249.27
239.436	251.61
239.901	354.59
240.366	242.25
240.83	282.03
241.295	317.14
241.76	258.63
242.224	319.48
242.688	277.35
243.153	282.03
243.617	282.03
244.081	232.88
244.545	286.72
245.01	275.01
245.474	249.27
245.938	324.16
246.402	310.12
246.866	237.56
247.33	242.25
247.793	284.38
248.257	293.74
248.721	305.44
249.185	270.33
249.648	286.72
250.112	260.97
250.575	293.74
251.039	157.99
251.502	253.95
251.965	246.93
252.429	300.76
252.892	275.01
253.355	296.08
253.818	291.4
254.281	284.38
254.744	342.89
255.207	321.82
255.67	265.65
256.133	282.03
256.596	359.27
257.059	307.78
257.522	340.55
257.984	256.29
258.447	253.95
258.909	200.12
259.372	230.54
259.834	279.69
260.297	284.38
260.759	202.46
261.221	265.65
261.684	223.52
262.146	244.59
262.608	270.33
263.07	246.93
263.532	270.33
263.994	282.03
264.456	319.48
264.918	244.59
265.38	293.74
265.842	291.4
266.303	296.08
266.765	253.95
267.227	305.44
267.688	312.46
268.15	253.95
268.611	270.33
269.072	225.86
269.534	279.69
269.995	260.97
270.456	263.31
270.918	319.48
271.379	286.72
271.84	314.8
272.301	333.53
272.762	277.35
273.223	296.08
273.684	298.42
274.144	345.23
274.605	218.84
275.066	289.06
275.527	331.19
275.987	291.4
276.448	239.9
276.908	265.65
277.369	370.97
277.829	354.59
278.289	310.12
278.75	359.27
279.21	312.46
279.67	335.87
280.13	338.21
280.59	263.31
281.05	335.87
281.51	284.38
281.97	324.16
282.43	286.72
282.89	310.12
283.35	310.12
283.809	293.74
284.269	246.93
284.729	317.14
285.188	310.12
285.648	296.08
286.107	284.38
286.567	321.82
287.026	328.85
287.485	258.63
287.944	303.1
288.404	265.65
288.863	317.14
289.322	370.97
289.781	214.16
290.24	312.46
290.699	275.01
291.158	300.76
291.616	284.38
292.075	314.8
292.534	312.46
292.992	331.19
293.451	314.8
293.91	260.97
294.368	312.46
294.827	307.78
295.285	275.01
295.743	307.78
296.202	324.16
296.66	312.46
297.118	305.44
297.576	354.59
298.034	253.95
298.492	246.93
298.95	303.1
299.408	345.23
299.866	267.99
300.324	399.06
300.781	279.69
301.239	298.42
301.697	338.21
302.154	279.69
302.612	293.74
303.069	347.57
303.527	328.85
303.984	267.99
304.441	347.57
304.899	303.1
305.356	314.8
305.813	305.44
306.27	331.19
306.727	338.21
307.184	331.19
307.641	321.82
308.098	293.74
308.555	363.95
309.012	352.25
309.468	317.14
309.925	326.5
310.382	382.68
310.838	328.85
311.295	349.91
311.751	296.08
312.208	319.48
312.664	267.99
313.12	356.93
313.577	232.88
314.033	307.78
314.489	300.76
314.945	265.65
315.401	282.03
315.857	249.27
316.313	263.31
316.769	324.16
317.225	298.42
317.681	310.12
318.136	256.29
318.592	267.99
319.048	298.42
319.503	296.08
319.959	244.59
320.414	312.46
320.869	298.42
321.325	324.16
321.78	275.01
322.235	300.76
322.691	242.25
323.146	389.7
323.601	326.5
324.056	284.38
324.511	263.31
324.966	239.9
325.421	298.42
325.875	352.25
326.33	312.46
326.785	277.35
327.24	359.27
327.694	272.67
328.149	307.78
328.603	303.1
329.058	289.06
329.512	354.59
329.966	249.27
330.421	324.16
330.875	284.38
331.329	370.97
331.783	310.12
332.237	354.59
332.691	331.19
333.145	289.06
333.599	326.5
334.053	249.27
334.507	239.9
334.96	359.27
335.414	305.44
335.868	314.8
336.321	335.87
336.775	321.82
337.228	289.06
337.682	359.27
338.135	284.38
338.588	244.59
339.042	289.06
339.495	328.85
339.948	326.5
340.401	293.74
340.854	361.61
341.307	375.66
341.76	324.16
342.213	258.63
342.666	298.42
343.119	298.42
343.571	235.22
344.024	326.5
344.477	378
344.929	305.44
345.382	338.21
345.834	300.76
346.287	342.89
346.739	260.97
347.191	321.82
347.644	314.8
348.096	338.21
348.548	279.69
349	352.25
349.452	387.36
349.904	317.14
350.356	333.53
350.808	267.99
351.26	279.69
351.711	298.42
352.163	310.12
352.615	345.23
353.066	331.19
353.518	267.99
353.969	272.67
354.421	342.89
354.872	342.89
355.324	298.42
355.775	312.46
356.226	282.03
356.677	382.68
357.128	331.19
357.579	310.12
358.03	289.06
358.481	380.34
358.932	328.85
359.383	349.91
359.834	272.67
360.285	272.67
360.735	335.87
361.186	328.85
361.637	331.19
362.087	324.16
362.538	282.03
362.988	314.8
363.438	305.44
363.889	298.42
364.339	363.95
364.789	263.31
365.239	289.06
365.689	270.33
366.139	314.8
366.589	338.21
367.039	263.31
367.489	300.76
367.939	291.4
368.389	317.14
368.839	338.21
369.288	267.99
369.738	342.89
370.187	253.95
370.637	352.25
371.086	319.48
371.536	368.63
371.985	293.74
372.434	319.48
372.884	289.06
373.333	300.76
373.782	298.42
374.231	312.46
374.68	333.53
375.129	282.03
375.578	253.95
376.027	296.08
376.475	307.78
376.924	298.42
377.373	286.72
377.822	272.67
378.27	363.95
378.719	328.85
379.167	305.44
379.616	275.01
380.064	291.4
380.512	300.76
380.961	324.16
381.409	284.38
381.857	279.69
382.305	291.4
382.753	314.8
383.201	284.38
383.649	270.33
384.097	249.27
384.545	314.8
384.992	354.59
385.44	303.1
385.888	319.48
386.335	335.87
386.783	307.78
387.231	319.48
387.678	345.23
388.125	310.12
388.573	333.53
389.02	277.35
389.467	286.72
389.914	338.21
390.362	230.54
390.809	289.06
391.256	303.1
391.703	345.23
392.15	333.53
392.596	298.42
393.043	324.16
393.49	279.69
393.937	310.12
394.383	326.5
394.83	272.67
395.276	326.5
395.723	342.89
396.169	253.95
396.616	277.35
397.062	347.57
397.508	319.48
397.954	298.42
398.401	370.97
398.847	340.55
399.293	333.53
399.739	342.89
400.185	319.48
400.631	378
401.076	349.91
401.522	396.72
401.968	359.27
402.414	342.89
402.859	331.19
403.305	293.74
403.75	298.42
404.196	303.1
404.641	335.87
405.086	382.68
405.532	256.29
405.977	310.12
406.422	293.74
406.867	314.8
407.312	338.21
407.757	275.01
408.202	267.99
408.647	359.27
409.092	312.46
409.537	253.95
409.982	293.74
410.426	251.61
410.871	260.97
411.316	293.74
411.76	319.48
412.205	363.95
412.649	263.31
413.093	356.93
413.538	340.55
413.982	328.85
414.426	296.08
414.87	272.67
415.314	338.21
415.758	354.59
416.202	305.44
416.646	317.14
417.09	356.93
417.534	310.12
417.978	300.76
418.421	284.38
418.865	291.4
419.309	333.53
419.752	310.12
420.196	314.8
420.639	307.78
421.083	319.48
421.526	363.95
421.969	291.4
422.412	303.1
422.856	328.85
423.299	333.53
423.742	356.93
424.185	361.61
424.628	265.65
425.071	385.02
425.513	293.74
425.956	296.08
426.399	298.42
426.842	298.42
427.284	333.53
427.727	354.59
428.169	359.27
428.612	291.4
429.054	314.8
429.497	293.74
429.939	370.97
430.381	265.65
430.823	272.67
431.265	340.55
431.707	298.42
432.149	387.36
432.591	335.87
433.033	286.72
433.475	303.1
433.917	286.72
434.359	289.06
434.8	366.29
435.242	420.13
435.684	307.78
436.125	382.68
436.567	342.89
437.008	244.59
437.449	291.4
437.891	286.72
438.332	296.08
438.773	293.74
439.214	347.57
439.656	267.99
440.097	335.87
440.538	284.38
440.978	335.87
441.419	380.34
441.86	359.27
442.301	314.8
442.742	312.46
443.182	319.48
443.623	284.38
444.063	321.82
444.504	321.82
444.944	349.91
445.385	356.93
445.825	317.14
446.265	312.46
446.706	251.61
447.146	363.95
447.586	356.93
448.026	380.34
448.466	368.63
448.906	370.97
449.346	347.57
449.786	352.25
450.225	293.74
450.665	284.38
451.105	349.91
451.544	328.85
451.984	331.19
452.424	373.32
452.863	349.91
453.302	289.06
453.742	263.31
454.181	331.19
454.62	300.76
455.059	284.38
455.499	239.9
455.938	394.38
456.377	326.5
456.816	328.85
457.254	303.1
457.693	321.82
458.132	324.16
458.571	305.44
459.01	305.44
459.448	345.23
459.887	354.59
460.325	321.82
460.764	307.78
461.202	331.19
461.641	282.03
462.079	370.97
462.517	321.82
462.955	314.8
463.393	279.69
463.832	328.85
464.27	354.59
464.708	378
465.145	307.78
465.583	263.31
466.021	296.08
466.459	305.44
466.897	349.91
467.334	277.35
467.772	277.35
468.209	363.95
468.647	354.59
469.084	340.55
469.522	284.38
469.959	363.95
470.396	300.76
470.833	314.8
471.271	396.72
471.708	359.27
472.145	310.12
472.582	324.16
473.019	331.19
473.456	349.91
473.892	312.46
474.329	324.16
474.766	354.59
475.202	270.33
475.639	363.95
476.076	303.1
476.512	321.82
476.949	310.12
477.385	244.59
477.821	296.08
478.258	359.27
478.694	335.87
479.13	314.8
479.566	394.38
480.002	340.55
480.438	307.78
480.874	286.72
481.31	321.82
481.746	314.8
482.181	335.87
482.617	356.93
483.053	321.82
483.488	345.23
483.924	242.25
484.36	314.8
484.795	314.8
485.23	349.91
485.666	342.89
486.101	324.16
486.536	317.14
486.971	321.82
487.407	270.33
487.842	246.93
488.277	279.69
488.712	282.03
489.146	312.46
489.581	389.7
490.016	331.19
490.451	277.35
490.885	291.4
491.32	284.38
491.755	275.01
492.189	321.82
492.624	392.04
493.058	319.48
493.492	345.23
493.927	232.88
494.361	284.38
494.795	333.53
495.229	375.66
495.663	263.31
496.097	342.89
496.531	289.06
496.965	265.65
497.399	352.25
497.833	277.35
498.266	373.32
498.7	328.85
499.134	312.46
499.567	246.93
500.001	382.68
500.434	296.08
500.868	291.4
501.301	317.14
501.734	349.91
502.168	352.25
502.601	359.27
503.034	352.25
503.467	263.31
503.9	340.55
504.333	340.55
504.766	326.5
505.199	293.74
505.632	328.85
506.064	279.69
506.497	321.82
506.93	300.76
507.362	284.38
507.795	324.16
508.227	408.42
508.66	289.06
509.092	324.16
509.524	363.95
509.956	307.78
510.389	265.65
510.821	338.21
511.253	354.59
511.685	305.44
512.117	324.16
512.549	307.78
512.981	399.06
513.412	319.48
513.844	289.06
514.276	335.87
514.707	253.95
515.139	331.19
515.571	366.29
516.002	385.02
516.433	300.76
516.865	333.53
517.296	298.42
517.727	296.08
518.159	305.44
518.59	282.03
519.021	303.1
519.452	300.76
519.883	420.13
520.314	279.69
520.744	300.76
521.175	307.78
521.606	258.63
522.037	338.21
522.467	300.76
522.898	352.25
523.328	394.38
523.759	293.74
524.189	338.21
524.62	361.61
525.05	317.14
525.48	338.21
525.91	331.19
526.341	324.16
526.771	354.59
527.201	305.44
527.631	272.67
528.061	289.06
528.49	298.42
528.92	342.89
529.35	345.23
529.78	324.16
530.209	282.03
530.639	356.93
531.068	321.82
531.498	291.4
531.927	363.95
532.357	300.76
532.786	338.21
533.215	293.74
533.644	258.63
534.074	305.44
534.503	361.61
534.932	253.95
535.361	289.06
535.79	321.82
536.218	317.14
536.647	335.87
537.076	314.8
537.505	310.12
537.933	321.82
538.362	305.44
538.79	319.48
539.219	312.46
539.647	342.89
540.076	298.42
540.504	298.42
540.932	347.57
541.36	279.69
541.788	321.82
542.217	300.76
542.645	324.16
543.073	277.35
543.5	305.44
543.928	335.87
544.356	333.53
544.784	303.1
545.211	307.78
545.639	317.14
546.067	347.57
546.494	289.06
546.922	326.5
547.349	296.08
547.776	338.21
548.204	282.03
548.631	347.57
549.058	272.67
549.485	298.42
549.912	333.53
550.339	333.53
550.766	328.85
551.193	389.7
551.62	338.21
552.047	293.74
552.474	298.42
552.9	380.34
553.327	340.55
553.754	319.48
554.18	289.06
554.607	319.48
555.033	349.91
555.459	293.74
555.886	385.02
556.312	347.57
556.738	324.16
557.164	307.78
557.59	298.42
558.016	249.27
558.442	319.48
558.868	307.78
559.294	296.08
559.72	380.34
560.145	345.23
560.571	385.02
560.997	352.25
561.422	331.19
561.848	293.74
562.273	286.72
562.699	319.48
563.124	373.32
563.549	331.19
563.974	303.1
564.4	312.46
564.825	324.16
565.25	394.38
565.675	340.55
566.1	335.87
566.525	298.42
566.95	289.06
567.374	347.57
567.799	289.06
568.224	310.12
568.648	319.48
569.073	342.89
569.497	235.22
569.922	342.89
570.346	319.48
570.771	380.34
571.195	340.55
571.619	282.03
572.043	275.01
572.467	333.53
572.891	345.23
573.315	331.19
573.739	296.08
574.163	345.23
574.587	321.82
575.011	319.48
575.435	293.74
575.858	345.23
576.282	370.97
576.705	326.5
577.129	282.03
577.552	298.42
577.976	319.48
578.399	303.1
578.822	291.4
579.245	277.35
579.669	296.08
580.092	333.53
580.515	438.85
580.938	385.02
581.361	326.5
581.784	317.14
582.206	335.87
582.629	319.48
583.052	356.93
583.474	385.02
583.897	328.85
584.32	296.08
584.742	296.08
585.165	314.8
585.587	314.8
586.009	305.44
586.431	289.06
586.854	303.1
587.276	345.23
587.698	303.1
588.12	382.68
588.542	333.53
588.964	335.87
589.386	277.35
589.807	349.91
590.229	380.34
590.651	340.55
591.073	328.85
591.494	289.06
591.916	326.5
592.337	335.87
592.759	326.5
593.18	319.48
593.601	324.16
594.022	342.89
594.444	352.25
594.865	338.21
595.286	319.48
595.707	349.91
596.128	382.68
596.549	303.1
596.97	324.16
597.39	314.8
597.811	275.01
598.232	314.8
598.652	284.38
599.073	289.06
599.494	275.01
599.914	345.23
600.334	340.55
600.755	284.38
601.175	314.8
601.595	260.97
602.015	422.47
602.436	289.06
602.856	452.89
603.276	331.19
603.696	267.99
604.115	361.61
604.535	333.53
604.955	354.59
605.375	307.78
605.794	321.82
606.214	307.78
606.634	228.2
607.053	347.57
607.473	272.67
607.892	326.5
608.311	324.16
608.731	326.5
609.15	333.53
609.569	389.7
609.988	319.48
610.407	321.82
610.826	333.53
611.245	312.46
611.664	312.46
612.083	314.8
612.501	331.19
612.92	406.08
613.339	335.87
613.757	326.5
614.176	331.19
614.594	378
615.013	260.97
615.431	356.93
615.85	342.89
616.268	303.1
616.686	307.78
617.104	361.61
617.522	305.44
617.94	270.33
618.358	340.55
618.776	319.48
619.194	307.78
619.612	326.5
620.03	282.03
620.447	312.46
620.865	235.22
621.282	263.31
621.7	319.48
622.117	291.4
622.535	368.63
622.952	342.89
623.369	328.85
623.787	314.8
624.204	394.38
624.621	378
625.038	270.33
625.455	342.89
625.872	298.42
626.289	338.21
626.706	260.97
627.123	375.66
627.539	317.14
627.956	296.08
628.373	375.66
628.789	333.53
629.206	319.48
629.622	333.53
630.038	279.69
630.455	356.93
630.871	275.01
631.287	310.12
631.703	275.01
632.12	324.16
632.536	300.76
632.952	270.33
633.368	352.25
633.783	284.38
634.199	349.91
634.615	286.72
635.031	324.16
635.446	326.5
635.862	331.19
636.277	363.95
636.693	326.5
637.108	312.46
637.524	310.12
637.939	293.74
638.354	258.63
638.77	333.53
639.185	312.46
639.6	300.76
640.015	298.42
640.43	363.95
640.845	321.82
641.259	317.14
641.674	375.66
642.089	267.99
642.504	319.48
642.918	321.82
643.333	370.97
643.747	272.67
644.162	326.5
644.576	333.53
644.991	326.5
645.405	321.82
645.819	319.48
646.233	356.93
646.647	317.14
647.061	258.63
647.475	335.87
647.889	277.35
648.303	272.67
648.717	324.16
649.131	331.19
649.545	305.44
649.958	368.63
650.372	291.4
650.785	279.69
651.199	345.23
651.612	298.42
652.026	378
652.439	263.31
652.852	356.93
653.266	352.25
653.679	282.03
654.092	335.87
654.505	296.08
654.918	342.89
655.331	354.59
655.744	314.8
656.156	342.89
656.569	317.14
656.982	321.82
657.394	333.53
657.807	303.1
658.22	298.42
658.632	342.89
659.044	317.14
659.457	293.74
659.869	275.01
660.281	361.61
660.693	326.5
661.106	352.25
661.518	270.33
661.93	392.04
662.342	326.5
662.754	375.66
663.165	345.23
663.577	263.31
663.989	333.53
664.401	328.85
664.812	319.48
665.224	300.76
665.635	338.21
666.047	335.87
666.458	310.12
666.869	277.35
667.281	267.99
667.692	356.93
668.103	221.18
668.514	286.72
668.925	298.42
669.336	312.46
669.747	342.89
670.158	326.5
670.569	284.38
670.979	310.12
671.39	368.63
671.801	298.42
672.211	310.12
672.622	279.69
673.032	296.08
673.443	401.4
673.853	282.03
674.263	333.53
674.674	319.48
675.084	289.06
675.494	338.21
675.904	333.53
676.314	293.74
676.724	300.76
677.134	310.12
677.544	319.48
677.953	307.78
678.363	289.06
678.773	385.02
679.182	347.57
679.592	347.57
680.001	305.44
680.411	305.44
680.82	296.08
681.23	338.21
681.639	352.25
682.048	321.82
682.457	363.95
682.866	345.23
683.275	310.12
683.684	345.23
684.093	326.5
684.502	286.72
684.911	324.16
685.32	389.7
685.728	300.76
686.137	333.53
686.546	284.38
686.954	326.5
687.363	289.06
687.771	263.31
688.179	335.87
688.588	298.42
688.996	277.35
689.404	286.72
689.812	324.16
690.22	352.25
690.628	366.29
691.036	317.14
691.444	289.06
691.852	387.36
692.26	321.82
692.667	375.66
693.075	356.93
693.483	389.7
693.89	359.27
694.298	293.74
694.705	286.72
695.112	300.76
695.52	345.23
695.927	307.78
696.334	340.55
696.741	321.82
697.148	328.85
697.555	310.12
697.962	342.89
698.369	275.01
698.776	359.27
699.183	272.67
699.59	333.53
699.996	312.46
700.403	378
700.81	293.74
701.216	314.8
701.623	326.5
702.029	265.65
702.435	279.69
702.842	349.91
703.248	359.27
703.654	310.12
704.06	331.19
704.466	361.61
704.872	321.82
705.278	303.1
705.684	361.61
706.09	326.5
706.496	340.55
706.901	270.33
707.307	312.46
707.712	312.46
708.118	370.97
708.523	317.14
708.929	338.21
709.334	349.91
709.74	326.5
710.145	382.68
710.55	333.53
710.955	319.48
711.36	331.19
711.765	370.97
712.17	319.48
712.575	298.42
712.98	796.95
713.385	373.32
713.789	349.91
714.194	291.4
714.599	272.67
715.003	296.08
715.408	328.85
715.812	349.91
716.217	342.89
716.621	282.03
717.025	424.81
717.429	333.53
717.833	293.74
718.238	270.33
718.642	356.93
719.046	335.87
719.449	317.14
719.853	279.69
720.257	324.16
720.661	338.21
721.065	282.03
721.468	352.25
721.872	324.16
722.275	260.97
722.679	286.72
723.082	338.21
723.485	298.42
723.889	345.23
724.292	300.76
724.695	256.29
725.098	263.31
725.501	263.31
725.904	272.67
726.307	310.12
726.71	284.38
727.113	296.08
727.516	324.16
727.918	305.44
728.321	338.21
728.724	307.78
729.126	331.19
729.529	354.59
729.931	307.78
730.333	282.03
730.736	286.72
731.138	260.97
731.54	282.03
731.942	286.72
732.344	300.76
732.746	349.91
733.148	253.95
733.55	324.16
733.952	242.25
734.354	375.66
734.756	293.74
735.157	272.67
735.559	321.82
735.96	417.79
736.362	370.97
736.763	326.5
737.165	324.16
737.566	293.74
737.967	279.69
738.368	279.69
738.77	272.67
739.171	275.01
739.572	284.38
739.973	338.21
740.374	328.85
740.774	263.31
741.175	326.5
741.576	275.01
741.977	342.89
742.377	333.53
742.778	314.8
743.178	338.21
743.579	307.78
743.979	335.87
744.379	359.27
744.78	260.97
745.18	352.25
745.58	296.08
745.98	356.93
746.38	373.32
746.78	282.03
747.18	359.27
747.58	321.82
747.98	267.99
748.38	314.8
748.779	338.21
749.179	256.29
749.578	340.55
749.978	363.95
750.377	368.63
750.777	286.72
751.176	340.55
751.575	326.5
751.975	305.44
752.374	359.27
752.773	265.65
753.172	340.55
753.571	338.21
753.97	303.1
754.369	289.06
754.768	326.5
755.166	284.38
755.565	314.8
755.964	246.93
756.362	324.16
756.761	342.89
757.159	345.23
757.558	312.46
757.956	289.06
758.354	392.04
758.753	289.06
759.151	366.29
759.549	317.14
759.947	370.97
760.345	296.08
760.743	291.4
761.141	356.93
761.539	286.72
761.936	298.42
762.334	265.65
762.732	375.66
763.129	342.89
763.527	270.33
763.924	366.29
764.322	321.82
764.719	333.53
765.117	260.97
765.514	282.03
