Data from Al_FLMS009871__775__15-18-17-222.txt Node

Date: Fri Mar 08 15:18:17 CST 2024
User: pe5414po
Spectrometer: FLMS00987
Trigger mode: 0
Integration Time (sec): 1.000000E-1
Scans to average: 1
Electric dark correction enabled: true
Nonlinearity correction enabled: false
Boxcar width: 0
XAxis mode: Wavelengths
Number of Pixels in Spectrum: 2048
>>>>>Begin Spectral Data<<<<<
188.938	-95.38
189.409	-95.38
189.879	-95.38
190.349	-64.95
190.819	-132.83
191.29	-102.4
191.76	-95.38
192.23	-100.06
192.7	-93.04
193.17	-78.99
193.64	-64.95
194.109	-13.46
194.579	26.33
195.049	-36.86
195.519	7.61
195.988	61.44
196.458	31.01
196.927	112.93
197.397	52.08
197.866	112.93
198.336	180.81
198.805	87.18
199.274	225.28
199.744	134
200.213	215.91
200.682	176.13
201.151	274.43
201.62	258.04
202.089	204.21
202.558	248.68
203.027	215.91
203.495	339.96
203.964	246.34
204.433	286.13
204.902	302.51
205.37	272.09
205.839	321.24
206.307	302.51
206.776	283.79
207.244	279.11
207.712	281.45
208.181	265.07
208.649	330.6
209.117	316.56
209.585	262.73
210.053	281.45
210.521	293.15
210.989	251.02
211.457	318.9
211.925	332.94
212.393	281.45
212.861	325.92
213.328	211.23
213.796	239.32
214.264	260.38
214.731	267.41
215.199	281.45
215.666	236.98
216.133	335.28
216.601	290.81
217.068	302.51
217.535	314.22
218.003	255.7
218.47	272.09
218.937	239.32
219.404	232.3
219.871	218.25
220.338	227.62
220.805	276.77
221.271	260.38
221.738	300.17
222.205	251.02
222.671	251.02
223.138	307.2
223.605	281.45
224.071	192.51
224.538	290.81
225.004	272.09
225.47	220.6
225.937	304.85
226.403	283.79
226.869	262.73
227.335	253.36
227.801	330.6
228.267	274.43
228.733	283.79
229.199	272.09
229.665	211.23
230.131	208.89
230.597	204.21
231.062	265.07
231.528	229.96
231.994	255.7
232.459	265.07
232.925	197.19
233.39	297.83
233.856	232.3
234.321	265.07
234.786	288.47
235.252	328.26
235.717	244
236.182	211.23
236.647	199.53
237.112	229.96
237.577	201.87
238.042	244
238.507	190.17
238.972	255.7
239.436	274.43
239.901	316.56
240.366	206.55
240.83	288.47
241.295	269.75
241.76	307.2
242.224	295.49
242.688	318.9
243.153	258.04
243.617	276.77
244.081	295.49
244.545	236.98
245.01	244
245.474	297.83
245.938	274.43
246.402	246.34
246.866	227.62
247.33	276.77
247.793	262.73
248.257	302.51
248.721	288.47
249.185	260.38
249.648	227.62
250.112	229.96
250.575	302.51
251.039	314.22
251.502	272.09
251.965	288.47
252.429	283.79
252.892	269.75
253.355	358.69
253.818	281.45
254.281	295.49
254.744	288.47
255.207	183.15
255.67	321.24
256.133	281.45
256.596	283.79
257.059	239.32
257.522	279.11
257.984	293.15
258.447	244
258.909	274.43
259.372	269.75
259.834	318.9
260.297	293.15
260.759	295.49
261.221	251.02
261.684	295.49
262.146	258.04
262.608	213.57
263.07	260.38
263.532	304.85
263.994	339.96
264.456	368.05
264.918	342.3
265.38	314.22
265.842	335.28
266.303	297.83
266.765	325.92
267.227	279.11
267.688	260.38
268.15	225.28
268.611	332.94
269.072	314.22
269.534	323.58
269.995	290.81
270.456	281.45
270.918	349.32
271.379	297.83
271.84	241.66
272.301	309.54
272.762	290.81
273.223	358.69
273.684	328.26
274.144	295.49
274.605	295.49
275.066	281.45
275.527	251.02
275.987	258.04
276.448	339.96
276.908	302.51
277.369	206.55
277.829	272.09
278.289	335.28
278.75	330.6
279.21	330.6
279.67	295.49
280.13	286.13
280.59	286.13
281.05	307.2
281.51	325.92
281.97	279.11
282.43	293.15
282.89	279.11
283.35	286.13
283.809	309.54
284.269	248.68
284.729	307.2
285.188	253.36
285.648	339.96
286.107	290.81
286.567	358.69
287.026	239.32
287.485	295.49
287.944	349.32
288.404	248.68
288.863	274.43
289.322	218.25
289.781	274.43
290.24	269.75
290.699	251.02
291.158	358.69
291.616	302.51
292.075	208.89
292.534	286.13
292.992	234.64
293.451	368.05
293.91	236.98
294.368	274.43
294.827	302.51
295.285	337.62
295.743	241.66
296.202	335.28
296.66	302.51
297.118	307.2
297.576	295.49
298.034	356.35
298.492	262.73
298.95	241.66
299.408	328.26
299.866	288.47
300.324	342.3
300.781	295.49
301.239	318.9
301.697	314.22
302.154	267.41
302.612	307.2
303.069	339.96
303.527	272.09
303.984	335.28
304.441	190.17
304.899	262.73
305.356	265.07
305.813	295.49
306.27	286.13
306.727	349.32
307.184	318.9
307.641	274.43
308.098	227.62
308.555	269.75
309.012	330.6
309.468	244
309.925	288.47
310.382	255.7
310.838	276.77
311.295	372.73
311.751	234.64
312.208	337.62
312.664	232.3
313.12	307.2
313.577	286.13
314.033	346.98
314.489	253.36
314.945	281.45
315.401	342.3
315.857	354.01
316.313	258.04
316.769	318.9
317.225	276.77
317.681	288.47
318.136	253.36
318.592	335.28
319.048	234.64
319.503	293.15
319.959	262.73
320.414	337.62
320.869	304.85
321.325	365.71
321.78	293.15
322.235	323.58
322.691	318.9
323.146	316.56
323.601	248.68
324.056	279.11
324.511	335.28
324.966	295.49
325.421	239.32
325.875	251.02
326.33	276.77
326.785	258.04
327.24	311.88
327.694	246.34
328.149	318.9
328.603	321.24
329.058	297.83
329.512	283.79
329.966	279.11
330.421	290.81
330.875	307.2
331.329	281.45
331.783	283.79
332.237	300.17
332.691	318.9
333.145	295.49
333.599	309.54
334.053	279.11
334.507	309.54
334.96	253.36
335.414	265.07
335.868	337.62
336.321	234.64
336.775	328.26
337.228	239.32
337.682	288.47
338.135	323.58
338.588	318.9
339.042	332.94
339.495	246.34
339.948	314.22
340.401	344.64
340.854	276.77
341.307	391.45
341.76	302.51
342.213	325.92
342.666	318.9
343.119	307.2
343.571	290.81
344.024	297.83
344.477	295.49
344.929	290.81
345.382	342.3
345.834	272.09
346.287	318.9
346.739	330.6
347.191	295.49
347.644	260.38
348.096	314.22
348.548	370.39
349	283.79
349.452	222.94
349.904	239.32
350.356	321.24
350.808	297.83
351.26	293.15
351.711	342.3
352.163	283.79
352.615	260.38
353.066	304.85
353.518	316.56
353.969	213.57
354.421	302.51
354.872	300.17
355.324	330.6
355.775	286.13
356.226	281.45
356.677	344.64
357.128	286.13
357.579	335.28
358.03	269.75
358.481	244
358.932	267.41
359.383	265.07
359.834	290.81
360.285	309.54
360.735	290.81
361.186	279.11
361.637	279.11
362.087	361.03
362.538	332.94
362.988	346.98
363.438	258.04
363.889	300.17
364.339	260.38
364.789	335.28
365.239	323.58
365.689	316.56
366.139	300.17
366.589	314.22
367.039	272.09
367.489	335.28
367.939	328.26
368.389	342.3
368.839	302.51
369.288	323.58
369.738	290.81
370.187	323.58
370.637	274.43
371.086	251.02
371.536	400.82
371.985	286.13
372.434	293.15
372.884	297.83
373.333	356.35
373.782	304.85
374.231	307.2
374.68	246.34
375.129	314.22
375.578	262.73
376.027	316.56
376.475	290.81
376.924	325.92
377.373	344.64
377.822	361.03
378.27	323.58
378.719	332.94
379.167	304.85
379.616	379.75
380.064	307.2
380.512	279.11
380.961	297.83
381.409	349.32
381.857	288.47
382.305	286.13
382.753	318.9
383.201	267.41
383.649	372.73
384.097	300.17
384.545	302.51
384.992	421.88
385.44	344.64
385.888	229.96
386.335	342.3
386.783	316.56
387.231	300.17
387.678	304.85
388.125	311.88
388.573	302.51
389.02	262.73
389.467	309.54
389.914	236.98
390.362	321.24
390.809	330.6
391.256	370.39
391.703	356.35
392.15	330.6
392.596	321.24
393.043	227.62
393.49	274.43
393.937	328.26
394.383	344.64
394.83	269.75
395.276	316.56
395.723	251.02
396.169	323.58
396.616	290.81
397.062	332.94
397.508	253.36
397.954	323.58
398.401	302.51
398.847	332.94
399.293	321.24
399.739	290.81
400.185	293.15
400.631	311.88
401.076	354.01
401.522	302.51
401.968	272.09
402.414	260.38
402.859	349.32
403.305	290.81
403.75	339.96
404.196	379.75
404.641	258.04
405.086	307.2
405.532	281.45
405.977	321.24
406.422	307.2
406.867	339.96
407.312	314.22
407.757	332.94
408.202	391.45
408.647	286.13
409.092	316.56
409.537	265.07
409.982	307.2
410.426	337.62
410.871	316.56
411.316	281.45
411.76	283.79
412.205	337.62
412.649	262.73
413.093	337.62
413.538	323.58
413.982	335.28
414.426	332.94
414.87	295.49
415.314	332.94
415.758	307.2
416.202	309.54
416.646	330.6
417.09	260.38
417.534	358.69
417.978	267.41
418.421	215.91
418.865	274.43
419.309	295.49
419.752	321.24
420.196	307.2
420.639	314.22
421.083	288.47
421.526	265.07
421.969	316.56
422.412	309.54
422.856	311.88
423.299	286.13
423.742	241.66
424.185	295.49
424.628	337.62
425.071	283.79
425.513	339.96
425.956	267.41
426.399	316.56
426.842	300.17
427.284	283.79
427.727	325.92
428.169	297.83
428.612	337.62
429.054	272.09
429.497	386.77
429.939	332.94
430.381	300.17
430.823	342.3
431.265	258.04
431.707	386.77
432.149	297.83
432.591	328.26
433.033	255.7
433.475	269.75
433.917	307.2
434.359	314.22
434.8	267.41
435.242	335.28
435.684	361.03
436.125	286.13
436.567	302.51
437.008	325.92
437.449	281.45
437.891	354.01
438.332	246.34
438.773	279.11
439.214	342.3
439.656	323.58
440.097	337.62
440.538	288.47
440.978	300.17
441.419	293.15
441.86	293.15
442.301	370.39
442.742	300.17
443.182	337.62
443.623	269.75
444.063	297.83
444.504	293.15
444.944	272.09
445.385	346.98
445.825	346.98
446.265	323.58
446.706	255.7
447.146	332.94
447.586	258.04
448.026	295.49
448.466	288.47
448.906	330.6
449.346	288.47
449.786	288.47
450.225	349.32
450.665	295.49
451.105	274.43
451.544	314.22
451.984	351.67
452.424	302.51
452.863	274.43
453.302	349.32
453.742	316.56
454.181	339.96
454.62	288.47
455.059	325.92
455.499	321.24
455.938	276.77
456.377	339.96
456.816	304.85
457.254	318.9
457.693	307.2
458.132	293.15
458.571	325.92
459.01	321.24
459.448	290.81
459.887	309.54
460.325	274.43
460.764	239.32
461.202	279.11
461.641	337.62
462.079	272.09
462.517	316.56
462.955	288.47
463.393	267.41
463.832	281.45
464.27	295.49
464.708	290.81
465.145	309.54
465.583	386.77
466.021	267.41
466.459	288.47
466.897	314.22
467.334	295.49
467.772	325.92
468.209	316.56
468.647	342.3
469.084	386.77
469.522	316.56
469.959	309.54
470.396	286.13
470.833	325.92
471.271	283.79
471.708	295.49
472.145	281.45
472.582	241.66
473.019	361.03
473.456	325.92
473.892	302.51
474.329	239.32
474.766	328.26
475.202	354.01
475.639	304.85
476.076	269.75
476.512	307.2
476.949	318.9
477.385	375.07
477.821	302.51
478.258	318.9
478.694	361.03
479.13	318.9
479.566	351.67
480.002	372.73
480.438	272.09
480.874	358.69
481.31	337.62
481.746	251.02
482.181	342.3
482.617	328.26
483.053	372.73
483.488	314.22
483.924	328.26
484.36	307.2
484.795	295.49
485.23	309.54
485.666	297.83
486.101	300.17
486.536	248.68
486.971	260.38
487.407	295.49
487.842	300.17
488.277	314.22
488.712	293.15
489.146	267.41
489.581	265.07
490.016	337.62
490.451	297.83
490.885	316.56
491.32	307.2
491.755	297.83
492.189	328.26
492.624	281.45
493.058	281.45
493.492	328.26
493.927	300.17
494.361	328.26
494.795	272.09
495.229	290.81
495.663	276.77
496.097	361.03
496.531	328.26
496.965	267.41
497.399	323.58
497.833	311.88
498.266	363.37
498.7	342.3
499.134	363.37
499.567	293.15
500.001	302.51
500.434	314.22
500.868	325.92
501.301	337.62
501.734	316.56
502.168	269.75
502.601	269.75
503.034	300.17
503.467	281.45
503.9	328.26
504.333	290.81
504.766	328.26
505.199	304.85
505.632	304.85
506.064	309.54
506.497	290.81
506.93	300.17
507.362	330.6
507.795	293.15
508.227	262.73
508.66	351.67
509.092	276.77
509.524	297.83
509.956	311.88
510.389	314.22
510.821	321.24
511.253	349.32
511.685	356.35
512.117	325.92
512.549	344.64
512.981	307.2
513.412	297.83
513.844	300.17
514.276	281.45
514.707	314.22
515.139	314.22
515.571	281.45
516.002	267.41
516.433	314.22
516.865	330.6
517.296	274.43
517.727	384.43
518.159	307.2
518.59	344.64
519.021	307.2
519.452	335.28
519.883	309.54
520.314	295.49
520.744	337.62
521.175	323.58
521.606	314.22
522.037	220.6
522.467	372.73
522.898	253.36
523.328	316.56
523.759	354.01
524.189	321.24
524.62	314.22
525.05	272.09
525.48	337.62
525.91	356.35
526.341	283.79
526.771	344.64
527.201	314.22
527.631	351.67
528.061	342.3
528.49	325.92
528.92	318.9
529.35	344.64
529.78	246.34
530.209	325.92
530.639	248.68
531.068	281.45
531.498	295.49
531.927	311.88
532.357	276.77
532.786	302.51
533.215	309.54
533.644	358.69
534.074	302.51
534.503	269.75
534.932	283.79
535.361	323.58
535.79	311.88
536.218	325.92
536.647	314.22
537.076	316.56
537.505	293.15
537.933	321.24
538.362	286.13
538.79	311.88
539.219	304.85
539.647	307.2
540.076	311.88
540.504	293.15
540.932	339.96
541.36	354.01
541.788	295.49
542.217	335.28
542.645	339.96
543.073	354.01
543.5	244
543.928	335.28
544.356	328.26
544.784	260.38
545.211	286.13
545.639	286.13
546.067	318.9
546.494	370.39
546.922	295.49
547.349	288.47
547.776	293.15
548.204	290.81
548.631	307.2
549.058	293.15
549.485	290.81
549.912	316.56
550.339	323.58
550.766	314.22
551.193	288.47
551.62	314.22
552.047	314.22
552.474	283.79
552.9	297.83
553.327	276.77
553.754	288.47
554.18	307.2
554.607	293.15
555.033	220.6
555.459	363.37
555.886	290.81
556.312	272.09
556.738	297.83
557.164	279.11
557.59	361.03
558.016	253.36
558.442	309.54
558.868	309.54
559.294	253.36
559.72	354.01
560.145	351.67
560.571	337.62
560.997	356.35
561.422	337.62
561.848	267.41
562.273	358.69
562.699	318.9
563.124	332.94
563.549	300.17
563.974	279.11
564.4	349.32
564.825	356.35
565.25	274.43
565.675	248.68
566.1	300.17
566.525	260.38
566.95	258.04
567.374	260.38
567.799	344.64
568.224	314.22
568.648	318.9
569.073	288.47
569.497	258.04
569.922	300.17
570.346	325.92
570.771	276.77
571.195	332.94
571.619	293.15
572.043	356.35
572.467	309.54
572.891	321.24
573.315	335.28
573.739	297.83
574.163	290.81
574.587	314.22
575.011	354.01
575.435	272.09
575.858	342.3
576.282	337.62
576.705	307.2
577.129	300.17
577.552	300.17
577.976	325.92
578.399	318.9
578.822	356.35
579.245	309.54
579.669	337.62
580.092	262.73
580.515	351.67
580.938	323.58
581.361	314.22
581.784	295.49
582.206	328.26
582.629	372.73
583.052	344.64
583.474	339.96
583.897	255.7
584.32	318.9
584.742	309.54
585.165	328.26
585.587	297.83
586.009	325.92
586.431	304.85
586.854	309.54
587.276	281.45
587.698	328.26
588.12	281.45
588.542	316.56
588.964	309.54
589.386	281.45
589.807	276.77
590.229	267.41
590.651	314.22
591.073	300.17
591.494	286.13
591.916	339.96
592.337	386.77
592.759	293.15
593.18	323.58
593.601	241.66
594.022	293.15
594.444	311.88
594.865	307.2
595.286	307.2
595.707	295.49
596.128	335.28
596.549	325.92
596.97	220.6
597.39	290.81
597.811	335.28
598.232	290.81
598.652	244
599.073	321.24
599.494	258.04
599.914	286.13
600.334	342.3
600.755	290.81
601.175	297.83
601.595	339.96
602.015	344.64
602.436	260.38
602.856	389.11
603.276	290.81
603.696	251.02
604.115	309.54
604.535	332.94
604.955	325.92
605.375	337.62
605.794	337.62
606.214	300.17
606.634	325.92
607.053	244
607.473	276.77
607.892	262.73
608.311	323.58
608.731	295.49
609.15	342.3
609.569	335.28
609.988	295.49
610.407	265.07
610.826	269.75
611.245	382.09
611.664	300.17
612.083	279.11
612.501	279.11
612.92	337.62
613.339	295.49
613.757	286.13
614.176	375.07
614.594	290.81
615.013	379.75
615.431	335.28
615.85	307.2
616.268	272.09
616.686	304.85
617.104	325.92
617.522	314.22
617.94	262.73
618.358	332.94
618.776	321.24
619.194	281.45
619.612	269.75
620.03	281.45
620.447	302.51
620.865	358.69
621.282	290.81
621.7	346.98
622.117	272.09
622.535	283.79
622.952	311.88
623.369	290.81
623.787	258.04
624.204	262.73
624.621	344.64
625.038	279.11
625.455	314.22
625.872	311.88
626.289	281.45
626.706	295.49
627.123	314.22
627.539	311.88
627.956	307.2
628.373	272.09
628.789	255.7
629.206	283.79
629.622	330.6
630.038	286.13
630.455	318.9
630.871	302.51
631.287	283.79
631.703	339.96
632.12	330.6
632.536	309.54
632.952	316.56
633.368	302.51
633.783	325.92
634.199	302.51
634.615	332.94
635.031	361.03
635.446	269.75
635.862	272.09
636.277	344.64
636.693	274.43
637.108	311.88
637.524	323.58
637.939	375.07
638.354	314.22
638.77	274.43
639.185	288.47
639.6	349.32
640.015	290.81
640.43	335.28
640.845	321.24
641.259	328.26
641.674	293.15
642.089	220.6
642.504	300.17
642.918	316.56
643.333	286.13
643.747	307.2
644.162	265.07
644.576	276.77
644.991	342.3
645.405	255.7
645.819	276.77
646.233	255.7
646.647	330.6
647.061	349.32
647.475	307.2
647.889	325.92
648.303	279.11
648.717	297.83
649.131	293.15
649.545	356.35
649.958	272.09
650.372	365.71
650.785	314.22
651.199	251.02
651.612	328.26
652.026	304.85
652.439	281.45
652.852	325.92
653.266	286.13
653.679	300.17
654.092	386.77
654.505	300.17
654.918	300.17
655.331	325.92
655.744	356.35
656.156	297.83
656.569	267.41
656.982	295.49
657.394	286.13
657.807	384.43
658.22	286.13
658.632	297.83
659.044	307.2
659.457	330.6
659.869	379.75
660.281	316.56
660.693	234.64
661.106	234.64
661.518	335.28
661.93	297.83
662.342	290.81
662.754	300.17
663.165	332.94
663.577	267.41
663.989	365.71
664.401	314.22
664.812	300.17
665.224	325.92
665.635	283.79
666.047	304.85
666.458	349.32
666.869	295.49
667.281	281.45
667.692	274.43
668.103	354.01
668.514	288.47
668.925	311.88
669.336	309.54
669.747	311.88
670.158	267.41
670.569	318.9
670.979	335.28
671.39	337.62
671.801	251.02
672.211	330.6
672.622	276.77
673.032	309.54
673.443	309.54
673.853	286.13
674.263	297.83
674.674	279.11
675.084	332.94
675.494	314.22
675.904	279.11
676.314	276.77
676.724	309.54
677.134	208.89
677.544	344.64
677.953	262.73
678.363	297.83
678.773	379.75
679.182	316.56
679.592	244
680.001	314.22
680.411	220.6
680.82	325.92
681.23	342.3
681.639	351.67
682.048	269.75
682.457	339.96
682.866	309.54
683.275	288.47
683.684	335.28
684.093	318.9
684.502	311.88
684.911	375.07
685.32	300.17
685.728	258.04
686.137	295.49
686.546	293.15
686.954	346.98
687.363	323.58
687.771	302.51
688.179	316.56
688.588	307.2
688.996	309.54
689.404	293.15
689.812	260.38
690.22	290.81
690.628	356.35
691.036	318.9
691.444	297.83
691.852	332.94
692.26	281.45
692.667	361.03
693.075	281.45
693.483	323.58
693.89	269.75
694.298	309.54
694.705	344.64
695.112	267.41
695.52	321.24
695.927	295.49
696.334	365.71
696.741	393.8
697.148	335.28
697.555	349.32
697.962	339.96
698.369	276.77
698.776	272.09
699.183	272.09
699.59	358.69
699.996	325.92
700.403	297.83
700.81	276.77
701.216	300.17
701.623	255.7
702.029	286.13
702.435	295.49
702.842	311.88
703.248	300.17
703.654	330.6
704.06	339.96
704.466	321.24
704.872	255.7
705.278	332.94
705.684	283.79
706.09	349.32
706.496	293.15
706.901	330.6
707.307	302.51
707.712	321.24
708.118	274.43
708.523	297.83
708.929	297.83
709.334	344.64
709.74	241.66
710.145	335.28
710.55	332.94
710.955	309.54
711.36	323.58
711.765	300.17
712.17	398.48
712.575	354.01
712.98	796.37
713.385	368.05
713.789	300.17
714.194	279.11
714.599	262.73
715.003	262.73
715.408	307.2
715.812	337.62
716.217	290.81
716.621	365.71
717.025	309.54
717.429	286.13
717.833	286.13
718.238	314.22
718.642	318.9
719.046	356.35
719.449	358.69
719.853	344.64
720.257	321.24
720.661	370.39
721.065	342.3
721.468	283.79
721.872	281.45
722.275	335.28
722.679	316.56
723.082	297.83
723.485	311.88
723.889	272.09
724.292	300.17
724.695	262.73
725.098	337.62
725.501	372.73
725.904	365.71
726.307	332.94
726.71	286.13
727.113	276.77
727.516	295.49
727.918	314.22
728.321	316.56
728.724	279.11
729.126	302.51
729.529	325.92
729.931	311.88
730.333	290.81
730.736	239.32
731.138	246.34
731.54	258.04
731.942	288.47
732.344	286.13
732.746	288.47
733.148	297.83
733.55	293.15
733.952	318.9
734.354	288.47
734.756	328.26
735.157	332.94
735.559	274.43
735.96	295.49
736.362	281.45
736.763	300.17
737.165	283.79
737.566	283.79
737.967	335.28
738.368	328.26
738.77	342.3
739.171	330.6
739.572	274.43
739.973	318.9
740.374	314.22
740.774	199.53
741.175	241.66
741.576	236.98
741.977	318.9
742.377	307.2
742.778	297.83
743.178	309.54
743.579	311.88
743.979	304.85
744.379	342.3
744.78	295.49
745.18	258.04
745.58	265.07
745.98	363.37
746.38	339.96
746.78	269.75
747.18	274.43
747.58	288.47
747.98	304.85
748.38	293.15
748.779	267.41
749.179	307.2
749.578	300.17
749.978	297.83
750.377	269.75
750.777	311.88
751.176	281.45
751.575	361.03
751.975	318.9
752.374	276.77
752.773	311.88
753.172	295.49
753.571	288.47
753.97	309.54
754.369	372.73
754.768	339.96
755.166	279.11
755.565	295.49
755.964	314.22
756.362	323.58
756.761	283.79
757.159	234.64
757.558	358.69
757.956	293.15
758.354	283.79
758.753	293.15
759.151	337.62
759.549	293.15
759.947	335.28
760.345	236.98
760.743	321.24
761.141	361.03
761.539	297.83
761.936	351.67
762.334	293.15
762.732	321.24
763.129	311.88
763.527	258.04
763.924	325.92
764.322	274.43
764.719	297.83
765.117	339.96
765.514	316.56
765.911	342.3
