Data from Al_FLMS009871__210__12-08-02-764.txt Node

Date: Fri Mar 08 12:08:02 CST 2024
User: pe5414po
Spectrometer: FLMS00987
Trigger mode: 0
Integration Time (sec): 1.000000E-1
Scans to average: 1
Electric dark correction enabled: true
Nonlinearity correction enabled: false
Boxcar width: 0
XAxis mode: Wavelengths
Number of Pixels in Spectrum: 2048
>>>>>Begin Spectral Data<<<<<
188.938	-123.61
189.409	-123.61
189.879	-123.61
190.349	-76.8
190.819	-79.14
191.29	-51.05
191.76	-44.03
192.23	-132.97
192.7	-69.78
193.17	-90.84
193.64	-44.03
194.109	-15.94
194.579	19.16
195.049	7.46
195.519	44.91
195.988	7.46
196.458	105.76
196.927	28.53
197.397	65.97
197.866	75.34
198.336	94.06
198.805	138.53
199.274	159.6
199.744	168.96
200.213	257.9
200.682	159.6
201.151	122.15
201.62	187.68
202.089	248.54
202.558	171.3
203.027	225.13
203.495	243.85
203.964	285.98
204.433	288.32
204.902	218.11
205.37	314.07
205.839	239.17
206.307	307.05
206.776	229.81
207.244	260.24
207.712	297.69
208.181	302.37
208.649	290.67
209.117	307.05
209.585	290.67
210.053	271.94
210.521	255.56
210.989	309.39
211.457	290.67
211.925	314.07
212.393	276.62
212.861	358.54
213.328	309.39
213.796	276.62
214.264	185.34
214.731	241.51
215.199	255.56
215.666	215.77
216.133	321.09
216.601	248.54
217.068	262.58
217.535	283.64
218.003	243.85
218.47	316.41
218.937	269.6
219.404	262.58
219.871	190.02
220.338	215.77
220.805	248.54
221.271	271.94
221.738	290.67
222.205	297.69
222.671	248.54
223.138	208.75
223.605	276.62
224.071	262.58
224.538	211.09
225.004	222.79
225.47	213.43
225.937	204.07
226.403	229.81
226.869	194.7
227.335	262.58
227.801	253.22
228.267	211.09
228.733	232.15
229.199	229.81
229.665	215.77
230.131	295.35
230.597	222.79
231.062	257.9
231.528	236.83
231.994	300.03
232.459	274.28
232.925	239.17
233.39	293.01
233.856	227.47
234.321	229.81
234.786	297.69
235.252	311.73
235.717	250.88
236.182	218.11
236.647	264.92
237.112	234.49
237.577	278.96
238.042	201.72
238.507	264.92
238.972	222.79
239.436	267.26
239.901	323.43
240.366	283.64
240.83	236.83
241.295	192.36
241.76	260.24
242.224	260.24
242.688	241.51
243.153	241.51
243.617	246.2
244.081	281.3
244.545	262.58
245.01	267.26
245.474	243.85
245.938	321.09
246.402	239.17
246.866	206.41
247.33	213.43
247.793	220.45
248.257	307.05
248.721	311.73
249.185	262.58
249.648	262.58
250.112	269.6
250.575	295.35
251.039	260.24
251.502	215.77
251.965	220.45
252.429	304.71
252.892	274.28
253.355	346.84
253.818	276.62
254.281	260.24
254.744	288.32
255.207	307.05
255.67	290.67
256.133	227.47
256.596	234.49
257.059	300.03
257.522	276.62
257.984	225.13
258.447	250.88
258.909	314.07
259.372	239.17
259.834	241.51
260.297	295.35
260.759	248.54
261.221	288.32
261.684	288.32
262.146	346.84
262.608	208.75
263.07	199.38
263.532	229.81
263.994	300.03
264.456	248.54
264.918	288.32
265.38	321.09
265.842	260.24
266.303	276.62
266.765	297.69
267.227	262.58
267.688	260.24
268.15	206.41
268.611	307.05
269.072	243.85
269.534	201.72
269.995	337.48
270.456	290.67
270.918	206.41
271.379	281.3
271.84	255.56
272.301	248.54
272.762	257.9
273.223	285.98
273.684	267.26
274.144	264.92
274.605	194.7
275.066	283.64
275.527	302.37
275.987	302.37
276.448	246.2
276.908	276.62
277.369	278.96
277.829	349.18
278.289	288.32
278.75	250.88
279.21	297.69
279.67	304.71
280.13	250.88
280.59	253.22
281.05	332.79
281.51	328.11
281.97	311.73
282.43	304.71
282.89	267.26
283.35	325.77
283.809	290.67
284.269	278.96
284.729	264.92
285.188	278.96
285.648	300.03
286.107	276.62
286.567	225.13
287.026	335.14
287.485	304.71
287.944	234.49
288.404	293.01
288.863	262.58
289.322	332.79
289.781	274.28
290.24	262.58
290.699	288.32
291.158	206.41
291.616	222.79
292.075	283.64
292.534	281.3
292.992	276.62
293.451	314.07
293.91	314.07
294.368	274.28
294.827	267.26
295.285	307.05
295.743	307.05
296.202	213.43
296.66	278.96
297.118	241.51
297.576	262.58
298.034	243.85
298.492	304.71
298.95	323.43
299.408	314.07
299.866	337.48
300.324	309.39
300.781	293.01
301.239	311.73
301.697	297.69
302.154	229.81
302.612	328.11
303.069	339.82
303.527	288.32
303.984	267.26
304.441	325.77
304.899	300.03
305.356	293.01
305.813	304.71
306.27	246.2
306.727	271.94
307.184	309.39
307.641	297.69
308.098	250.88
308.555	246.2
309.012	304.71
309.468	276.62
309.925	276.62
310.382	304.71
310.838	288.32
311.295	311.73
311.751	316.41
312.208	297.69
312.664	255.56
313.12	257.9
313.577	227.47
314.033	276.62
314.489	257.9
314.945	288.32
315.401	278.96
315.857	293.01
316.313	293.01
316.769	293.01
317.225	295.35
317.681	276.62
318.136	325.77
318.592	311.73
319.048	302.37
319.503	330.45
319.959	269.6
320.414	318.75
320.869	293.01
321.325	278.96
321.78	349.18
322.235	309.39
322.691	253.22
323.146	302.37
323.601	295.35
324.056	307.05
324.511	290.67
324.966	276.62
325.421	293.01
325.875	288.32
326.33	248.54
326.785	295.35
327.24	325.77
327.694	325.77
328.149	314.07
328.603	278.96
329.058	269.6
329.512	295.35
329.966	342.16
330.421	283.64
330.875	271.94
331.329	356.2
331.783	246.2
332.237	293.01
332.691	213.43
333.145	300.03
333.599	267.26
334.053	250.88
334.507	321.09
334.96	356.2
335.414	267.26
335.868	269.6
336.321	300.03
336.775	260.24
337.228	290.67
337.682	339.82
338.135	290.67
338.588	271.94
339.042	281.3
339.495	309.39
339.948	264.92
340.401	267.26
340.854	342.16
341.307	304.71
341.76	365.56
342.213	311.73
342.666	269.6
343.119	330.45
343.571	316.41
344.024	271.94
344.477	311.73
344.929	285.98
345.382	302.37
345.834	360.88
346.287	318.75
346.739	293.01
347.191	325.77
347.644	321.09
348.096	241.51
348.548	337.48
349	236.83
349.452	346.84
349.904	377.27
350.356	285.98
350.808	314.07
351.26	297.69
351.711	267.26
352.163	250.88
352.615	283.64
353.066	339.82
353.518	304.71
353.969	307.05
354.421	356.2
354.872	255.56
355.324	274.28
355.775	297.69
356.226	304.71
356.677	300.03
357.128	293.01
357.579	264.92
358.03	351.52
358.481	250.88
358.932	300.03
359.383	278.96
359.834	227.47
360.285	325.77
360.735	323.43
361.186	304.71
361.637	318.75
362.087	283.64
362.538	314.07
362.988	316.41
363.438	311.73
363.889	314.07
364.339	339.82
364.789	335.14
365.239	267.26
365.689	344.5
366.139	344.5
366.589	302.37
367.039	267.26
367.489	269.6
367.939	285.98
368.389	323.43
368.839	218.11
369.288	311.73
369.738	332.79
370.187	269.6
370.637	255.56
371.086	232.15
371.536	278.96
371.985	278.96
372.434	309.39
372.884	325.77
373.333	290.67
373.782	253.22
374.231	304.71
374.68	248.54
375.129	337.48
375.578	323.43
376.027	281.3
376.475	344.5
376.924	321.09
377.373	300.03
377.822	288.32
378.27	234.49
378.719	285.98
379.167	260.24
379.616	271.94
380.064	285.98
380.512	309.39
380.961	339.82
381.409	271.94
381.857	248.54
382.305	288.32
382.753	271.94
383.201	297.69
383.649	290.67
384.097	246.2
384.545	314.07
384.992	281.3
385.44	290.67
385.888	304.71
386.335	363.22
386.783	325.77
387.231	328.11
387.678	346.84
388.125	339.82
388.573	332.79
389.02	328.11
389.467	262.58
389.914	253.22
390.362	335.14
390.809	274.28
391.256	276.62
391.703	304.71
392.15	295.35
392.596	318.75
393.043	302.37
393.49	325.77
393.937	293.01
394.383	293.01
394.83	318.75
395.276	311.73
395.723	300.03
396.169	288.32
396.616	335.14
397.062	257.9
397.508	316.41
397.954	360.88
398.401	285.98
398.847	262.58
399.293	274.28
399.739	295.35
400.185	344.5
400.631	311.73
401.076	304.71
401.522	293.01
401.968	381.95
402.414	304.71
402.859	316.41
403.305	255.56
403.75	330.45
404.196	374.92
404.641	400.67
405.086	337.48
405.532	330.45
405.977	288.32
406.422	276.62
406.867	285.98
407.312	309.39
407.757	302.37
408.202	290.67
408.647	344.5
409.092	222.79
409.537	271.94
409.982	325.77
410.426	309.39
410.871	328.11
411.316	323.43
411.76	323.43
412.205	328.11
412.649	304.71
413.093	407.69
413.538	316.41
413.982	316.41
414.426	388.97
414.87	302.37
415.314	311.73
415.758	281.3
416.202	332.79
416.646	325.77
417.09	278.96
417.534	297.69
417.978	314.07
418.421	297.69
418.865	360.88
419.309	309.39
419.752	309.39
420.196	353.86
420.639	300.03
421.083	330.45
421.526	295.35
421.969	374.92
422.412	328.11
422.856	318.75
423.299	344.5
423.742	283.64
424.185	262.58
424.628	220.45
425.071	332.79
425.513	304.71
425.956	316.41
426.399	342.16
426.842	372.58
427.284	321.09
427.727	330.45
428.169	300.03
428.612	405.35
429.054	351.52
429.497	344.5
429.939	414.71
430.381	412.37
430.823	283.64
431.265	424.08
431.707	403.01
432.149	414.71
432.591	426.42
433.033	363.22
433.475	424.08
433.917	468.55
434.359	395.99
434.8	494.29
435.242	538.76
435.684	480.25
436.125	552.81
436.567	424.08
437.008	454.5
437.449	419.39
437.891	381.95
438.332	403.01
438.773	419.39
439.214	372.58
439.656	449.82
440.097	426.42
440.538	435.78
440.978	421.74
441.419	412.37
441.86	468.55
442.301	522.38
442.742	494.29
443.182	468.55
443.623	454.5
444.063	473.23
444.504	482.59
444.944	491.95
445.385	477.91
445.825	494.29
446.265	494.29
446.706	531.74
447.146	475.57
447.586	482.59
448.026	529.4
448.466	524.72
448.906	487.27
449.346	477.91
449.786	452.16
450.225	433.44
450.665	496.63
451.105	491.95
451.544	482.59
451.984	541.1
452.424	438.12
452.863	403.01
453.302	545.78
453.742	424.08
454.181	482.59
454.62	384.29
455.059	417.05
455.499	405.35
455.938	424.08
456.377	391.31
456.816	421.74
457.254	405.35
457.693	470.89
458.132	391.31
458.571	388.97
459.01	435.78
459.448	386.63
459.887	321.09
460.325	431.1
460.764	391.31
461.202	400.67
461.641	400.67
462.079	414.71
462.517	426.42
462.955	417.05
463.393	388.97
463.832	426.42
464.27	395.99
464.708	419.39
465.145	400.67
465.583	339.82
466.021	424.08
466.459	302.37
466.897	384.29
467.334	332.79
467.772	372.58
468.209	419.39
468.647	344.5
469.084	417.05
469.522	372.58
469.959	370.24
470.396	407.69
470.833	351.52
471.271	325.77
471.708	379.61
472.145	367.9
472.582	321.09
473.019	325.77
473.456	403.01
473.892	372.58
474.329	377.27
474.766	321.09
475.202	374.92
475.639	407.69
476.076	360.88
476.512	330.45
476.949	381.95
477.385	370.24
477.821	381.95
478.258	386.63
478.694	358.54
479.13	365.56
479.566	339.82
480.002	365.56
480.438	358.54
480.874	321.09
481.31	374.92
481.746	353.86
482.181	332.79
482.617	377.27
483.053	424.08
483.488	398.33
483.924	360.88
484.36	452.16
484.795	381.95
485.23	428.76
485.666	400.67
486.101	414.71
486.536	470.89
486.971	374.92
487.407	417.05
487.842	435.78
488.277	447.48
488.712	428.76
489.146	421.74
489.581	433.44
490.016	414.71
490.451	393.65
490.885	393.65
491.32	398.33
491.755	391.31
492.189	395.99
492.624	398.33
493.058	374.92
493.492	381.95
493.927	403.01
494.361	424.08
494.795	358.54
495.229	407.69
495.663	379.61
496.097	360.88
496.531	353.86
496.965	400.67
497.399	438.12
497.833	400.67
498.266	358.54
498.7	445.14
499.134	360.88
499.567	407.69
500.001	449.82
500.434	433.44
500.868	363.22
501.301	335.14
501.734	414.71
502.168	403.01
502.601	353.86
503.034	370.24
503.467	360.88
503.9	339.82
504.333	360.88
504.766	388.97
505.199	438.12
505.632	353.86
506.064	424.08
506.497	480.25
506.93	395.99
507.362	412.37
507.795	445.14
508.227	433.44
508.66	414.71
509.092	344.5
509.524	342.16
509.956	428.76
510.389	414.71
510.821	372.58
511.253	421.74
511.685	456.84
512.117	356.2
512.549	447.48
512.981	379.61
513.412	435.78
513.844	496.63
514.276	459.18
514.707	445.14
515.139	433.44
515.571	438.12
516.002	398.33
516.433	426.42
516.865	442.8
517.296	363.22
517.727	459.18
518.159	414.71
518.59	405.35
519.021	391.31
519.452	426.42
519.883	445.14
520.314	414.71
520.744	391.31
521.175	417.05
521.606	410.03
522.037	400.67
522.467	433.44
522.898	463.86
523.328	438.12
523.759	360.88
524.189	431.1
524.62	377.27
525.05	494.29
525.48	365.56
525.91	363.22
526.341	342.16
526.771	386.63
527.201	398.33
527.631	487.27
528.061	398.33
528.49	466.21
528.92	428.76
529.35	466.21
529.78	379.61
530.209	367.9
530.639	337.48
531.068	501.31
531.498	365.56
531.927	381.95
532.357	414.71
532.786	393.65
533.215	475.57
533.644	426.42
534.074	351.52
534.503	461.52
534.932	384.29
535.361	454.5
535.79	470.89
536.218	405.35
536.647	424.08
537.076	407.69
537.505	410.03
537.933	414.71
538.362	466.21
538.79	395.99
539.219	424.08
539.647	426.42
540.076	531.74
540.504	477.91
540.932	536.42
541.36	569.19
541.788	625.36
542.217	674.51
542.645	665.15
543.073	784.52
543.5	726
543.928	828.99
544.356	688.56
544.784	637.06
545.211	693.24
545.639	723.66
546.067	690.9
546.494	597.28
546.922	529.4
547.349	496.63
547.776	498.97
548.204	491.95
548.631	440.46
549.058	461.52
549.485	482.59
549.912	470.89
550.339	475.57
550.766	487.27
551.193	419.39
551.62	442.8
552.047	503.65
552.474	468.55
552.9	454.5
553.327	501.31
553.754	358.54
554.18	426.42
554.607	454.5
555.033	381.95
555.459	466.21
555.886	400.67
556.312	456.84
556.738	400.67
557.164	388.97
557.59	365.56
558.016	412.37
558.442	393.65
558.868	421.74
559.294	414.71
559.72	417.05
560.145	342.16
560.571	407.69
560.997	426.42
561.422	456.84
561.848	381.95
562.273	400.67
562.699	395.99
563.124	367.9
563.549	374.92
563.974	412.37
564.4	454.5
564.825	405.35
565.25	442.8
565.675	412.37
566.1	356.2
566.525	395.99
566.95	353.86
567.374	400.67
567.799	473.23
568.224	356.2
568.648	395.99
569.073	332.79
569.497	426.42
569.922	419.39
570.346	403.01
570.771	414.71
571.195	424.08
571.619	461.52
572.043	398.33
572.467	388.97
572.891	372.58
573.315	395.99
573.739	391.31
574.163	405.35
574.587	339.82
575.011	379.61
575.435	442.8
575.858	393.65
576.282	447.48
576.705	419.39
577.129	456.84
577.552	419.39
577.976	473.23
578.399	393.65
578.822	445.14
579.245	454.5
579.669	473.23
580.092	391.31
580.515	445.14
580.938	395.99
581.361	447.48
581.784	447.48
582.206	463.86
582.629	419.39
583.052	470.89
583.474	473.23
583.897	431.1
584.32	414.71
584.742	421.74
585.165	508.34
585.587	414.71
586.009	388.97
586.431	419.39
586.854	477.91
587.276	498.97
587.698	466.21
588.12	498.97
588.542	496.63
588.964	398.33
589.386	442.8
589.807	449.82
590.229	372.58
590.651	403.01
591.073	498.97
591.494	438.12
591.916	459.18
592.337	435.78
592.759	421.74
593.18	410.03
593.601	440.46
594.022	388.97
594.444	414.71
594.865	346.84
595.286	426.42
595.707	388.97
596.128	433.44
596.549	363.22
596.97	431.1
597.39	330.45
597.811	414.71
598.232	339.82
598.652	346.84
599.073	412.37
599.494	377.27
599.914	377.27
600.334	414.71
600.755	384.29
601.175	403.01
601.595	381.95
602.015	372.58
602.436	400.67
602.856	473.23
603.276	426.42
603.696	398.33
604.115	393.65
604.535	365.56
604.955	363.22
605.375	302.37
605.794	339.82
606.214	370.24
606.634	403.01
607.053	435.78
607.473	414.71
607.892	414.71
608.311	498.97
608.731	459.18
609.15	442.8
609.569	592.59
609.988	639.41
610.407	723.66
610.826	800.9
611.245	803.24
611.664	690.9
612.083	667.49
612.501	667.49
612.92	611.32
613.339	585.57
613.757	538.76
614.176	536.42
614.594	433.44
615.013	424.08
615.431	433.44
615.85	452.16
616.268	428.76
616.686	475.57
617.104	414.71
617.522	391.31
617.94	377.27
618.358	374.92
618.776	412.37
619.194	414.71
619.612	421.74
620.03	372.58
620.447	388.97
620.865	463.86
621.282	391.31
621.7	360.88
622.117	379.61
622.535	419.39
622.952	372.58
623.369	356.2
623.787	419.39
624.204	363.22
624.621	337.48
625.038	403.01
625.455	379.61
625.872	388.97
626.289	374.92
626.706	309.39
627.123	379.61
627.539	339.82
627.956	391.31
628.373	346.84
628.789	337.48
629.206	438.12
629.622	335.14
630.038	360.88
630.455	374.92
630.871	374.92
631.287	449.82
631.703	374.92
632.12	330.45
632.536	304.71
632.952	328.11
633.368	346.84
633.783	290.67
634.199	325.77
634.615	311.73
635.031	323.43
635.446	309.39
635.862	304.71
636.277	328.11
636.693	293.01
637.108	344.5
637.524	360.88
637.939	302.37
638.354	328.11
638.77	278.96
639.185	332.79
639.6	278.96
640.015	335.14
640.43	285.98
640.845	309.39
641.259	208.75
641.674	417.05
642.089	346.84
642.504	302.37
642.918	342.16
643.333	391.31
643.747	311.73
644.162	304.71
644.576	363.22
644.991	353.86
645.405	342.16
645.819	246.2
646.233	255.56
646.647	370.24
647.061	384.29
647.475	316.41
647.889	321.09
648.303	325.77
648.717	307.05
649.131	290.67
649.545	300.03
649.958	335.14
650.372	351.52
650.785	328.11
651.199	337.48
651.612	337.48
652.026	318.75
652.439	241.51
652.852	318.75
653.266	290.67
653.679	281.3
654.092	295.35
654.505	328.11
654.918	314.07
655.331	295.35
655.744	328.11
656.156	405.35
656.569	314.07
656.982	278.96
657.394	335.14
657.807	337.48
658.22	349.18
658.632	335.14
659.044	290.67
659.457	388.97
659.869	356.2
660.281	344.5
660.693	285.98
661.106	300.03
661.518	307.05
661.93	281.3
662.342	337.48
662.754	344.5
663.165	314.07
663.577	300.03
663.989	304.71
664.401	309.39
664.812	309.39
665.224	316.41
665.635	365.56
666.047	410.03
666.458	417.05
666.869	304.71
667.281	332.79
667.692	271.94
668.103	318.75
668.514	344.5
668.925	316.41
669.336	344.5
669.747	328.11
670.158	271.94
670.569	262.58
670.979	314.07
671.39	290.67
671.801	431.1
672.211	332.79
672.622	300.03
673.032	424.08
673.443	332.79
673.853	290.67
674.263	339.82
674.674	328.11
675.084	316.41
675.494	311.73
675.904	295.35
676.314	274.28
676.724	351.52
677.134	295.35
677.544	293.01
677.953	325.77
678.363	278.96
678.773	325.77
679.182	363.22
679.592	353.86
680.001	295.35
680.411	328.11
680.82	337.48
681.23	318.75
681.639	365.56
682.048	246.2
682.457	346.84
682.866	328.11
683.275	271.94
683.684	295.35
684.093	278.96
684.502	262.58
684.911	285.98
685.32	351.52
685.728	325.77
686.137	346.84
686.546	337.48
686.954	321.09
687.363	358.54
687.771	257.9
688.179	356.2
688.588	346.84
688.996	311.73
689.404	316.41
689.812	278.96
690.22	267.26
690.628	318.75
691.036	293.01
691.444	262.58
691.852	300.03
692.26	311.73
692.667	360.88
693.075	381.95
693.483	356.2
693.89	300.03
694.298	358.54
694.705	335.14
695.112	323.43
695.52	360.88
695.927	360.88
696.334	349.18
696.741	332.79
697.148	293.01
697.555	302.37
697.962	307.05
698.369	316.41
698.776	288.32
699.183	297.69
699.59	316.41
699.996	295.35
700.403	304.71
700.81	318.75
701.216	328.11
701.623	267.26
702.029	250.88
702.435	274.28
702.842	304.71
703.248	257.9
703.654	269.6
704.06	295.35
704.466	372.58
704.872	321.09
705.278	278.96
705.684	300.03
706.09	297.69
706.496	346.84
706.901	377.27
707.307	351.52
707.712	323.43
708.118	337.48
708.523	356.2
708.929	330.45
709.334	264.92
709.74	232.15
710.145	342.16
710.55	337.48
710.955	250.88
711.36	339.82
711.765	300.03
712.17	311.73
712.575	314.07
712.98	1105.17
713.385	358.54
713.789	370.24
714.194	283.64
714.599	316.41
715.003	295.35
715.408	344.5
715.812	358.54
716.217	302.37
716.621	360.88
717.025	283.64
717.429	370.24
717.833	316.41
718.238	339.82
718.642	288.32
719.046	335.14
719.449	339.82
719.853	300.03
720.257	363.22
720.661	300.03
721.065	257.9
721.468	325.77
721.872	337.48
722.275	225.13
722.679	318.75
723.082	377.27
723.485	267.26
723.889	318.75
724.292	201.72
724.695	304.71
725.098	297.69
725.501	293.01
725.904	290.67
726.307	288.32
726.71	311.73
727.113	243.85
727.516	246.2
727.918	271.94
728.321	318.75
728.724	278.96
729.126	374.92
729.529	283.64
729.931	229.81
730.333	309.39
730.736	290.67
731.138	342.16
731.54	325.77
731.942	264.92
732.344	304.71
732.746	346.84
733.148	325.77
733.55	300.03
733.952	325.77
734.354	316.41
734.756	304.71
735.157	262.58
735.559	271.94
735.96	253.22
736.362	360.88
736.763	255.56
737.165	328.11
737.566	267.26
737.967	281.3
738.368	339.82
738.77	264.92
739.171	318.75
739.572	349.18
739.973	300.03
740.374	335.14
740.774	246.2
741.175	318.75
741.576	278.96
741.977	342.16
742.377	248.54
742.778	307.05
743.178	318.75
743.579	332.79
743.979	353.86
744.379	288.32
744.78	314.07
745.18	314.07
745.58	302.37
745.98	337.48
746.38	337.48
746.78	293.01
747.18	311.73
747.58	316.41
747.98	253.22
748.38	309.39
748.779	330.45
749.179	335.14
749.578	300.03
749.978	290.67
750.377	253.22
750.777	381.95
751.176	295.35
751.575	309.39
751.975	360.88
752.374	309.39
752.773	328.11
753.172	297.69
753.571	318.75
753.97	274.28
754.369	304.71
754.768	323.43
755.166	285.98
755.565	271.94
755.964	339.82
756.362	307.05
756.761	321.09
757.159	330.45
757.558	332.79
757.956	232.15
758.354	346.84
758.753	274.28
759.151	250.88
759.549	297.69
759.947	285.98
760.345	318.75
760.743	302.37
761.141	276.62
761.539	337.48
761.936	339.82
762.334	300.03
762.732	255.56
763.129	283.64
763.527	285.98
763.924	297.69
764.322	295.35
