Data from Al_FLMS009871__200__12-08-01-764.txt Node

Date: Fri Mar 08 12:08:01 CST 2024
User: pe5414po
Spectrometer: FLMS00987
Trigger mode: 0
Integration Time (sec): 1.000000E-1
Scans to average: 1
Electric dark correction enabled: true
Nonlinearity correction enabled: false
Boxcar width: 0
XAxis mode: Wavelengths
Number of Pixels in Spectrum: 2048
>>>>>Begin Spectral Data<<<<<
188.938	-37.89
189.409	-37.89
189.879	-37.89
190.349	-112.78
190.819	-126.83
191.29	-89.38
191.76	-65.97
192.23	-75.34
192.7	-103.42
193.17	-82.36
193.64	-30.87
194.109	-103.42
194.579	4.24
195.049	-14.48
195.519	-51.93
195.988	25.31
196.458	83.82
196.927	67.44
197.397	147.01
197.866	151.7
198.336	137.65
198.805	135.31
199.274	158.72
199.744	156.38
200.213	247.66
200.682	175.1
201.151	217.23
201.62	168.08
202.089	240.64
202.558	292.13
203.027	301.49
203.495	219.57
203.964	261.7
204.433	296.81
204.902	327.24
205.37	257.02
205.839	235.96
206.307	294.47
206.776	367.03
207.244	261.7
207.712	193.83
208.181	275.74
208.649	282.77
209.117	313.19
209.585	275.74
210.053	212.55
210.521	278.08
210.989	224.25
211.457	282.77
211.925	245.32
212.393	250
212.861	315.53
213.328	247.66
213.796	303.83
214.264	257.02
214.731	338.94
215.199	292.13
215.666	329.58
216.133	254.68
216.601	226.59
217.068	280.43
217.535	228.93
218.003	182.12
218.47	308.51
218.937	247.66
219.404	303.83
219.871	306.17
220.338	207.87
220.805	266.38
221.271	301.49
221.738	292.13
222.205	292.13
222.671	289.79
223.138	217.23
223.605	299.15
224.071	275.74
224.538	285.11
225.004	186.8
225.47	271.06
225.937	196.17
226.403	306.17
226.869	193.83
227.335	219.57
227.801	214.89
228.267	224.25
228.733	268.72
229.199	259.36
229.665	278.08
230.131	280.43
230.597	261.7
231.062	231.27
231.528	254.68
231.994	268.72
232.459	280.43
232.925	294.47
233.39	203.19
233.856	228.93
234.321	207.87
234.786	224.25
235.252	278.08
235.717	273.4
236.182	264.04
236.647	308.51
237.112	280.43
237.577	245.32
238.042	289.79
238.507	308.51
238.972	266.38
239.436	196.17
239.901	271.06
240.366	252.34
240.83	205.53
241.295	296.81
241.76	275.74
242.224	186.8
242.688	271.06
243.153	355.32
243.617	165.74
244.081	264.04
244.545	280.43
245.01	308.51
245.474	285.11
245.938	250
246.402	238.3
246.866	317.87
247.33	266.38
247.793	287.45
248.257	306.17
248.721	324.9
249.185	252.34
249.648	212.55
250.112	352.98
250.575	264.04
251.039	287.45
251.502	280.43
251.965	207.87
252.429	240.64
252.892	214.89
253.355	310.85
253.818	308.51
254.281	294.47
254.744	278.08
255.207	242.98
255.67	280.43
256.133	196.17
256.596	264.04
257.059	254.68
257.522	275.74
257.984	266.38
258.447	261.7
258.909	228.93
259.372	271.06
259.834	268.72
260.297	259.36
260.759	303.83
261.221	278.08
261.684	327.24
262.146	315.53
262.608	250
263.07	259.36
263.532	287.45
263.994	233.61
264.456	189.14
264.918	310.85
265.38	296.81
265.842	282.77
266.303	261.7
266.765	275.74
267.227	266.38
267.688	301.49
268.15	336.6
268.611	360
269.072	240.64
269.534	292.13
269.995	364.68
270.456	303.83
270.918	292.13
271.379	306.17
271.84	327.24
272.301	322.56
272.762	250
273.223	299.15
273.684	268.72
274.144	252.34
274.605	310.85
275.066	273.4
275.527	289.79
275.987	287.45
276.448	313.19
276.908	294.47
277.369	242.98
277.829	247.66
278.289	245.32
278.75	278.08
279.21	292.13
279.67	322.56
280.13	310.85
280.59	285.11
281.05	268.72
281.51	261.7
281.97	348.3
282.43	317.87
282.89	221.91
283.35	362.34
283.809	322.56
284.269	308.51
284.729	322.56
285.188	329.58
285.648	343.62
286.107	357.66
286.567	214.89
287.026	310.85
287.485	383.41
287.944	287.45
288.404	327.24
288.863	271.06
289.322	289.79
289.781	345.96
290.24	310.85
290.699	252.34
291.158	294.47
291.616	285.11
292.075	308.51
292.534	327.24
292.992	299.15
293.451	292.13
293.91	320.21
294.368	280.43
294.827	331.92
295.285	280.43
295.743	299.15
296.202	308.51
296.66	313.19
297.118	282.77
297.576	322.56
298.034	233.61
298.492	294.47
298.95	250
299.408	336.6
299.866	221.91
300.324	238.3
300.781	278.08
301.239	292.13
301.697	242.98
302.154	240.64
302.612	301.49
303.069	310.85
303.527	294.47
303.984	341.28
304.441	334.26
304.899	280.43
305.356	294.47
305.813	278.08
306.27	245.32
306.727	273.4
307.184	331.92
307.641	301.49
308.098	329.58
308.555	317.87
309.012	228.93
309.468	259.36
309.925	257.02
310.382	285.11
310.838	308.51
311.295	273.4
311.751	292.13
312.208	278.08
312.664	296.81
313.12	275.74
313.577	247.66
314.033	299.15
314.489	292.13
314.945	338.94
315.401	306.17
315.857	334.26
316.313	303.83
316.769	271.06
317.225	341.28
317.681	334.26
318.136	315.53
318.592	348.3
319.048	252.34
319.503	338.94
319.959	320.21
320.414	334.26
320.869	289.79
321.325	336.6
321.78	317.87
322.235	327.24
322.691	338.94
323.146	299.15
323.601	285.11
324.056	345.96
324.511	336.6
324.966	317.87
325.421	224.25
325.875	320.21
326.33	308.51
326.785	271.06
327.24	313.19
327.694	257.02
328.149	308.51
328.603	345.96
329.058	289.79
329.512	357.66
329.966	278.08
330.421	299.15
330.875	285.11
331.329	313.19
331.783	317.87
332.237	315.53
332.691	247.66
333.145	324.9
333.599	273.4
334.053	341.28
334.507	334.26
334.96	264.04
335.414	278.08
335.868	360
336.321	296.81
336.775	315.53
337.228	327.24
337.682	310.85
338.135	240.64
338.588	348.3
339.042	367.03
339.495	303.83
339.948	355.32
340.401	362.34
340.854	271.06
341.307	275.74
341.76	287.45
342.213	341.28
342.666	221.91
343.119	289.79
343.571	282.77
344.024	352.98
344.477	315.53
344.929	352.98
345.382	313.19
345.834	322.56
346.287	376.39
346.739	306.17
347.191	273.4
347.644	301.49
348.096	296.81
348.548	303.83
349	334.26
349.452	303.83
349.904	369.37
350.356	273.4
350.808	235.96
351.26	310.85
351.711	296.81
352.163	282.77
352.615	247.66
353.066	327.24
353.518	317.87
353.969	296.81
354.421	317.87
354.872	273.4
355.324	285.11
355.775	275.74
356.226	367.03
356.677	285.11
357.128	280.43
357.579	221.91
358.03	268.72
358.481	280.43
358.932	292.13
359.383	247.66
359.834	324.9
360.285	338.94
360.735	374.05
361.186	289.79
361.637	292.13
362.087	343.62
362.538	402.13
362.988	364.68
363.438	388.09
363.889	266.38
364.339	287.45
364.789	303.83
365.239	303.83
365.689	301.49
366.139	287.45
366.589	296.81
367.039	329.58
367.489	329.58
367.939	322.56
368.389	240.64
368.839	310.85
369.288	313.19
369.738	327.24
370.187	306.17
370.637	310.85
371.086	224.25
371.536	352.98
371.985	383.41
372.434	268.72
372.884	294.47
373.333	303.83
373.782	217.23
374.231	308.51
374.68	315.53
375.129	250
375.578	273.4
376.027	350.64
376.475	303.83
376.924	324.9
377.373	282.77
377.822	275.74
378.27	292.13
378.719	278.08
379.167	268.72
379.616	345.96
380.064	310.85
380.512	280.43
380.961	296.81
381.409	296.81
381.857	341.28
382.305	308.51
382.753	322.56
383.201	301.49
383.649	301.49
384.097	273.4
384.545	294.47
384.992	329.58
385.44	266.38
385.888	360
386.335	341.28
386.783	254.68
387.231	289.79
387.678	362.34
388.125	301.49
388.573	329.58
389.02	313.19
389.467	266.38
389.914	301.49
390.362	327.24
390.809	289.79
391.256	329.58
391.703	282.77
392.15	289.79
392.596	350.64
393.043	252.34
393.49	294.47
393.937	252.34
394.383	299.15
394.83	287.45
395.276	261.7
395.723	306.17
396.169	289.79
396.616	289.79
397.062	282.77
397.508	350.64
397.954	352.98
398.401	322.56
398.847	350.64
399.293	336.6
399.739	352.98
400.185	357.66
400.631	320.21
401.076	352.98
401.522	360
401.968	324.9
402.414	327.24
402.859	322.56
403.305	329.58
403.75	348.3
404.196	306.17
404.641	313.19
405.086	362.34
405.532	308.51
405.977	299.15
406.422	278.08
406.867	348.3
407.312	292.13
407.757	317.87
408.202	317.87
408.647	362.34
409.092	308.51
409.537	257.02
409.982	364.68
410.426	285.11
410.871	371.71
411.316	336.6
411.76	310.85
412.205	233.61
412.649	343.62
413.093	282.77
413.538	294.47
413.982	341.28
414.426	327.24
414.87	310.85
415.314	289.79
415.758	310.85
416.202	324.9
416.646	303.83
417.09	285.11
417.534	299.15
417.978	294.47
418.421	338.94
418.865	324.9
419.309	310.85
419.752	392.77
420.196	441.92
420.639	388.09
421.083	324.9
421.526	336.6
421.969	336.6
422.412	364.68
422.856	306.17
423.299	329.58
423.742	303.83
424.185	350.64
424.628	317.87
425.071	348.3
425.513	331.92
425.956	338.94
426.399	329.58
426.842	317.87
427.284	317.87
427.727	334.26
428.169	345.96
428.612	355.32
429.054	336.6
429.497	378.73
429.939	329.58
430.381	336.6
430.823	345.96
431.265	406.81
431.707	367.03
432.149	383.41
432.591	383.41
433.033	369.37
433.475	395.11
433.917	397.45
434.359	397.45
434.8	411.5
435.242	540.22
435.684	537.88
436.125	558.95
436.567	516.82
437.008	472.35
437.449	432.56
437.891	418.52
438.332	474.69
438.773	439.58
439.214	385.75
439.656	462.99
440.097	418.52
440.538	451.28
440.978	402.13
441.419	444.26
441.86	465.33
442.301	432.56
442.742	392.77
443.182	481.71
443.623	460.65
444.063	502.78
444.504	453.63
444.944	491.07
445.385	465.33
445.825	477.03
446.265	535.54
446.706	465.33
447.146	488.73
447.586	470.01
448.026	500.44
448.466	509.8
448.906	535.54
449.346	509.8
449.786	420.86
450.225	484.05
450.665	479.37
451.105	434.9
451.544	460.65
451.984	416.18
452.424	413.84
452.863	462.99
453.302	427.88
453.742	505.12
454.181	465.33
454.62	467.67
455.059	455.97
455.499	470.01
455.938	420.86
456.377	502.78
456.816	462.99
457.254	427.88
457.693	444.26
458.132	430.22
458.571	362.34
459.01	465.33
459.448	357.66
459.887	404.47
460.325	411.5
460.764	367.03
461.202	413.84
461.641	430.22
462.079	364.68
462.517	364.68
462.955	416.18
463.393	388.09
463.832	425.54
464.27	336.6
464.708	402.13
465.145	357.66
465.583	381.07
466.021	371.71
466.459	345.96
466.897	411.5
467.334	378.73
467.772	404.47
468.209	381.07
468.647	388.09
469.084	331.92
469.522	385.75
469.959	392.77
470.396	427.88
470.833	409.15
471.271	324.9
471.708	350.64
472.145	388.09
472.582	367.03
473.019	357.66
473.456	348.3
473.892	432.56
474.329	423.2
474.766	336.6
475.202	383.41
475.639	402.13
476.076	360
476.512	336.6
476.949	388.09
477.385	350.64
477.821	374.05
478.258	390.43
478.694	364.68
479.13	367.03
479.566	423.2
480.002	360
480.438	395.11
480.874	374.05
481.31	388.09
481.746	416.18
482.181	432.56
482.617	374.05
483.053	411.5
483.488	399.79
483.924	399.79
484.36	425.54
484.795	462.99
485.23	406.81
485.666	395.11
486.101	427.88
486.536	432.56
486.971	418.52
487.407	409.15
487.842	406.81
488.277	460.65
488.712	425.54
489.146	404.47
489.581	385.75
490.016	484.05
490.451	416.18
490.885	427.88
491.32	392.77
491.755	369.37
492.189	395.11
492.624	357.66
493.058	367.03
493.492	364.68
493.927	376.39
494.361	453.63
494.795	313.19
495.229	439.58
495.663	388.09
496.097	355.32
496.531	376.39
496.965	381.07
497.399	374.05
497.833	376.39
498.266	462.99
498.7	345.96
499.134	409.15
499.567	369.37
500.001	383.41
500.434	301.49
500.868	411.5
501.301	390.43
501.734	385.75
502.168	416.18
502.601	336.6
503.034	350.64
503.467	324.9
503.9	439.58
504.333	395.11
504.766	378.73
505.199	446.6
505.632	348.3
506.064	406.81
506.497	434.9
506.93	371.71
507.362	390.43
507.795	388.09
508.227	352.98
508.66	357.66
509.092	493.41
509.524	418.52
509.956	376.39
510.389	432.56
510.821	317.87
511.253	409.15
511.685	432.56
512.117	374.05
512.549	383.41
512.981	331.92
513.412	446.6
513.844	411.5
514.276	406.81
514.707	402.13
515.139	418.52
515.571	371.71
516.002	444.26
516.433	432.56
516.865	388.09
517.296	474.69
517.727	381.07
518.159	413.84
518.59	388.09
519.021	362.34
519.452	371.71
519.883	423.2
520.314	420.86
520.744	385.75
521.175	418.52
521.606	399.79
522.037	439.58
522.467	430.22
522.898	430.22
523.328	427.88
523.759	474.69
524.189	420.86
524.62	448.94
525.05	425.54
525.48	413.84
525.91	385.75
526.341	434.9
526.771	444.26
527.201	441.92
527.631	383.41
528.061	425.54
528.49	381.07
528.92	441.92
529.35	458.31
529.78	439.58
530.209	470.01
530.639	413.84
531.068	495.75
531.498	453.63
531.927	420.86
532.357	420.86
532.786	448.94
533.215	411.5
533.644	399.79
534.074	411.5
534.503	397.45
534.932	388.09
535.361	406.81
535.79	437.24
536.218	448.94
536.647	437.24
537.076	441.92
537.505	409.15
537.933	460.65
538.362	444.26
538.79	432.56
539.219	420.86
539.647	455.97
540.076	472.35
540.504	568.31
540.932	580.01
541.36	640.87
541.788	680.66
542.217	657.25
542.645	764.92
543.073	748.53
543.5	830.45
543.928	750.87
544.356	687.68
544.784	722.79
545.211	753.21
545.639	732.15
546.067	668.95
546.494	619.8
546.922	598.74
547.349	563.63
547.776	486.39
548.204	526.18
548.631	425.54
549.058	509.8
549.485	533.2
549.912	448.94
550.339	505.12
550.766	437.24
551.193	512.14
551.62	556.61
552.047	500.44
552.474	402.13
552.9	404.47
553.327	423.2
553.754	460.65
554.18	479.37
554.607	448.94
555.033	402.13
555.459	374.05
555.886	411.5
556.312	416.18
556.738	402.13
557.164	406.81
557.59	378.73
558.016	439.58
558.442	404.47
558.868	434.9
559.294	367.03
559.72	441.92
560.145	430.22
560.571	402.13
560.997	404.47
561.422	453.63
561.848	383.41
562.273	392.77
562.699	411.5
563.124	388.09
563.549	381.07
563.974	388.09
564.4	416.18
564.825	434.9
565.25	409.15
565.675	348.3
566.1	455.97
566.525	470.01
566.95	418.52
567.374	465.33
567.799	392.77
568.224	371.71
568.648	425.54
569.073	409.15
569.497	432.56
569.922	350.64
570.346	362.34
570.771	413.84
571.195	437.24
571.619	462.99
572.043	479.37
572.467	423.2
572.891	402.13
573.315	385.75
573.739	437.24
574.163	406.81
574.587	406.81
575.011	402.13
575.435	416.18
575.858	413.84
576.282	413.84
576.705	390.43
577.129	462.99
577.552	399.79
577.976	434.9
578.399	374.05
578.822	451.28
579.245	465.33
579.669	409.15
580.092	409.15
580.515	369.37
580.938	425.54
581.361	437.24
581.784	367.03
582.206	385.75
582.629	418.52
583.052	432.56
583.474	479.37
583.897	477.03
584.32	439.58
584.742	455.97
585.165	439.58
585.587	322.56
586.009	416.18
586.431	430.22
586.854	451.28
587.276	416.18
587.698	451.28
588.12	376.39
588.542	397.45
588.964	402.13
589.386	338.94
589.807	360
590.229	388.09
590.651	437.24
591.073	374.05
591.494	430.22
591.916	427.88
592.337	455.97
592.759	390.43
593.18	430.22
593.601	434.9
594.022	367.03
594.444	343.62
594.865	460.65
595.286	406.81
595.707	334.26
596.128	411.5
596.549	418.52
596.97	462.99
597.39	409.15
597.811	409.15
598.232	378.73
598.652	343.62
599.073	455.97
599.494	367.03
599.914	432.56
600.334	367.03
600.755	348.3
601.175	390.43
601.595	430.22
602.015	392.77
602.436	364.68
602.856	556.61
603.276	376.39
603.696	374.05
604.115	392.77
604.535	402.13
604.955	390.43
605.375	397.45
605.794	481.71
606.214	444.26
606.634	383.41
607.053	371.71
607.473	409.15
607.892	399.79
608.311	446.6
608.731	383.41
609.15	544.91
609.569	563.63
609.988	568.31
610.407	675.98
610.826	800.02
611.245	771.94
611.664	757.89
612.083	685.34
612.501	640.87
612.92	577.67
613.339	535.54
613.757	575.33
614.176	533.2
614.594	526.18
615.013	488.73
615.431	481.71
615.85	460.65
616.268	406.81
616.686	369.37
617.104	402.13
617.522	362.34
617.94	336.6
618.358	385.75
618.776	376.39
619.194	402.13
619.612	437.24
620.03	420.86
620.447	472.35
620.865	434.9
621.282	439.58
621.7	418.52
622.117	364.68
622.535	437.24
622.952	371.71
623.369	411.5
623.787	390.43
624.204	411.5
624.621	348.3
625.038	334.26
625.455	411.5
625.872	362.34
626.289	322.56
626.706	331.92
627.123	395.11
627.539	322.56
627.956	338.94
628.373	362.34
628.789	404.47
629.206	397.45
629.622	376.39
630.038	341.28
630.455	390.43
630.871	360
631.287	367.03
631.703	392.77
632.12	324.9
632.536	409.15
632.952	343.62
633.368	327.24
633.783	360
634.199	306.17
634.615	352.98
635.031	423.2
635.446	322.56
635.862	395.11
636.277	320.21
636.693	352.98
637.108	308.51
637.524	404.47
637.939	345.96
638.354	383.41
638.77	329.58
639.185	364.68
639.6	313.19
640.015	355.32
640.43	327.24
640.845	327.24
641.259	388.09
641.674	348.3
642.089	364.68
642.504	355.32
642.918	350.64
643.333	334.26
643.747	280.43
644.162	289.79
644.576	341.28
644.991	357.66
645.405	315.53
645.819	416.18
646.233	322.56
646.647	324.9
647.061	402.13
647.475	390.43
647.889	362.34
648.303	343.62
648.717	235.96
649.131	350.64
649.545	334.26
649.958	357.66
650.372	357.66
650.785	360
651.199	315.53
651.612	226.59
652.026	327.24
652.439	308.51
652.852	324.9
653.266	376.39
653.679	369.37
654.092	331.92
654.505	374.05
654.918	343.62
655.331	345.96
655.744	334.26
656.156	301.49
656.569	341.28
656.982	306.17
657.394	364.68
657.807	320.21
658.22	341.28
658.632	352.98
659.044	278.08
659.457	214.89
659.869	341.28
660.281	301.49
660.693	352.98
661.106	301.49
661.518	289.79
661.93	282.77
662.342	303.83
662.754	367.03
663.165	313.19
663.577	303.83
663.989	360
664.401	329.58
664.812	336.6
665.224	329.58
665.635	376.39
666.047	287.45
666.458	266.38
666.869	317.87
667.281	360
667.692	317.87
668.103	310.85
668.514	376.39
668.925	331.92
669.336	357.66
669.747	317.87
670.158	345.96
670.569	322.56
670.979	320.21
671.39	317.87
671.801	294.47
672.211	327.24
672.622	287.45
673.032	374.05
673.443	299.15
673.853	301.49
674.263	317.87
674.674	334.26
675.084	402.13
675.494	308.51
675.904	331.92
676.314	266.38
676.724	292.13
677.134	360
677.544	336.6
677.953	282.77
678.363	315.53
678.773	331.92
679.182	320.21
679.592	299.15
680.001	275.74
680.411	278.08
680.82	371.71
681.23	369.37
681.639	345.96
682.048	329.58
682.457	250
682.866	301.49
683.275	324.9
683.684	364.68
684.093	341.28
684.502	259.36
684.911	313.19
685.32	367.03
685.728	360
686.137	306.17
686.546	282.77
686.954	324.9
687.363	313.19
687.771	357.66
688.179	324.9
688.588	327.24
688.996	334.26
689.404	301.49
689.812	280.43
690.22	306.17
690.628	345.96
691.036	338.94
691.444	406.81
691.852	360
692.26	282.77
692.667	383.41
693.075	308.51
693.483	306.17
693.89	282.77
694.298	299.15
694.705	378.73
695.112	322.56
695.52	324.9
695.927	303.83
696.334	275.74
696.741	231.27
697.148	278.08
697.555	395.11
697.962	310.85
698.369	273.4
698.776	278.08
699.183	296.81
699.59	275.74
699.996	219.57
700.403	331.92
700.81	329.58
701.216	287.45
701.623	310.85
702.029	292.13
702.435	282.77
702.842	303.83
703.248	306.17
703.654	369.37
704.06	345.96
704.466	355.32
704.872	296.81
705.278	381.07
705.684	231.27
706.09	266.38
706.496	308.51
706.901	320.21
707.307	310.85
707.712	301.49
708.118	292.13
708.523	345.96
708.929	378.73
709.334	388.09
709.74	308.51
710.145	360
710.55	327.24
710.955	306.17
711.36	329.58
711.765	374.05
712.17	348.3
712.575	402.13
712.98	1078.55
713.385	345.96
713.789	322.56
714.194	289.79
714.599	327.24
715.003	257.02
715.408	317.87
715.812	264.04
716.217	299.15
716.621	266.38
717.025	334.26
717.429	294.47
717.833	308.51
718.238	327.24
718.642	306.17
719.046	324.9
719.449	273.4
719.853	289.79
720.257	355.32
720.661	371.71
721.065	338.94
721.468	313.19
721.872	322.56
722.275	294.47
722.679	320.21
723.082	341.28
723.485	296.81
723.889	343.62
724.292	268.72
724.695	303.83
725.098	264.04
725.501	282.77
725.904	338.94
726.307	301.49
726.71	320.21
727.113	345.96
727.516	294.47
727.918	327.24
728.321	341.28
728.724	364.68
729.126	289.79
729.529	282.77
729.931	388.09
730.333	254.68
730.736	341.28
731.138	242.98
731.54	317.87
731.942	250
732.344	257.02
732.746	292.13
733.148	257.02
733.55	303.83
733.952	329.58
734.354	376.39
734.756	317.87
735.157	287.45
735.559	334.26
735.96	341.28
736.362	345.96
736.763	294.47
737.165	310.85
737.566	310.85
737.967	287.45
738.368	280.43
738.77	338.94
739.171	257.02
739.572	271.06
739.973	301.49
740.374	257.02
740.774	331.92
741.175	301.49
741.576	285.11
741.977	369.37
742.377	352.98
742.778	231.27
743.178	336.6
743.579	282.77
743.979	329.58
744.379	264.04
744.78	301.49
745.18	317.87
745.58	303.83
745.98	355.32
746.38	313.19
746.78	331.92
747.18	331.92
747.58	268.72
747.98	294.47
748.38	343.62
748.779	399.79
749.179	371.71
749.578	310.85
749.978	268.72
750.377	334.26
750.777	324.9
751.176	338.94
751.575	331.92
751.975	320.21
752.374	301.49
752.773	264.04
753.172	285.11
753.571	278.08
753.97	341.28
754.369	317.87
754.768	341.28
755.166	329.58
755.565	315.53
755.964	301.49
756.362	303.83
756.761	268.72
757.159	257.02
757.558	343.62
757.956	313.19
758.354	357.66
758.753	324.9
759.151	362.34
759.549	292.13
759.947	357.66
760.345	313.19
760.743	301.49
761.141	306.17
761.539	308.51
761.936	299.15
762.334	348.3
762.732	345.96
763.129	273.4
763.527	322.56
763.924	271.06
764.322	317.87
764.719	261.7
765.117	327.24
765.514	278.08
765.911	327.24
766.308	294.47
