Data from Al_FLMS009871__344__12-27-27-937.txt Node

Date: Fri Mar 08 12:27:27 CST 2024
User: pe5414po
Spectrometer: FLMS00987
Trigger mode: 0
Integration Time (sec): 1.000000E-1
Scans to average: 1
Electric dark correction enabled: true
Nonlinearity correction enabled: false
Boxcar width: 0
XAxis mode: Wavelengths
Number of Pixels in Spectrum: 2048
>>>>>Begin Spectral Data<<<<<
188.938	-55.73
189.409	-55.73
189.879	-55.73
190.349	-137.65
190.819	-69.78
191.29	-100.2
191.76	-104.89
192.23	-132.97
192.7	-20.63
193.17	-97.86
193.64	-44.03
194.109	-4.24
194.579	-27.65
195.049	-51.05
195.519	51.93
195.988	44.91
196.458	47.25
196.927	21.5
197.397	103.42
197.866	168.96
198.336	145.55
198.805	91.72
199.274	171.3
199.744	236.83
200.213	222.79
200.682	225.13
201.151	248.54
201.62	293.01
202.089	194.7
202.558	225.13
203.027	325.77
203.495	243.85
203.964	250.88
204.433	290.67
204.902	307.05
205.37	285.98
205.839	330.45
206.307	285.98
206.776	316.41
207.244	304.71
207.712	267.26
208.181	302.37
208.649	285.98
209.117	323.43
209.585	281.3
210.053	351.52
210.521	246.2
210.989	309.39
211.457	276.62
211.925	307.05
212.393	257.9
212.861	278.96
213.328	288.32
213.796	276.62
214.264	332.79
214.731	276.62
215.199	314.07
215.666	271.94
216.133	271.94
216.601	300.03
217.068	262.58
217.535	276.62
218.003	283.64
218.47	288.32
218.937	321.09
219.404	236.83
219.871	271.94
220.338	246.2
220.805	211.09
221.271	274.28
221.738	246.2
222.205	316.41
222.671	260.24
223.138	281.3
223.605	293.01
224.071	293.01
224.538	262.58
225.004	281.3
225.47	274.28
225.937	278.96
226.403	381.95
226.869	269.6
227.335	208.75
227.801	307.05
228.267	328.11
228.733	276.62
229.199	276.62
229.665	339.82
230.131	267.26
230.597	293.01
231.062	248.54
231.528	262.58
231.994	330.45
232.459	318.75
232.925	316.41
233.39	300.03
233.856	278.96
234.321	269.6
234.786	321.09
235.252	318.75
235.717	293.01
236.182	360.88
236.647	257.9
237.112	288.32
237.577	325.77
238.042	302.37
238.507	323.43
238.972	276.62
239.436	243.85
239.901	281.3
240.366	302.37
240.83	342.16
241.295	285.98
241.76	288.32
242.224	274.28
242.688	250.88
243.153	304.71
243.617	271.94
244.081	276.62
244.545	311.73
245.01	309.39
245.474	267.26
245.938	297.69
246.402	314.07
246.866	250.88
247.33	278.96
247.793	356.2
248.257	398.33
248.721	290.67
249.185	281.3
249.648	309.39
250.112	316.41
250.575	229.81
251.039	278.96
251.502	297.69
251.965	335.14
252.429	285.98
252.892	281.3
253.355	309.39
253.818	271.94
254.281	300.03
254.744	332.79
255.207	274.28
255.67	330.45
256.133	316.41
256.596	297.69
257.059	318.75
257.522	311.73
257.984	325.77
258.447	328.11
258.909	276.62
259.372	283.64
259.834	278.96
260.297	285.98
260.759	363.22
261.221	342.16
261.684	311.73
262.146	300.03
262.608	365.56
263.07	276.62
263.532	295.35
263.994	344.5
264.456	349.18
264.918	316.41
265.38	300.03
265.842	318.75
266.303	337.48
266.765	307.05
267.227	309.39
267.688	316.41
268.15	246.2
268.611	367.9
269.072	295.35
269.534	353.86
269.995	332.79
270.456	330.45
270.918	297.69
271.379	271.94
271.84	285.98
272.301	351.52
272.762	316.41
273.223	285.98
273.684	307.05
274.144	295.35
274.605	295.35
275.066	328.11
275.527	332.79
275.987	337.48
276.448	248.54
276.908	295.35
277.369	302.37
277.829	285.98
278.289	288.32
278.75	328.11
279.21	290.67
279.67	297.69
280.13	342.16
280.59	285.98
281.05	283.64
281.51	391.31
281.97	314.07
282.43	393.65
282.89	398.33
283.35	293.01
283.809	281.3
284.269	356.2
284.729	367.9
285.188	323.43
285.648	330.45
286.107	278.96
286.567	288.32
287.026	377.27
287.485	328.11
287.944	293.01
288.404	346.84
288.863	328.11
289.322	307.05
289.781	339.82
290.24	335.14
290.699	316.41
291.158	335.14
291.616	318.75
292.075	311.73
292.534	356.2
292.992	328.11
293.451	276.62
293.91	321.09
294.368	269.6
294.827	274.28
295.285	316.41
295.743	346.84
296.202	372.58
296.66	253.22
297.118	311.73
297.576	323.43
298.034	325.77
298.492	281.3
298.95	386.63
299.408	353.86
299.866	290.67
300.324	332.79
300.781	311.73
301.239	372.58
301.697	276.62
302.154	297.69
302.612	295.35
303.069	321.09
303.527	314.07
303.984	328.11
304.441	295.35
304.899	351.52
305.356	353.86
305.813	360.88
306.27	316.41
306.727	360.88
307.184	356.2
307.641	384.29
308.098	285.98
308.555	281.3
309.012	285.98
309.468	367.9
309.925	274.28
310.382	267.26
310.838	278.96
311.295	332.79
311.751	321.09
312.208	288.32
312.664	300.03
313.12	304.71
313.577	337.48
314.033	297.69
314.489	285.98
314.945	339.82
315.401	351.52
315.857	339.82
316.313	271.94
316.769	384.29
317.225	269.6
317.681	323.43
318.136	339.82
318.592	339.82
319.048	335.14
319.503	332.79
319.959	309.39
320.414	349.18
320.869	353.86
321.325	342.16
321.78	407.69
322.235	311.73
322.691	344.5
323.146	285.98
323.601	314.07
324.056	276.62
324.511	283.64
324.966	318.75
325.421	346.84
325.875	332.79
326.33	271.94
326.785	363.22
327.24	353.86
327.694	363.22
328.149	412.37
328.603	288.32
329.058	309.39
329.512	314.07
329.966	421.74
330.421	391.31
330.875	225.13
331.329	297.69
331.783	323.43
332.237	325.77
332.691	346.84
333.145	377.27
333.599	351.52
334.053	393.65
334.507	323.43
334.96	372.58
335.414	222.79
335.868	314.07
336.321	311.73
336.775	332.79
337.228	365.56
337.682	342.16
338.135	295.35
338.588	311.73
339.042	276.62
339.495	335.14
339.948	342.16
340.401	323.43
340.854	316.41
341.307	304.71
341.76	243.85
342.213	360.88
342.666	276.62
343.119	295.35
343.571	253.22
344.024	330.45
344.477	304.71
344.929	365.56
345.382	304.71
345.834	358.54
346.287	325.77
346.739	262.58
347.191	363.22
347.644	342.16
348.096	330.45
348.548	318.75
349	377.27
349.452	393.65
349.904	351.52
350.356	330.45
350.808	339.82
351.26	274.28
351.711	307.05
352.163	374.92
352.615	311.73
353.066	335.14
353.518	344.5
353.969	332.79
354.421	330.45
354.872	302.37
355.324	370.24
355.775	342.16
356.226	417.05
356.677	325.77
357.128	335.14
357.579	318.75
358.03	290.67
358.481	332.79
358.932	314.07
359.383	318.75
359.834	325.77
360.285	255.56
360.735	337.48
361.186	332.79
361.637	381.95
362.087	309.39
362.538	302.37
362.988	358.54
363.438	323.43
363.889	360.88
364.339	400.67
364.789	278.96
365.239	283.64
365.689	360.88
366.139	323.43
366.589	337.48
367.039	281.3
367.489	391.31
367.939	370.24
368.389	356.2
368.839	381.95
369.288	377.27
369.738	318.75
370.187	342.16
370.637	321.09
371.086	365.56
371.536	335.14
371.985	264.92
372.434	351.52
372.884	353.86
373.333	250.88
373.782	276.62
374.231	372.58
374.68	318.75
375.129	314.07
375.578	271.94
376.027	300.03
376.475	337.48
376.924	335.14
377.373	346.84
377.822	325.77
378.27	283.64
378.719	311.73
379.167	248.54
379.616	330.45
380.064	356.2
380.512	302.37
380.961	311.73
381.409	365.56
381.857	321.09
382.305	344.5
382.753	311.73
383.201	353.86
383.649	311.73
384.097	339.82
384.545	295.35
384.992	311.73
385.44	360.88
385.888	293.01
386.335	307.05
386.783	314.07
387.231	367.9
387.678	388.97
388.125	363.22
388.573	290.67
389.02	356.2
389.467	321.09
389.914	300.03
390.362	351.52
390.809	330.45
391.256	321.09
391.703	367.9
392.15	297.69
392.596	318.75
393.043	297.69
393.49	400.67
393.937	311.73
394.383	271.94
394.83	330.45
395.276	323.43
395.723	276.62
396.169	381.95
396.616	264.92
397.062	283.64
397.508	337.48
397.954	309.39
398.401	328.11
398.847	316.41
399.293	381.95
399.739	386.63
400.185	363.22
400.631	302.37
401.076	281.3
401.522	314.07
401.968	381.95
402.414	328.11
402.859	325.77
403.305	330.45
403.75	328.11
404.196	388.97
404.641	344.5
405.086	332.79
405.532	325.77
405.977	363.22
406.422	285.98
406.867	351.52
407.312	360.88
407.757	328.11
408.202	300.03
408.647	323.43
409.092	351.52
409.537	365.56
409.982	339.82
410.426	260.24
410.871	384.29
411.316	356.2
411.76	363.22
412.205	358.54
412.649	328.11
413.093	428.76
413.538	386.63
413.982	309.39
414.426	344.5
414.87	222.79
415.314	328.11
415.758	311.73
416.202	311.73
416.646	356.2
417.09	384.29
417.534	325.77
417.978	325.77
418.421	339.82
418.865	297.69
419.309	367.9
419.752	323.43
420.196	365.56
420.639	330.45
421.083	346.84
421.526	264.92
421.969	393.65
422.412	377.27
422.856	358.54
423.299	386.63
423.742	367.9
424.185	358.54
424.628	353.86
425.071	293.01
425.513	381.95
425.956	381.95
426.399	358.54
426.842	403.01
427.284	410.03
427.727	370.24
428.169	459.18
428.612	405.35
429.054	353.86
429.497	332.79
429.939	388.97
430.381	377.27
430.823	353.86
431.265	384.29
431.707	421.74
432.149	421.74
432.591	424.08
433.033	374.92
433.475	414.71
433.917	414.71
434.359	438.12
434.8	489.61
435.242	653.45
435.684	527.06
436.125	498.97
436.567	454.5
437.008	433.44
437.449	454.5
437.891	489.61
438.332	428.76
438.773	487.27
439.214	447.48
439.656	501.31
440.097	438.12
440.538	468.55
440.978	447.48
441.419	496.63
441.86	454.5
442.301	487.27
442.742	508.34
443.182	571.53
443.623	555.15
444.063	473.23
444.504	555.15
444.944	391.31
445.385	494.29
445.825	498.97
446.265	477.91
446.706	545.78
447.146	510.68
447.586	520.04
448.026	475.57
448.466	522.38
448.906	569.19
449.346	487.27
449.786	520.04
450.225	548.12
450.665	468.55
451.105	445.14
451.544	531.74
451.984	520.04
452.424	524.72
452.863	541.1
453.302	440.46
453.742	520.04
454.181	496.63
454.62	410.03
455.059	477.91
455.499	489.61
455.938	491.95
456.377	447.48
456.816	473.23
457.254	447.48
457.693	456.84
458.132	449.82
458.571	505.99
459.01	482.59
459.448	449.82
459.887	459.18
460.325	414.71
460.764	395.99
461.202	459.18
461.641	447.48
462.079	466.21
462.517	452.16
462.955	410.03
463.393	400.67
463.832	426.42
464.27	351.52
464.708	419.39
465.145	468.55
465.583	356.2
466.021	473.23
466.459	435.78
466.897	365.56
467.334	424.08
467.772	391.31
468.209	398.33
468.647	412.37
469.084	498.97
469.522	377.27
469.959	426.42
470.396	421.74
470.833	433.44
471.271	410.03
471.708	391.31
472.145	337.48
472.582	414.71
473.019	452.16
473.456	398.33
473.892	346.84
474.329	386.63
474.766	344.5
475.202	428.76
475.639	421.74
476.076	419.39
476.512	405.35
476.949	398.33
477.385	346.84
477.821	447.48
478.258	365.56
478.694	456.84
479.13	435.78
479.566	372.58
480.002	487.27
480.438	358.54
480.874	403.01
481.31	426.42
481.746	393.65
482.181	456.84
482.617	428.76
483.053	466.21
483.488	403.01
483.924	424.08
484.36	412.37
484.795	388.97
485.23	449.82
485.666	452.16
486.101	447.48
486.536	466.21
486.971	398.33
487.407	447.48
487.842	419.39
488.277	463.86
488.712	403.01
489.146	491.95
489.581	426.42
490.016	407.69
490.451	407.69
490.885	419.39
491.32	412.37
491.755	388.97
492.189	431.1
492.624	417.05
493.058	426.42
493.492	494.29
493.927	398.33
494.361	410.03
494.795	468.55
495.229	403.01
495.663	374.92
496.097	463.86
496.531	417.05
496.965	424.08
497.399	358.54
497.833	452.16
498.266	426.42
498.7	365.56
499.134	442.8
499.567	400.67
500.001	452.16
500.434	459.18
500.868	363.22
501.301	349.18
501.734	445.14
502.168	419.39
502.601	386.63
503.034	454.5
503.467	452.16
503.9	393.65
504.333	491.95
504.766	419.39
505.199	351.52
505.632	381.95
506.064	522.38
506.497	431.1
506.93	426.42
507.362	379.61
507.795	426.42
508.227	421.74
508.66	424.08
509.092	431.1
509.524	412.37
509.956	449.82
510.389	452.16
510.821	414.71
511.253	419.39
511.685	489.61
512.117	424.08
512.549	386.63
512.981	391.31
513.412	421.74
513.844	461.52
514.276	428.76
514.707	447.48
515.139	487.27
515.571	452.16
516.002	475.57
516.433	459.18
516.865	459.18
517.296	466.21
517.727	503.65
518.159	491.95
518.59	522.38
519.021	386.63
519.452	459.18
519.883	487.27
520.314	384.29
520.744	398.33
521.175	470.89
521.606	461.52
522.037	475.57
522.467	419.39
522.898	403.01
523.328	489.61
523.759	424.08
524.189	445.14
524.62	449.82
525.05	400.67
525.48	452.16
525.91	517.7
526.341	431.1
526.771	442.8
527.201	482.59
527.631	494.29
528.061	433.44
528.49	494.29
528.92	466.21
529.35	482.59
529.78	421.74
530.209	400.67
530.639	440.46
531.068	440.46
531.498	449.82
531.927	428.76
532.357	421.74
532.786	391.31
533.215	513.02
533.644	428.76
534.074	431.1
534.503	456.84
534.932	454.5
535.361	515.36
535.79	388.97
536.218	414.71
536.647	426.42
537.076	445.14
537.505	480.25
537.933	421.74
538.362	433.44
538.79	510.68
539.219	557.49
539.647	461.52
540.076	550.46
540.504	527.06
540.932	623.02
541.36	641.75
541.788	714.3
542.217	688.56
542.645	761.11
543.073	726
543.5	763.45
543.928	658.13
544.356	740.05
544.784	686.22
545.211	693.24
545.639	772.82
546.067	690.9
546.494	639.41
546.922	583.23
547.349	550.46
547.776	604.3
548.204	576.21
548.631	503.65
549.058	527.06
549.485	505.99
549.912	538.76
550.339	510.68
550.766	477.91
551.193	498.97
551.62	564.51
552.047	510.68
552.474	417.05
552.9	470.89
553.327	442.8
553.754	428.76
554.18	463.86
554.607	477.91
555.033	419.39
555.459	541.1
555.886	403.01
556.312	463.86
556.738	452.16
557.164	417.05
557.59	454.5
558.016	442.8
558.442	473.23
558.868	400.67
559.294	515.36
559.72	463.86
560.145	424.08
560.571	463.86
560.997	463.86
561.422	410.03
561.848	445.14
562.273	433.44
562.699	435.78
563.124	505.99
563.549	435.78
563.974	431.1
564.4	480.25
564.825	449.82
565.25	480.25
565.675	412.37
566.1	494.29
566.525	466.21
566.95	414.71
567.374	470.89
567.799	414.71
568.224	421.74
568.648	468.55
569.073	480.25
569.497	475.57
569.922	513.02
570.346	452.16
570.771	428.76
571.195	405.35
571.619	473.23
572.043	393.65
572.467	503.65
572.891	398.33
573.315	438.12
573.739	403.01
574.163	410.03
574.587	403.01
575.011	505.99
575.435	454.5
575.858	475.57
576.282	459.18
576.705	428.76
577.129	475.57
577.552	449.82
577.976	440.46
578.399	395.99
578.822	463.86
579.245	445.14
579.669	414.71
580.092	442.8
580.515	484.93
580.938	482.59
581.361	445.14
581.784	466.21
582.206	527.06
582.629	482.59
583.052	491.95
583.474	505.99
583.897	426.42
584.32	433.44
584.742	543.44
585.165	491.95
585.587	395.99
586.009	440.46
586.431	498.97
586.854	555.15
587.276	473.23
587.698	484.93
588.12	466.21
588.542	475.57
588.964	424.08
589.386	529.4
589.807	412.37
590.229	445.14
590.651	529.4
591.073	498.97
591.494	520.04
591.916	461.52
592.337	487.27
592.759	421.74
593.18	489.61
593.601	482.59
594.022	386.63
594.444	424.08
594.865	386.63
595.286	386.63
595.707	463.86
596.128	377.27
596.549	410.03
596.97	410.03
597.39	400.67
597.811	403.01
598.232	410.03
598.652	459.18
599.073	426.42
599.494	388.97
599.914	452.16
600.334	384.29
600.755	386.63
601.175	435.78
601.595	431.1
602.015	419.39
602.436	405.35
602.856	550.46
603.276	384.29
603.696	414.71
604.115	379.61
604.535	433.44
604.955	379.61
605.375	386.63
605.794	353.86
606.214	412.37
606.634	447.48
607.053	417.05
607.473	461.52
607.892	445.14
608.311	513.02
608.731	403.01
609.15	524.72
609.569	616
609.988	669.83
610.407	763.45
610.826	873.46
611.245	868.78
611.664	819.63
612.083	735.37
612.501	716.64
612.92	573.87
613.339	627.7
613.757	608.98
614.176	510.68
614.594	548.12
615.013	494.29
615.431	559.83
615.85	456.84
616.268	412.37
616.686	431.1
617.104	459.18
617.522	431.1
617.94	431.1
618.358	428.76
618.776	405.35
619.194	363.22
619.612	456.84
620.03	466.21
620.447	477.91
620.865	452.16
621.282	379.61
621.7	477.91
622.117	435.78
622.535	438.12
622.952	438.12
623.369	417.05
623.787	428.76
624.204	454.5
624.621	365.56
625.038	421.74
625.455	351.52
625.872	379.61
626.289	379.61
626.706	395.99
627.123	414.71
627.539	351.52
627.956	393.65
628.373	388.97
628.789	358.54
629.206	438.12
629.622	426.42
630.038	419.39
630.455	459.18
630.871	452.16
631.287	426.42
631.703	440.46
632.12	435.78
632.536	414.71
632.952	367.9
633.368	403.01
633.783	391.31
634.199	379.61
634.615	311.73
635.031	335.14
635.446	400.67
635.862	388.97
636.277	360.88
636.693	321.09
637.108	393.65
637.524	445.14
637.939	379.61
638.354	342.16
638.77	405.35
639.185	400.67
639.6	379.61
640.015	360.88
640.43	431.1
640.845	386.63
641.259	351.52
641.674	379.61
642.089	393.65
642.504	391.31
642.918	363.22
643.333	388.97
643.747	356.2
644.162	339.82
644.576	346.84
644.991	370.24
645.405	356.2
645.819	410.03
646.233	372.58
646.647	424.08
647.061	398.33
647.475	363.22
647.889	332.79
648.303	309.39
648.717	367.9
649.131	379.61
649.545	342.16
649.958	360.88
650.372	321.09
650.785	325.77
651.199	431.1
651.612	374.92
652.026	412.37
652.439	353.86
652.852	379.61
653.266	363.22
653.679	391.31
654.092	372.58
654.505	365.56
654.918	323.43
655.331	365.56
655.744	328.11
656.156	384.29
656.569	330.45
656.982	360.88
657.394	344.5
657.807	335.14
658.22	349.18
658.632	335.14
659.044	351.52
659.457	342.16
659.869	384.29
660.281	381.95
660.693	300.03
661.106	332.79
661.518	379.61
661.93	335.14
662.342	388.97
662.754	367.9
663.165	374.92
663.577	332.79
663.989	290.67
664.401	360.88
664.812	377.27
665.224	288.32
665.635	328.11
666.047	391.31
666.458	388.97
666.869	363.22
667.281	257.9
667.692	302.37
668.103	318.75
668.514	304.71
668.925	379.61
669.336	374.92
669.747	344.5
670.158	353.86
670.569	328.11
670.979	342.16
671.39	395.99
671.801	370.24
672.211	351.52
672.622	311.73
673.032	318.75
673.443	391.31
673.853	304.71
674.263	398.33
674.674	419.39
675.084	325.77
675.494	300.03
675.904	332.79
676.314	365.56
676.724	332.79
677.134	323.43
677.544	349.18
677.953	398.33
678.363	321.09
678.773	412.37
679.182	318.75
679.592	367.9
680.001	365.56
680.411	335.14
680.82	419.39
681.23	339.82
681.639	349.18
682.048	344.5
682.457	374.92
682.866	314.07
683.275	278.96
683.684	274.28
684.093	384.29
684.502	316.41
684.911	309.39
685.32	342.16
685.728	316.41
686.137	339.82
686.546	365.56
686.954	339.82
687.363	370.24
687.771	374.92
688.179	325.77
688.588	349.18
688.996	349.18
689.404	388.97
689.812	372.58
690.22	328.11
690.628	316.41
691.036	358.54
691.444	346.84
691.852	388.97
692.26	311.73
692.667	421.74
693.075	325.77
693.483	293.01
693.89	384.29
694.298	344.5
694.705	395.99
695.112	271.94
695.52	410.03
695.927	335.14
696.334	314.07
696.741	274.28
697.148	381.95
697.555	332.79
697.962	384.29
698.369	300.03
698.776	335.14
699.183	262.58
699.59	290.67
699.996	335.14
700.403	358.54
700.81	384.29
701.216	339.82
701.623	321.09
702.029	328.11
702.435	283.64
702.842	311.73
703.248	349.18
703.654	386.63
704.06	367.9
704.466	339.82
704.872	325.77
705.278	335.14
705.684	260.24
706.09	339.82
706.496	339.82
706.901	393.65
707.307	304.71
707.712	318.75
708.118	330.45
708.523	358.54
708.929	311.73
709.334	271.94
709.74	367.9
710.145	344.5
710.55	395.99
710.955	349.18
711.36	395.99
711.765	358.54
712.17	309.39
712.575	330.45
712.98	1013.89
713.385	395.99
713.789	335.14
714.194	325.77
714.599	325.77
715.003	344.5
715.408	288.32
715.812	323.43
716.217	370.24
716.621	356.2
717.025	384.29
717.429	276.62
717.833	393.65
718.238	374.92
718.642	395.99
719.046	325.77
719.449	346.84
719.853	405.35
720.257	269.6
720.661	330.45
721.065	412.37
721.468	377.27
721.872	339.82
722.275	281.3
722.679	297.69
723.082	316.41
723.485	372.58
723.889	349.18
724.292	321.09
724.695	271.94
725.098	440.46
725.501	360.88
725.904	260.24
726.307	349.18
726.71	321.09
727.113	367.9
727.516	388.97
727.918	304.71
728.321	349.18
728.724	367.9
729.126	386.63
729.529	384.29
729.931	318.75
730.333	335.14
730.736	302.37
731.138	311.73
731.54	307.05
731.942	372.58
732.344	323.43
732.746	363.22
733.148	372.58
733.55	342.16
733.952	328.11
734.354	351.52
734.756	276.62
735.157	365.56
735.559	351.52
735.96	372.58
736.362	351.52
736.763	360.88
737.165	386.63
737.566	342.16
737.967	314.07
738.368	365.56
738.77	403.01
739.171	335.14
739.572	384.29
739.973	290.67
740.374	255.56
740.774	307.05
741.175	323.43
741.576	311.73
741.977	358.54
742.377	330.45
742.778	342.16
743.178	421.74
743.579	358.54
743.979	293.01
744.379	302.37
744.78	300.03
745.18	372.58
745.58	339.82
745.98	288.32
746.38	358.54
746.78	377.27
747.18	271.94
747.58	316.41
747.98	328.11
748.38	367.9
748.779	330.45
749.179	278.96
749.578	398.33
749.978	353.86
750.377	293.01
750.777	372.58
751.176	323.43
751.575	342.16
751.975	328.11
752.374	330.45
752.773	295.35
753.172	300.03
753.571	318.75
753.97	410.03
754.369	321.09
754.768	342.16
755.166	363.22
755.565	358.54
755.964	351.52
756.362	335.14
756.761	300.03
757.159	374.92
757.558	344.5
757.956	370.24
758.354	323.43
758.753	307.05
759.151	335.14
759.549	337.48
759.947	365.56
760.345	323.43
760.743	323.43
761.141	285.98
761.539	321.09
761.936	330.45
762.334	356.2
762.732	346.84
763.129	318.75
763.527	297.69
763.924	339.82
764.322	349.18
