Data from Al_FLMS009871__355__12-27-29-037.txt Node

Date: Fri Mar 08 12:27:29 CST 2024
User: pe5414po
Spectrometer: FLMS00987
Trigger mode: 0
Integration Time (sec): 1.000000E-1
Scans to average: 1
Electric dark correction enabled: true
Nonlinearity correction enabled: false
Boxcar width: 0
XAxis mode: Wavelengths
Number of Pixels in Spectrum: 2048
>>>>>Begin Spectral Data<<<<<
188.938	-87.77
189.409	-87.77
189.879	-87.77
190.349	-59.68
190.819	-104.15
191.29	-76.07
191.76	-55
192.23	-71.39
192.7	-62.02
193.17	-80.75
193.64	-99.47
194.109	-36.28
194.579	-26.92
195.049	24.58
195.519	5.85
195.988	43.3
196.458	38.62
196.927	57.34
197.397	129.9
197.866	69.05
198.336	139.26
198.805	197.78
199.274	141.6
199.744	223.52
200.213	174.37
200.682	167.35
201.151	272.67
201.62	267.99
202.089	218.84
202.558	218.84
203.027	284.38
203.495	239.9
203.964	307.78
204.433	258.63
204.902	277.35
205.37	291.4
205.839	349.91
206.307	303.1
206.776	265.65
207.244	284.38
207.712	324.16
208.181	239.9
208.649	272.67
209.117	328.85
209.585	314.8
210.053	335.87
210.521	256.29
210.989	253.95
211.457	263.31
211.925	307.78
212.393	293.74
212.861	342.89
213.328	253.95
213.796	263.31
214.264	359.27
214.731	300.76
215.199	270.33
215.666	253.95
216.133	300.76
216.601	272.67
217.068	305.44
217.535	298.42
218.003	272.67
218.47	225.86
218.937	296.08
219.404	256.29
219.871	214.16
220.338	272.67
220.805	324.16
221.271	265.65
221.738	272.67
222.205	237.56
222.671	239.9
223.138	256.29
223.605	216.5
224.071	286.72
224.538	244.59
225.004	317.14
225.47	263.31
225.937	305.44
226.403	242.25
226.869	160.33
227.335	284.38
227.801	263.31
228.267	260.97
228.733	331.19
229.199	258.63
229.665	314.8
230.131	272.67
230.597	312.46
231.062	291.4
231.528	200.12
231.994	270.33
232.459	300.76
232.925	282.03
233.39	258.63
233.856	277.35
234.321	242.25
234.786	277.35
235.252	235.22
235.717	237.56
236.182	284.38
236.647	317.14
237.112	279.69
237.577	338.21
238.042	310.12
238.507	253.95
238.972	289.06
239.436	293.74
239.901	305.44
240.366	249.27
240.83	272.67
241.295	265.65
241.76	286.72
242.224	228.2
242.688	260.97
243.153	296.08
243.617	267.99
244.081	218.84
244.545	282.03
245.01	260.97
245.474	303.1
245.938	359.27
246.402	338.21
246.866	272.67
247.33	293.74
247.793	296.08
248.257	291.4
248.721	291.4
249.185	263.31
249.648	239.9
250.112	321.82
250.575	314.8
251.039	277.35
251.502	244.59
251.965	270.33
252.429	258.63
252.892	293.74
253.355	242.25
253.818	310.12
254.281	321.82
254.744	293.74
255.207	286.72
255.67	289.06
256.133	267.99
256.596	300.76
257.059	305.44
257.522	298.42
257.984	228.2
258.447	214.16
258.909	239.9
259.372	265.65
259.834	246.93
260.297	286.72
260.759	284.38
261.221	307.78
261.684	324.16
262.146	333.53
262.608	289.06
263.07	267.99
263.532	307.78
263.994	303.1
264.456	298.42
264.918	321.82
265.38	256.29
265.842	340.55
266.303	310.12
266.765	237.56
267.227	361.61
267.688	277.35
268.15	267.99
268.611	305.44
269.072	267.99
269.534	270.33
269.995	303.1
270.456	326.5
270.918	326.5
271.379	218.84
271.84	317.14
272.301	263.31
272.762	289.06
273.223	307.78
273.684	296.08
274.144	321.82
274.605	221.18
275.066	293.74
275.527	307.78
275.987	246.93
276.448	277.35
276.908	270.33
277.369	310.12
277.829	246.93
278.289	300.76
278.75	307.78
279.21	289.06
279.67	324.16
280.13	272.67
280.59	296.08
281.05	317.14
281.51	363.95
281.97	251.61
282.43	291.4
282.89	312.46
283.35	279.69
283.809	303.1
284.269	340.55
284.729	286.72
285.188	272.67
285.648	265.65
286.107	291.4
286.567	328.85
287.026	289.06
287.485	267.99
287.944	310.12
288.404	310.12
288.863	310.12
289.322	303.1
289.781	284.38
290.24	328.85
290.699	314.8
291.158	333.53
291.616	253.95
292.075	296.08
292.534	291.4
292.992	312.46
293.451	270.33
293.91	333.53
294.368	298.42
294.827	314.8
295.285	249.27
295.743	289.06
296.202	321.82
296.66	363.95
297.118	312.46
297.576	303.1
298.034	354.59
298.492	310.12
298.95	303.1
299.408	314.8
299.866	324.16
300.324	289.06
300.781	366.29
301.239	253.95
301.697	270.33
302.154	307.78
302.612	378
303.069	249.27
303.527	267.99
303.984	359.27
304.441	293.74
304.899	296.08
305.356	279.69
305.813	270.33
306.27	310.12
306.727	286.72
307.184	256.29
307.641	260.97
308.098	326.5
308.555	370.97
309.012	354.59
309.468	352.25
309.925	331.19
310.382	312.46
310.838	256.29
311.295	256.29
311.751	307.78
312.208	328.85
312.664	333.53
313.12	342.89
313.577	342.89
314.033	260.97
314.489	282.03
314.945	307.78
315.401	303.1
315.857	359.27
316.313	321.82
316.769	380.34
317.225	293.74
317.681	291.4
318.136	277.35
318.592	319.48
319.048	317.14
319.503	342.89
319.959	263.31
320.414	340.55
320.869	319.48
321.325	345.23
321.78	321.82
322.235	286.72
322.691	310.12
323.146	324.16
323.601	284.38
324.056	370.97
324.511	331.19
324.966	267.99
325.421	265.65
325.875	324.16
326.33	368.63
326.785	338.21
327.24	326.5
327.694	286.72
328.149	270.33
328.603	305.44
329.058	366.29
329.512	335.87
329.966	317.14
330.421	340.55
330.875	321.82
331.329	263.31
331.783	298.42
332.237	340.55
332.691	253.95
333.145	282.03
333.599	319.48
334.053	331.19
334.507	272.67
334.96	356.93
335.414	310.12
335.868	291.4
336.321	347.57
336.775	258.63
337.228	314.8
337.682	282.03
338.135	282.03
338.588	389.7
339.042	331.19
339.495	298.42
339.948	305.44
340.401	342.89
340.854	340.55
341.307	338.21
341.76	256.29
342.213	260.97
342.666	298.42
343.119	338.21
343.571	267.99
344.024	249.27
344.477	354.59
344.929	260.97
345.382	389.7
345.834	326.5
346.287	335.87
346.739	312.46
347.191	303.1
347.644	289.06
348.096	312.46
348.548	326.5
349	333.53
349.452	291.4
349.904	335.87
350.356	356.93
350.808	321.82
351.26	312.46
351.711	328.85
352.163	331.19
352.615	291.4
353.066	305.44
353.518	277.35
353.969	239.9
354.421	300.76
354.872	380.34
355.324	289.06
355.775	298.42
356.226	345.23
356.677	263.31
357.128	293.74
357.579	317.14
358.03	326.5
358.481	293.74
358.932	380.34
359.383	333.53
359.834	354.59
360.285	378
360.735	286.72
361.186	284.38
361.637	335.87
362.087	326.5
362.538	305.44
362.988	331.19
363.438	300.76
363.889	303.1
364.339	331.19
364.789	298.42
365.239	314.8
365.689	282.03
366.139	370.97
366.589	310.12
367.039	284.38
367.489	335.87
367.939	263.31
368.389	289.06
368.839	277.35
369.288	314.8
369.738	349.91
370.187	310.12
370.637	307.78
371.086	321.82
371.536	284.38
371.985	361.61
372.434	338.21
372.884	349.91
373.333	328.85
373.782	375.66
374.231	326.5
374.68	300.76
375.129	347.57
375.578	296.08
376.027	342.89
376.475	340.55
376.924	352.25
377.373	277.35
377.822	317.14
378.27	321.82
378.719	277.35
379.167	275.01
379.616	331.19
380.064	303.1
380.512	296.08
380.961	335.87
381.409	352.25
381.857	333.53
382.305	324.16
382.753	326.5
383.201	331.19
383.649	270.33
384.097	321.82
384.545	335.87
384.992	326.5
385.44	324.16
385.888	312.46
386.335	342.89
386.783	242.25
387.231	317.14
387.678	303.1
388.125	291.4
388.573	335.87
389.02	387.36
389.467	354.59
389.914	272.67
390.362	300.76
390.809	331.19
391.256	263.31
391.703	270.33
392.15	333.53
392.596	389.7
393.043	328.85
393.49	333.53
393.937	293.74
394.383	275.01
394.83	298.42
395.276	282.03
395.723	321.82
396.169	305.44
396.616	286.72
397.062	312.46
397.508	319.48
397.954	300.76
398.401	335.87
398.847	307.78
399.293	338.21
399.739	282.03
400.185	333.53
400.631	312.46
401.076	298.42
401.522	328.85
401.968	310.12
402.414	293.74
402.859	347.57
403.305	335.87
403.75	319.48
404.196	361.61
404.641	427.15
405.086	427.15
405.532	326.5
405.977	277.35
406.422	349.91
406.867	298.42
407.312	349.91
407.757	284.38
408.202	340.55
408.647	319.48
409.092	251.61
409.537	300.76
409.982	352.25
410.426	314.8
410.871	338.21
411.316	331.19
411.76	342.89
412.205	340.55
412.649	270.33
413.093	328.85
413.538	342.89
413.982	359.27
414.426	352.25
414.87	331.19
415.314	333.53
415.758	260.97
416.202	328.85
416.646	363.95
417.09	300.76
417.534	382.68
417.978	340.55
418.421	296.08
418.865	321.82
419.309	296.08
419.752	284.38
420.196	342.89
420.639	345.23
421.083	356.93
421.526	298.42
421.969	370.97
422.412	378
422.856	396.72
423.299	338.21
423.742	340.55
424.185	312.46
424.628	403.74
425.071	338.21
425.513	305.44
425.956	370.97
426.399	380.34
426.842	319.48
427.284	356.93
427.727	284.38
428.169	340.55
428.612	415.45
429.054	413.1
429.497	403.74
429.939	347.57
430.381	399.06
430.823	408.42
431.265	296.08
431.707	380.34
432.149	361.61
432.591	406.08
433.033	387.36
433.475	410.76
433.917	466.94
434.359	448.21
434.8	473.96
435.242	516.09
435.684	518.43
436.125	499.7
436.567	499.7
437.008	424.81
437.449	431.83
437.891	445.87
438.332	473.96
438.773	473.96
439.214	483.32
439.656	464.6
440.097	415.45
440.538	452.89
440.978	471.62
441.419	485.66
441.86	513.75
442.301	488
442.742	394.38
443.182	539.49
443.623	546.52
444.063	583.96
444.504	539.49
444.944	534.81
445.385	574.6
445.825	469.28
446.265	492.68
446.706	523.11
447.146	520.77
447.586	506.73
448.026	506.73
448.466	499.7
448.906	551.2
449.346	513.75
449.786	441.19
450.225	431.83
450.665	488
451.105	509.07
451.544	499.7
451.984	455.23
452.424	506.73
452.863	558.22
453.302	455.23
453.742	502.04
454.181	429.49
454.62	417.79
455.059	476.3
455.499	434.17
455.938	378
456.377	434.17
456.816	434.17
457.254	471.62
457.693	497.36
458.132	441.19
458.571	347.57
459.01	356.93
459.448	370.97
459.887	450.55
460.325	459.92
460.764	370.97
461.202	399.06
461.641	415.45
462.079	408.42
462.517	422.47
462.955	457.57
463.393	462.26
463.832	436.51
464.27	420.13
464.708	389.7
465.145	443.53
465.583	459.92
466.021	415.45
466.459	420.13
466.897	410.76
467.334	427.15
467.772	361.61
468.209	389.7
468.647	373.32
469.084	480.98
469.522	401.4
469.959	373.32
470.396	373.32
470.833	406.08
471.271	361.61
471.708	373.32
472.145	359.27
472.582	434.17
473.019	385.02
473.456	396.72
473.892	354.59
474.329	385.02
474.766	394.38
475.202	422.47
475.639	403.74
476.076	312.46
476.512	375.66
476.949	394.38
477.385	408.42
477.821	380.34
478.258	352.25
478.694	356.93
479.13	333.53
479.566	401.4
480.002	368.63
480.438	368.63
480.874	380.34
481.31	410.76
481.746	345.23
482.181	422.47
482.617	394.38
483.053	410.76
483.488	359.27
483.924	420.13
484.36	399.06
484.795	375.66
485.23	429.49
485.666	483.32
486.101	401.4
486.536	401.4
486.971	441.19
487.407	406.08
487.842	424.81
488.277	387.36
488.712	495.02
489.146	445.87
489.581	380.34
490.016	394.38
490.451	408.42
490.885	406.08
491.32	415.45
491.755	424.81
492.189	431.83
492.624	401.4
493.058	436.51
493.492	385.02
493.927	427.15
494.361	427.15
494.795	335.87
495.229	382.68
495.663	459.92
496.097	448.21
496.531	387.36
496.965	406.08
497.399	387.36
497.833	361.61
498.266	462.26
498.7	385.02
499.134	356.93
499.567	394.38
500.001	429.49
500.434	394.38
500.868	427.15
501.301	338.21
501.734	427.15
502.168	368.63
502.601	403.74
503.034	448.21
503.467	408.42
503.9	429.49
504.333	356.93
504.766	399.06
505.199	452.89
505.632	448.21
506.064	368.63
506.497	389.7
506.93	387.36
507.362	459.92
507.795	476.3
508.227	361.61
508.66	368.63
509.092	370.97
509.524	403.74
509.956	420.13
510.389	462.26
510.821	422.47
511.253	471.62
511.685	347.57
512.117	429.49
512.549	380.34
512.981	422.47
513.412	394.38
513.844	394.38
514.276	410.76
514.707	424.81
515.139	356.93
515.571	441.19
516.002	422.47
516.433	424.81
516.865	408.42
517.296	417.79
517.727	431.83
518.159	455.23
518.59	417.79
519.021	406.08
519.452	406.08
519.883	413.1
520.314	420.13
520.744	443.53
521.175	455.23
521.606	506.73
522.037	385.02
522.467	466.94
522.898	488
523.328	340.55
523.759	385.02
524.189	427.15
524.62	438.85
525.05	422.47
525.48	417.79
525.91	455.23
526.341	378
526.771	452.89
527.201	408.42
527.631	392.04
528.061	438.85
528.49	408.42
528.92	403.74
529.35	396.72
529.78	443.53
530.209	476.3
530.639	443.53
531.068	450.55
531.498	342.89
531.927	445.87
532.357	420.13
532.786	455.23
533.215	394.38
533.644	452.89
534.074	462.26
534.503	410.76
534.932	392.04
535.361	445.87
535.79	427.15
536.218	506.73
536.647	410.76
537.076	434.17
537.505	480.98
537.933	448.21
538.362	506.73
538.79	471.62
539.219	497.36
539.647	516.09
540.076	523.11
540.504	530.13
540.932	539.49
541.36	647.16
541.788	731.42
542.217	691.63
542.645	771.21
543.073	724.4
543.5	750.14
543.928	740.78
544.356	752.48
544.784	722.06
545.211	726.74
545.639	731.42
546.067	679.93
546.494	637.8
546.922	558.22
547.349	569.92
547.776	502.04
548.204	513.75
548.631	497.36
549.058	541.83
549.485	546.52
549.912	471.62
550.339	471.62
550.766	478.64
551.193	434.17
551.62	455.23
552.047	520.77
552.474	548.86
552.9	422.47
553.327	436.51
553.754	438.85
554.18	373.32
554.607	499.7
555.033	473.96
555.459	415.45
555.886	406.08
556.312	490.34
556.738	380.34
557.164	415.45
557.59	511.41
558.016	385.02
558.442	417.79
558.868	378
559.294	408.42
559.72	471.62
560.145	464.6
560.571	457.57
560.997	422.47
561.422	462.26
561.848	422.47
562.273	480.98
562.699	457.57
563.124	389.7
563.549	394.38
563.974	385.02
564.4	464.6
564.825	378
565.25	495.02
565.675	356.93
566.1	403.74
566.525	466.94
566.95	431.83
567.374	471.62
567.799	366.29
568.224	375.66
568.648	415.45
569.073	366.29
569.497	422.47
569.922	389.7
570.346	417.79
570.771	431.83
571.195	422.47
571.619	436.51
572.043	462.26
572.467	452.89
572.891	445.87
573.315	403.74
573.739	401.4
574.163	445.87
574.587	403.74
575.011	378
575.435	436.51
575.858	401.4
576.282	392.04
576.705	380.34
577.129	422.47
577.552	448.21
577.976	401.4
578.399	476.3
578.822	429.49
579.245	413.1
579.669	509.07
580.092	495.02
580.515	443.53
580.938	466.94
581.361	417.79
581.784	455.23
582.206	401.4
582.629	464.6
583.052	471.62
583.474	420.13
583.897	532.47
584.32	443.53
584.742	476.3
585.165	403.74
585.587	434.17
586.009	448.21
586.431	516.09
586.854	457.57
587.276	530.13
587.698	506.73
588.12	429.49
588.542	450.55
588.964	509.07
589.386	457.57
589.807	520.77
590.229	387.36
590.651	473.96
591.073	403.74
591.494	438.85
591.916	466.94
592.337	450.55
592.759	457.57
593.18	370.97
593.601	466.94
594.022	438.85
594.444	450.55
594.865	438.85
595.286	363.95
595.707	363.95
596.128	415.45
596.549	389.7
596.97	363.95
597.39	429.49
597.811	321.82
598.232	370.97
598.652	345.23
599.073	396.72
599.494	392.04
599.914	370.97
600.334	359.27
600.755	378
601.175	333.53
601.595	401.4
602.015	401.4
602.436	342.89
602.856	534.81
603.276	354.59
603.696	359.27
604.115	401.4
604.535	335.87
604.955	347.57
605.375	368.63
605.794	370.97
606.214	410.76
606.634	331.19
607.053	422.47
607.473	455.23
607.892	363.95
608.311	354.59
608.731	427.15
609.15	464.6
609.569	616.73
609.988	658.86
610.407	729.08
610.826	761.84
611.245	789.93
611.664	700.99
612.083	722.06
612.501	672.9
612.92	647.16
613.339	562.9
613.757	541.83
614.176	492.68
614.594	527.79
615.013	436.51
615.431	403.74
615.85	429.49
616.268	415.45
616.686	399.06
617.104	462.26
617.522	385.02
617.94	373.32
618.358	370.97
618.776	420.13
619.194	422.47
619.612	436.51
620.03	415.45
620.447	401.4
620.865	410.76
621.282	380.34
621.7	462.26
622.117	478.64
622.535	401.4
622.952	373.32
623.369	378
623.787	380.34
624.204	408.42
624.621	331.19
625.038	349.91
625.455	431.83
625.872	387.36
626.289	368.63
626.706	427.15
627.123	352.25
627.539	375.66
627.956	338.21
628.373	385.02
628.789	401.4
629.206	443.53
629.622	394.38
630.038	417.79
630.455	375.66
630.871	406.08
631.287	338.21
631.703	389.7
632.12	321.82
632.536	324.16
632.952	361.61
633.368	380.34
633.783	392.04
634.199	356.93
634.615	406.08
635.031	317.14
635.446	345.23
635.862	331.19
636.277	319.48
636.693	286.72
637.108	293.74
637.524	406.08
637.939	413.1
638.354	399.06
638.77	326.5
639.185	380.34
639.6	389.7
640.015	342.89
640.43	359.27
640.845	340.55
641.259	345.23
641.674	387.36
642.089	335.87
642.504	356.93
642.918	370.97
643.333	293.74
643.747	328.85
644.162	345.23
644.576	310.12
644.991	392.04
645.405	422.47
645.819	361.61
646.233	363.95
646.647	277.35
647.061	406.08
647.475	347.57
647.889	321.82
648.303	256.29
648.717	354.59
649.131	305.44
649.545	403.74
649.958	422.47
650.372	314.8
650.785	345.23
651.199	387.36
651.612	385.02
652.026	385.02
652.439	331.19
652.852	317.14
653.266	361.61
653.679	286.72
654.092	366.29
654.505	328.85
654.918	331.19
655.331	345.23
655.744	349.91
656.156	338.21
656.569	338.21
656.982	319.48
657.394	335.87
657.807	328.85
658.22	310.12
658.632	333.53
659.044	300.76
659.457	260.97
659.869	310.12
660.281	286.72
660.693	284.38
661.106	338.21
661.518	363.95
661.93	300.76
662.342	359.27
662.754	282.03
663.165	347.57
663.577	340.55
663.989	300.76
664.401	310.12
664.812	342.89
665.224	314.8
665.635	328.85
666.047	333.53
666.458	328.85
666.869	279.69
667.281	317.14
667.692	342.89
668.103	335.87
668.514	291.4
668.925	443.53
669.336	331.19
669.747	303.1
670.158	326.5
670.569	314.8
670.979	361.61
671.39	296.08
671.801	347.57
672.211	345.23
672.622	335.87
673.032	270.33
673.443	326.5
673.853	385.02
674.263	378
674.674	345.23
675.084	242.25
675.494	321.82
675.904	338.21
676.314	324.16
676.724	368.63
677.134	289.06
677.544	347.57
677.953	347.57
678.363	359.27
678.773	389.7
679.182	312.46
679.592	394.38
680.001	385.02
680.411	296.08
680.82	284.38
681.23	305.44
681.639	267.99
682.048	366.29
682.457	335.87
682.866	291.4
683.275	265.65
683.684	345.23
684.093	328.85
684.502	317.14
684.911	225.86
685.32	286.72
685.728	298.42
686.137	338.21
686.546	284.38
686.954	370.97
687.363	340.55
687.771	331.19
688.179	239.9
688.588	324.16
688.996	265.65
689.404	282.03
689.812	342.89
690.22	321.82
690.628	270.33
691.036	333.53
691.444	342.89
691.852	303.1
692.26	370.97
692.667	335.87
693.075	326.5
693.483	303.1
693.89	375.66
694.298	349.91
694.705	298.42
695.112	335.87
695.52	319.48
695.927	286.72
696.334	333.53
696.741	345.23
697.148	382.68
697.555	356.93
697.962	289.06
698.369	378
698.776	326.5
699.183	242.25
699.59	310.12
699.996	298.42
700.403	431.83
700.81	321.82
701.216	373.32
701.623	361.61
702.029	321.82
702.435	347.57
702.842	347.57
703.248	312.46
703.654	340.55
704.06	328.85
704.466	314.8
704.872	286.72
705.278	342.89
705.684	310.12
706.09	389.7
706.496	340.55
706.901	382.68
707.307	349.91
707.712	319.48
708.118	326.5
708.523	296.08
708.929	279.69
709.334	356.93
709.74	389.7
710.145	307.78
710.55	303.1
710.955	392.04
711.36	328.85
711.765	340.55
712.17	307.78
712.575	352.25
712.98	972.49
713.385	366.29
713.789	300.76
714.194	284.38
714.599	312.46
715.003	270.33
715.408	244.59
715.812	319.48
716.217	244.59
716.621	267.99
717.025	289.06
717.429	328.85
717.833	282.03
718.238	300.76
718.642	363.95
719.046	363.95
719.449	314.8
719.853	314.8
720.257	300.76
720.661	373.32
721.065	326.5
721.468	340.55
721.872	396.72
722.275	366.29
722.679	303.1
723.082	331.19
723.485	333.53
723.889	356.93
724.292	286.72
724.695	277.35
725.098	338.21
725.501	312.46
725.904	300.76
726.307	242.25
726.71	284.38
727.113	319.48
727.516	300.76
727.918	263.31
728.321	265.65
728.724	286.72
729.126	272.67
729.529	296.08
729.931	286.72
730.333	314.8
730.736	284.38
731.138	291.4
731.54	335.87
731.942	307.78
732.344	349.91
732.746	296.08
733.148	347.57
733.55	289.06
733.952	289.06
734.354	291.4
734.756	368.63
735.157	347.57
735.559	345.23
735.96	354.59
736.362	263.31
736.763	333.53
737.165	258.63
737.566	303.1
737.967	326.5
738.368	375.66
738.77	279.69
739.171	321.82
739.572	328.85
739.973	321.82
740.374	305.44
740.774	293.74
741.175	333.53
741.576	342.89
741.977	300.76
742.377	256.29
742.778	324.16
743.178	382.68
743.579	359.27
743.979	319.48
744.379	366.29
744.78	303.1
745.18	307.78
745.58	352.25
745.98	249.27
746.38	239.9
746.78	267.99
747.18	293.74
747.58	303.1
747.98	303.1
748.38	260.97
748.779	340.55
749.179	300.76
749.578	352.25
749.978	244.59
750.377	373.32
750.777	352.25
751.176	319.48
751.575	307.78
751.975	310.12
752.374	345.23
752.773	293.74
753.172	319.48
753.571	326.5
753.97	263.31
754.369	312.46
754.768	244.59
755.166	333.53
755.565	279.69
755.964	300.76
756.362	310.12
756.761	375.66
757.159	284.38
757.558	317.14
757.956	333.53
758.354	296.08
758.753	258.63
759.151	291.4
759.549	279.69
759.947	345.23
760.345	345.23
760.743	293.74
761.141	291.4
761.539	293.74
761.936	307.78
762.334	326.5
762.732	296.08
763.129	286.72
763.527	291.4
763.924	321.82
764.322	349.91
764.719	335.87
765.117	331.19
765.514	319.48
765.911	333.53
766.308	338.21
766.705	293.74
