Data from Al_FLMS009871__350__12-27-28-537.txt Node

Date: Fri Mar 08 12:27:28 CST 2024
User: pe5414po
Spectrometer: FLMS00987
Trigger mode: 0
Integration Time (sec): 1.000000E-1
Scans to average: 1
Electric dark correction enabled: true
Nonlinearity correction enabled: false
Boxcar width: 0
XAxis mode: Wavelengths
Number of Pixels in Spectrum: 2048
>>>>>Begin Spectral Data<<<<<
188.938	-83.38
189.409	-83.38
189.879	-83.38
190.349	-162.96
190.819	-134.87
191.29	-141.89
191.76	-92.74
192.23	-132.53
192.7	-41.25
193.17	-41.25
193.64	-48.27
194.109	3.22
194.579	-43.59
195.049	-41.25
195.519	47.69
195.988	7.9
196.458	89.82
196.927	57.05
197.397	131.95
197.866	129.61
198.336	115.56
198.805	61.73
199.274	246.63
199.744	153.01
200.213	232.59
200.682	160.03
201.151	277.06
201.62	183.44
202.089	216.21
202.558	185.78
203.027	326.21
203.495	244.29
203.964	230.25
204.433	218.55
204.902	256
205.37	307.49
205.839	279.4
206.307	337.91
206.776	258.34
207.244	239.61
207.712	284.08
208.181	298.13
208.649	335.57
209.117	244.29
209.585	337.91
210.053	277.06
210.521	288.76
210.989	204.5
211.457	274.72
211.925	335.57
212.393	258.34
212.861	251.32
213.328	241.95
213.796	295.79
214.264	241.95
214.731	216.21
215.199	298.13
215.666	279.4
216.133	253.66
216.601	298.13
217.068	260.68
217.535	241.95
218.003	270.04
218.47	260.68
218.937	298.13
219.404	279.4
219.871	284.08
220.338	223.23
220.805	265.36
221.271	330.89
221.738	293.44
222.205	202.16
222.671	270.04
223.138	244.29
223.605	230.25
224.071	230.25
224.538	267.7
225.004	246.63
225.47	270.04
225.937	277.06
226.403	230.25
226.869	295.79
227.335	192.8
227.801	312.17
228.267	220.89
228.733	295.79
229.199	277.06
229.665	220.89
230.131	244.29
230.597	239.61
231.062	253.66
231.528	211.53
231.994	225.57
232.459	293.44
232.925	272.38
233.39	204.5
233.856	333.23
234.321	288.76
234.786	263.02
235.252	302.81
235.717	335.57
236.182	314.51
236.647	237.27
237.112	241.95
237.577	211.53
238.042	284.08
238.507	258.34
238.972	323.87
239.436	293.44
239.901	295.79
240.366	244.29
240.83	230.25
241.295	319.19
241.76	272.38
242.224	272.38
242.688	288.76
243.153	244.29
243.617	256
244.081	330.89
244.545	293.44
245.01	293.44
245.474	284.08
245.938	267.7
246.402	328.55
246.866	323.87
247.33	295.79
247.793	230.25
248.257	192.8
248.721	251.32
249.185	286.42
249.648	239.61
250.112	277.06
250.575	160.03
251.039	265.36
251.502	272.38
251.965	333.23
252.429	281.74
252.892	302.81
253.355	305.15
253.818	232.59
254.281	328.55
254.744	241.95
255.207	305.15
255.67	277.06
256.133	256
256.596	288.76
257.059	246.63
257.522	305.15
257.984	263.02
258.447	258.34
258.909	251.32
259.372	258.34
259.834	258.34
260.297	270.04
260.759	225.57
261.221	340.26
261.684	309.83
262.146	309.83
262.608	251.32
263.07	279.4
263.532	248.97
263.994	227.91
264.456	298.13
264.918	223.23
265.38	195.14
265.842	234.93
266.303	225.57
266.765	298.13
267.227	284.08
267.688	284.08
268.15	312.17
268.611	265.36
269.072	241.95
269.534	300.47
269.995	305.15
270.456	323.87
270.918	216.21
271.379	181.1
271.84	284.08
272.301	230.25
272.762	263.02
273.223	284.08
273.684	356.64
274.144	309.83
274.605	333.23
275.066	270.04
275.527	300.47
275.987	293.44
276.448	265.36
276.908	248.97
277.369	279.4
277.829	241.95
278.289	263.02
278.75	248.97
279.21	281.74
279.67	326.21
280.13	293.44
280.59	223.23
281.05	230.25
281.51	246.63
281.97	368.34
282.43	328.55
282.89	288.76
283.35	361.32
283.809	356.64
284.269	267.7
284.729	312.17
285.188	321.53
285.648	286.42
286.107	265.36
286.567	253.66
287.026	281.74
287.485	291.1
287.944	300.47
288.404	281.74
288.863	288.76
289.322	358.98
289.781	274.72
290.24	293.44
290.699	312.17
291.158	316.85
291.616	305.15
292.075	309.83
292.534	291.1
292.992	319.19
293.451	284.08
293.91	333.23
294.368	335.57
294.827	312.17
295.285	288.76
295.743	305.15
296.202	323.87
296.66	279.4
297.118	300.47
297.576	260.68
298.034	258.34
298.492	333.23
298.95	256
299.408	241.95
299.866	260.68
300.324	300.47
300.781	286.42
301.239	263.02
301.697	284.08
302.154	298.13
302.612	302.81
303.069	309.83
303.527	270.04
303.984	319.19
304.441	265.36
304.899	295.79
305.356	241.95
305.813	335.57
306.27	293.44
306.727	286.42
307.184	291.1
307.641	279.4
308.098	316.85
308.555	300.47
309.012	216.21
309.468	316.85
309.925	326.21
310.382	288.76
310.838	251.32
311.295	274.72
311.751	288.76
312.208	260.68
312.664	223.23
313.12	288.76
313.577	258.34
314.033	298.13
314.489	260.68
314.945	307.49
315.401	256
315.857	291.1
316.313	274.72
316.769	279.4
317.225	284.08
317.681	263.02
318.136	270.04
318.592	211.53
319.048	274.72
319.503	267.7
319.959	256
320.414	256
320.869	323.87
321.325	281.74
321.78	361.32
322.235	314.51
322.691	309.83
323.146	277.06
323.601	270.04
324.056	323.87
324.511	295.79
324.966	316.85
325.421	281.74
325.875	321.53
326.33	328.55
326.785	328.55
327.24	270.04
327.694	335.57
328.149	295.79
328.603	321.53
329.058	288.76
329.512	279.4
329.966	321.53
330.421	323.87
330.875	305.15
331.329	279.4
331.783	358.98
332.237	239.61
332.691	258.34
333.145	305.15
333.599	241.95
334.053	347.28
334.507	314.51
334.96	248.97
335.414	291.1
335.868	181.1
336.321	293.44
336.775	267.7
337.228	291.1
337.682	265.36
338.135	291.1
338.588	253.66
339.042	305.15
339.495	307.49
339.948	239.61
340.401	316.85
340.854	363.66
341.307	337.91
341.76	358.98
342.213	277.06
342.666	354.3
343.119	312.17
343.571	298.13
344.024	319.19
344.477	286.42
344.929	288.76
345.382	295.79
345.834	293.44
346.287	284.08
346.739	309.83
347.191	363.66
347.644	258.34
348.096	319.19
348.548	323.87
349	321.53
349.452	302.81
349.904	300.47
350.356	260.68
350.808	277.06
351.26	281.74
351.711	347.28
352.163	335.57
352.615	330.89
353.066	323.87
353.518	316.85
353.969	387.07
354.421	246.63
354.872	267.7
355.324	300.47
355.775	312.17
356.226	281.74
356.677	328.55
357.128	244.29
357.579	293.44
358.03	267.7
358.481	344.94
358.932	302.81
359.383	279.4
359.834	300.47
360.285	319.19
360.735	312.17
361.186	305.15
361.637	284.08
362.087	335.57
362.538	279.4
362.988	272.38
363.438	258.34
363.889	314.51
364.339	330.89
364.789	316.85
365.239	298.13
365.689	380.04
366.139	366
366.589	295.79
367.039	326.21
367.489	335.57
367.939	375.36
368.389	340.26
368.839	277.06
369.288	288.76
369.738	312.17
370.187	288.76
370.637	319.19
371.086	253.66
371.536	260.68
371.985	375.36
372.434	279.4
372.884	260.68
373.333	316.85
373.782	251.32
374.231	316.85
374.68	307.49
375.129	316.85
375.578	284.08
376.027	284.08
376.475	326.21
376.924	288.76
377.373	340.26
377.822	291.1
378.27	337.91
378.719	326.21
379.167	302.81
379.616	295.79
380.064	344.94
380.512	330.89
380.961	316.85
381.409	314.51
381.857	351.96
382.305	265.36
382.753	389.41
383.201	218.55
383.649	230.25
384.097	295.79
384.545	323.87
384.992	342.6
385.44	309.83
385.888	319.19
386.335	258.34
386.783	263.02
387.231	314.51
387.678	321.53
388.125	284.08
388.573	337.91
389.02	260.68
389.467	281.74
389.914	314.51
390.362	267.7
390.809	270.04
391.256	298.13
391.703	265.36
392.15	356.64
392.596	286.42
393.043	358.98
393.49	321.53
393.937	314.51
394.383	340.26
394.83	333.23
395.276	319.19
395.723	309.83
396.169	248.97
396.616	380.04
397.062	281.74
397.508	321.53
397.954	270.04
398.401	300.47
398.847	309.83
399.293	354.3
399.739	347.28
400.185	316.85
400.631	284.08
401.076	279.4
401.522	321.53
401.968	274.72
402.414	279.4
402.859	361.32
403.305	307.49
403.75	361.32
404.196	361.32
404.641	321.53
405.086	309.83
405.532	326.21
405.977	248.97
406.422	309.83
406.867	267.7
407.312	312.17
407.757	288.76
408.202	305.15
408.647	298.13
409.092	361.32
409.537	295.79
409.982	358.98
410.426	319.19
410.871	321.53
411.316	309.83
411.76	295.79
412.205	342.6
412.649	302.81
413.093	300.47
413.538	335.57
413.982	389.41
414.426	309.83
414.87	281.74
415.314	401.11
415.758	358.98
416.202	314.51
416.646	270.04
417.09	312.17
417.534	330.89
417.978	305.15
418.421	300.47
418.865	298.13
419.309	258.34
419.752	384.73
420.196	291.1
420.639	340.26
421.083	307.49
421.526	272.38
421.969	330.89
422.412	344.94
422.856	328.55
423.299	298.13
423.742	340.26
424.185	342.6
424.628	284.08
425.071	391.75
425.513	307.49
425.956	319.19
426.399	314.51
426.842	314.51
427.284	377.7
427.727	326.21
428.169	316.85
428.612	347.28
429.054	342.6
429.497	370.68
429.939	330.89
430.381	387.07
430.823	387.07
431.265	342.6
431.707	314.51
432.149	380.04
432.591	351.96
433.033	347.28
433.475	366
433.917	431.54
434.359	403.45
434.8	525.16
435.242	550.9
435.684	588.35
436.125	494.73
436.567	457.28
437.008	419.83
437.449	485.37
437.891	457.28
438.332	457.28
438.773	438.56
439.214	401.11
439.656	485.37
440.097	424.51
440.538	490.05
440.978	490.05
441.419	461.96
441.86	480.69
442.301	398.77
442.742	478.35
443.182	478.35
443.623	431.54
444.063	454.94
444.504	473.67
444.944	508.77
445.385	490.05
445.825	452.6
446.265	567.29
446.706	520.48
447.146	473.67
447.586	492.39
448.026	529.84
448.466	501.75
448.906	492.39
449.346	473.67
449.786	422.17
450.225	384.73
450.665	468.98
451.105	464.3
451.544	483.03
451.984	433.88
452.424	513.46
452.863	391.75
453.302	450.26
453.742	403.45
454.181	450.26
454.62	438.56
455.059	480.69
455.499	396.43
455.938	443.24
456.377	368.34
456.816	368.34
457.254	464.3
457.693	417.49
458.132	483.03
458.571	436.22
459.01	370.68
459.448	431.54
459.887	403.45
460.325	450.26
460.764	384.73
461.202	468.98
461.641	429.2
462.079	373.02
462.517	382.39
462.955	438.56
463.393	396.43
463.832	443.24
464.27	443.24
464.708	438.56
465.145	419.83
465.583	403.45
466.021	398.77
466.459	398.77
466.897	415.15
467.334	415.15
467.772	415.15
468.209	361.32
468.647	389.41
469.084	384.73
469.522	375.36
469.959	375.36
470.396	398.77
470.833	351.96
471.271	387.07
471.708	340.26
472.145	415.15
472.582	417.49
473.019	356.64
473.456	394.09
473.892	319.19
474.329	328.55
474.766	375.36
475.202	326.21
475.639	363.66
476.076	344.94
476.512	410.47
476.949	349.62
477.385	340.26
477.821	415.15
478.258	302.81
478.694	326.21
479.13	356.64
479.566	366
480.002	366
480.438	347.28
480.874	382.39
481.31	349.62
481.746	396.43
482.181	340.26
482.617	344.94
483.053	335.57
483.488	431.54
483.924	351.96
484.36	323.87
484.795	424.51
485.23	368.34
485.666	312.17
486.101	436.22
486.536	450.26
486.971	384.73
487.407	431.54
487.842	408.13
488.277	440.9
488.712	401.11
489.146	438.56
489.581	433.88
490.016	389.41
490.451	387.07
490.885	466.64
491.32	447.92
491.755	412.81
492.189	431.54
492.624	347.28
493.058	401.11
493.492	410.47
493.927	485.37
494.361	429.2
494.795	396.43
495.229	368.34
495.663	396.43
496.097	447.92
496.531	391.75
496.965	375.36
497.399	431.54
497.833	389.41
498.266	396.43
498.7	429.2
499.134	354.3
499.567	373.02
500.001	412.81
500.434	403.45
500.868	382.39
501.301	382.39
501.734	405.79
502.168	330.89
502.601	368.34
503.034	377.7
503.467	424.51
503.9	408.13
504.333	347.28
504.766	431.54
505.199	375.36
505.632	337.91
506.064	394.09
506.497	410.47
506.93	424.51
507.362	429.2
507.795	354.3
508.227	377.7
508.66	354.3
509.092	403.45
509.524	443.24
509.956	433.88
510.389	380.04
510.821	377.7
511.253	410.47
511.685	431.54
512.117	459.62
512.549	436.22
512.981	408.13
513.412	387.07
513.844	363.66
514.276	382.39
514.707	375.36
515.139	426.86
515.571	445.58
516.002	387.07
516.433	429.2
516.865	377.7
517.296	426.86
517.727	436.22
518.159	342.6
518.59	415.15
519.021	417.49
519.452	366
519.883	450.26
520.314	473.67
520.744	375.36
521.175	431.54
521.606	373.02
522.037	419.83
522.467	347.28
522.898	419.83
523.328	307.49
523.759	476.01
524.189	466.64
524.62	401.11
525.05	382.39
525.48	476.01
525.91	373.02
526.341	433.88
526.771	396.43
527.201	419.83
527.631	415.15
528.061	387.07
528.49	370.68
528.92	440.9
529.35	401.11
529.78	417.49
530.209	408.13
530.639	473.67
531.068	419.83
531.498	415.15
531.927	370.68
532.357	370.68
532.786	426.86
533.215	405.79
533.644	408.13
534.074	408.13
534.503	426.86
534.932	361.32
535.361	417.49
535.79	384.73
536.218	422.17
536.647	380.04
537.076	445.58
537.505	408.13
537.933	373.02
538.362	522.82
538.79	375.36
539.219	483.03
539.647	459.62
540.076	485.37
540.504	541.54
540.932	536.86
541.36	604.74
541.788	700.7
542.217	696.02
542.645	714.74
543.073	679.63
543.5	679.63
543.928	752.19
544.356	726.44
544.784	679.63
545.211	834.11
545.639	712.4
546.067	642.18
546.494	693.68
546.922	581.33
547.349	541.54
547.776	569.63
548.204	478.35
548.631	513.46
549.058	508.77
549.485	508.77
549.912	438.56
550.339	550.9
550.766	494.73
551.193	539.2
551.62	473.67
552.047	499.41
552.474	522.82
552.9	461.96
553.327	436.22
553.754	408.13
554.18	445.58
554.607	391.75
555.033	403.45
555.459	426.86
555.886	436.22
556.312	464.3
556.738	354.3
557.164	415.15
557.59	398.77
558.016	398.77
558.442	403.45
558.868	401.11
559.294	436.22
559.72	431.54
560.145	440.9
560.571	335.57
560.997	438.56
561.422	487.71
561.848	382.39
562.273	433.88
562.699	396.43
563.124	401.11
563.549	396.43
563.974	410.47
564.4	412.81
564.825	389.41
565.25	419.83
565.675	440.9
566.1	466.64
566.525	340.26
566.95	380.04
567.374	438.56
567.799	429.2
568.224	373.02
568.648	426.86
569.073	426.86
569.497	377.7
569.922	429.2
570.346	405.79
570.771	473.67
571.195	417.49
571.619	412.81
572.043	382.39
572.467	436.22
572.891	351.96
573.315	394.09
573.739	358.98
574.163	461.96
574.587	380.04
575.011	436.22
575.435	410.47
575.858	356.64
576.282	422.17
576.705	408.13
577.129	431.54
577.552	429.2
577.976	391.75
578.399	447.92
578.822	384.73
579.245	401.11
579.669	461.96
580.092	433.88
580.515	438.56
580.938	504.09
581.361	494.73
581.784	380.04
582.206	366
582.629	461.96
583.052	508.77
583.474	443.24
583.897	487.71
584.32	396.43
584.742	431.54
585.165	412.81
585.587	394.09
586.009	466.64
586.431	454.94
586.854	499.41
587.276	466.64
587.698	490.05
588.12	396.43
588.542	370.68
588.964	431.54
589.386	401.11
589.807	380.04
590.229	450.26
590.651	375.36
591.073	354.3
591.494	433.88
591.916	384.73
592.337	433.88
592.759	344.94
593.18	466.64
593.601	361.32
594.022	391.75
594.444	408.13
594.865	419.83
595.286	424.51
595.707	412.81
596.128	419.83
596.549	361.32
596.97	368.34
597.39	342.6
597.811	401.11
598.232	335.57
598.652	422.17
599.073	426.86
599.494	398.77
599.914	405.79
600.334	335.57
600.755	447.92
601.175	370.68
601.595	375.36
602.015	403.45
602.436	377.7
602.856	536.86
603.276	389.41
603.696	344.94
604.115	326.21
604.535	337.91
604.955	347.28
605.375	389.41
605.794	368.34
606.214	373.02
606.634	401.11
607.053	466.64
607.473	412.81
607.892	440.9
608.311	429.2
608.731	429.2
609.15	382.39
609.569	532.18
609.988	550.9
610.407	761.55
610.826	752.19
611.245	770.91
611.664	752.19
612.083	663.25
612.501	628.14
612.92	637.5
613.339	590.69
613.757	515.8
614.176	508.77
614.594	485.37
615.013	457.28
615.431	433.88
615.85	466.64
616.268	422.17
616.686	387.07
617.104	377.7
617.522	436.22
617.94	358.98
618.358	415.15
618.776	417.49
619.194	314.51
619.612	431.54
620.03	356.64
620.447	394.09
620.865	408.13
621.282	403.45
621.7	354.3
622.117	382.39
622.535	433.88
622.952	351.96
623.369	373.02
623.787	321.53
624.204	396.43
624.621	370.68
625.038	370.68
625.455	340.26
625.872	426.86
626.289	337.91
626.706	440.9
627.123	323.87
627.539	370.68
627.956	389.41
628.373	443.24
628.789	382.39
629.206	394.09
629.622	337.91
630.038	375.36
630.455	361.32
630.871	340.26
631.287	401.11
631.703	316.85
632.12	457.28
632.536	351.96
632.952	361.32
633.368	340.26
633.783	335.57
634.199	312.17
634.615	398.77
635.031	361.32
635.446	319.19
635.862	316.85
636.277	295.79
636.693	319.19
637.108	337.91
637.524	396.43
637.939	298.13
638.354	412.81
638.77	307.49
639.185	368.34
639.6	403.45
640.015	316.85
640.43	330.89
640.845	344.94
641.259	366
641.674	344.94
642.089	363.66
642.504	375.36
642.918	344.94
643.333	330.89
643.747	246.63
644.162	373.02
644.576	344.94
644.991	382.39
645.405	351.96
645.819	370.68
646.233	377.7
646.647	368.34
647.061	330.89
647.475	258.34
647.889	309.83
648.303	328.55
648.717	380.04
649.131	342.6
649.545	370.68
649.958	302.81
650.372	368.34
650.785	375.36
651.199	342.6
651.612	351.96
652.026	295.79
652.439	394.09
652.852	298.13
653.266	361.32
653.679	272.38
654.092	328.55
654.505	373.02
654.918	288.76
655.331	309.83
655.744	321.53
656.156	302.81
656.569	312.17
656.982	373.02
657.394	316.85
657.807	333.23
658.22	253.66
658.632	394.09
659.044	368.34
659.457	293.44
659.869	300.47
660.281	358.98
660.693	330.89
661.106	337.91
661.518	281.74
661.93	307.49
662.342	333.23
662.754	277.06
663.165	330.89
663.577	326.21
663.989	321.53
664.401	333.23
664.812	309.83
665.224	300.47
665.635	382.39
666.047	272.38
666.458	300.47
666.869	349.62
667.281	377.7
667.692	246.63
668.103	377.7
668.514	279.4
668.925	351.96
669.336	248.97
669.747	286.42
670.158	342.6
670.569	335.57
670.979	328.55
671.39	328.55
671.801	309.83
672.211	309.83
672.622	326.21
673.032	321.53
673.443	340.26
673.853	340.26
674.263	391.75
674.674	307.49
675.084	314.51
675.494	323.87
675.904	328.55
676.314	316.85
676.724	335.57
677.134	248.97
677.544	366
677.953	312.17
678.363	312.17
678.773	344.94
679.182	333.23
679.592	307.49
680.001	300.47
680.411	234.93
680.82	246.63
681.23	361.32
681.639	293.44
682.048	326.21
682.457	344.94
682.866	356.64
683.275	347.28
683.684	337.91
684.093	321.53
684.502	391.75
684.911	312.17
685.32	288.76
685.728	354.3
686.137	291.1
686.546	284.08
686.954	234.93
687.363	349.62
687.771	330.89
688.179	321.53
688.588	328.55
688.996	302.81
689.404	319.19
689.812	337.91
690.22	309.83
690.628	354.3
691.036	309.83
691.444	260.68
691.852	307.49
692.26	358.98
692.667	284.08
693.075	344.94
693.483	349.62
693.89	344.94
694.298	328.55
694.705	314.51
695.112	344.94
695.52	309.83
695.927	237.27
696.334	307.49
696.741	277.06
697.148	373.02
697.555	335.57
697.962	295.79
698.369	288.76
698.776	295.79
699.183	298.13
699.59	321.53
699.996	277.06
700.403	312.17
700.81	342.6
701.216	335.57
701.623	309.83
702.029	323.87
702.435	333.23
702.842	375.36
703.248	340.26
703.654	274.72
704.06	314.51
704.466	333.23
704.872	293.44
705.278	380.04
705.684	328.55
706.09	337.91
706.496	323.87
706.901	323.87
707.307	398.77
707.712	279.4
708.118	298.13
708.523	384.73
708.929	351.96
709.334	366
709.74	321.53
710.145	326.21
710.55	363.66
710.955	342.6
711.36	316.85
711.765	323.87
712.17	302.81
712.575	284.08
712.98	983.9
713.385	415.15
713.789	333.23
714.194	305.15
714.599	319.19
715.003	260.68
715.408	267.7
715.812	300.47
716.217	281.74
716.621	335.57
717.025	298.13
717.429	384.73
717.833	307.49
718.238	349.62
718.642	288.76
719.046	298.13
719.449	330.89
719.853	246.63
720.257	295.79
720.661	363.66
721.065	330.89
721.468	356.64
721.872	300.47
722.275	305.15
722.679	349.62
723.082	272.38
723.485	335.57
723.889	354.3
724.292	314.51
724.695	295.79
725.098	330.89
725.501	307.49
725.904	321.53
726.307	351.96
726.71	351.96
727.113	253.66
727.516	302.81
727.918	305.15
728.321	286.42
728.724	291.1
729.126	335.57
729.529	300.47
729.931	230.25
730.333	300.47
730.736	330.89
731.138	340.26
731.54	260.68
731.942	351.96
732.344	279.4
732.746	281.74
733.148	263.02
733.55	354.3
733.952	300.47
734.354	316.85
734.756	321.53
735.157	274.72
735.559	288.76
735.96	316.85
736.362	358.98
736.763	305.15
737.165	309.83
737.566	307.49
737.967	279.4
738.368	337.91
738.77	309.83
739.171	312.17
739.572	288.76
739.973	246.63
740.374	237.27
740.774	274.72
741.175	300.47
741.576	284.08
741.977	319.19
742.377	314.51
742.778	342.6
743.178	358.98
743.579	300.47
743.979	270.04
744.379	295.79
744.78	309.83
745.18	370.68
745.58	298.13
745.98	293.44
746.38	291.1
746.78	326.21
747.18	314.51
747.58	284.08
747.98	347.28
748.38	349.62
748.779	316.85
749.179	323.87
749.578	356.64
749.978	316.85
750.377	277.06
750.777	260.68
751.176	291.1
751.575	377.7
751.975	307.49
752.374	291.1
752.773	288.76
753.172	330.89
753.571	305.15
753.97	316.85
754.369	316.85
754.768	363.66
755.166	309.83
755.565	305.15
755.964	368.34
756.362	288.76
756.761	284.08
757.159	312.17
757.558	319.19
757.956	309.83
758.354	298.13
758.753	258.34
759.151	286.42
759.549	284.08
759.947	274.72
760.345	293.44
760.743	333.23
761.141	267.7
761.539	263.02
761.936	291.1
762.334	300.47
762.732	295.79
763.129	263.02
763.527	307.49
763.924	349.62
764.322	288.76
764.719	253.66
765.117	293.44
765.514	265.36
765.911	286.42
