Data from Al_FLMS009871__865__16-14-59-328.txt Node

Date: Fri Mar 08 16:14:59 CST 2024
User: pe5414po
Spectrometer: FLMS00987
Trigger mode: 0
Integration Time (sec): 1.000000E-1
Scans to average: 1
Electric dark correction enabled: true
Nonlinearity correction enabled: false
Boxcar width: 0
XAxis mode: Wavelengths
Number of Pixels in Spectrum: 2048
>>>>>Begin Spectral Data<<<<<
188.938	-51.78
189.409	-51.78
189.879	-51.78
190.349	-131.36
190.819	-110.3
191.29	-126.68
191.76	-9.65
192.23	-77.53
192.7	-138.38
193.17	-23.7
193.64	-33.06
194.109	-82.21
194.579	-21.36
195.049	18.43
195.519	-9.65
195.988	37.16
196.458	102.69
196.927	123.76
197.397	119.07
197.866	44.18
198.336	76.95
198.805	170.57
199.274	135.46
199.744	189.29
200.213	151.84
200.682	177.59
201.151	257.17
201.62	186.95
202.089	219.72
202.558	261.85
203.027	282.91
203.495	308.66
203.964	203.33
204.433	247.8
204.902	231.42
205.37	280.57
205.839	287.59
206.307	311
206.776	285.25
207.244	193.97
207.712	189.29
208.181	282.91
208.649	285.25
209.117	346.11
209.585	250.14
210.053	247.8
210.521	275.89
210.989	336.74
211.457	311
211.925	287.59
212.393	252.49
212.861	261.85
213.328	278.23
213.796	261.85
214.264	254.83
214.731	273.55
215.199	226.74
215.666	226.74
216.133	240.78
216.601	308.66
217.068	289.93
217.535	257.17
218.003	275.89
218.47	311
218.937	231.42
219.404	231.42
219.871	205.67
220.338	341.43
220.805	280.57
221.271	254.83
221.738	254.83
222.205	203.33
222.671	275.89
223.138	240.78
223.605	266.53
224.071	238.44
224.538	287.59
225.004	215.04
225.47	240.78
225.937	257.17
226.403	261.85
226.869	268.87
227.335	250.14
227.801	250.14
228.267	252.49
228.733	250.14
229.199	231.42
229.665	231.42
230.131	231.42
230.597	240.78
231.062	301.64
231.528	259.51
231.994	254.83
232.459	273.55
232.925	236.1
233.39	243.12
233.856	240.78
234.321	247.8
234.786	247.8
235.252	252.49
235.717	212.7
236.182	278.23
236.647	275.89
237.112	275.89
237.577	268.87
238.042	245.46
238.507	282.91
238.972	275.89
239.436	266.53
239.901	311
240.366	294.61
240.83	266.53
241.295	233.76
241.76	266.53
242.224	233.76
242.688	229.08
243.153	196.31
243.617	165.89
244.081	299.3
244.545	245.46
245.01	271.21
245.474	264.19
245.938	212.7
246.402	287.59
246.866	215.04
247.33	259.51
247.793	219.72
248.257	292.27
248.721	282.91
249.185	231.42
249.648	273.55
250.112	275.89
250.575	285.25
251.039	257.17
251.502	250.14
251.965	257.17
252.429	280.57
252.892	243.12
253.355	346.11
253.818	226.74
254.281	271.21
254.744	306.32
255.207	264.19
255.67	259.51
256.133	205.67
256.596	245.46
257.059	278.23
257.522	285.25
257.984	250.14
258.447	306.32
258.909	261.85
259.372	287.59
259.834	210.36
260.297	320.36
260.759	259.51
261.221	282.91
261.684	306.32
262.146	294.61
262.608	289.93
263.07	245.46
263.532	355.47
263.994	222.06
264.456	285.25
264.918	264.19
265.38	247.8
265.842	189.29
266.303	236.1
266.765	275.89
267.227	275.89
267.688	261.85
268.15	261.85
268.611	313.34
269.072	336.74
269.534	275.89
269.995	306.32
270.456	240.78
270.918	247.8
271.379	236.1
271.84	289.93
272.301	306.32
272.762	306.32
273.223	299.3
273.684	215.04
274.144	301.64
274.605	254.83
275.066	278.23
275.527	315.68
275.987	254.83
276.448	247.8
276.908	285.25
277.369	245.46
277.829	296.96
278.289	346.11
278.75	275.89
279.21	275.89
279.67	289.93
280.13	268.87
280.59	282.91
281.05	303.98
281.51	233.76
281.97	282.91
282.43	278.23
282.89	280.57
283.35	219.72
283.809	292.27
284.269	336.74
284.729	278.23
285.188	282.91
285.648	243.12
286.107	369.51
286.567	278.23
287.026	222.06
287.485	332.06
287.944	325.04
288.404	318.02
288.863	301.64
289.322	306.32
289.781	285.25
290.24	278.23
290.699	217.38
291.158	252.49
291.616	311
292.075	238.44
292.534	222.06
292.992	285.25
293.451	273.55
293.91	224.4
294.368	247.8
294.827	296.96
295.285	266.53
295.743	275.89
296.202	296.96
296.66	261.85
297.118	226.74
297.576	303.98
298.034	303.98
298.492	273.55
298.95	264.19
299.408	332.06
299.866	261.85
300.324	280.57
300.781	336.74
301.239	289.93
301.697	308.66
302.154	320.36
302.612	226.74
303.069	292.27
303.527	320.36
303.984	301.64
304.441	182.27
304.899	308.66
305.356	243.12
305.813	294.61
306.27	294.61
306.727	318.02
307.184	320.36
307.641	268.87
308.098	252.49
308.555	341.43
309.012	348.45
309.468	313.34
309.925	268.87
310.382	231.42
310.838	261.85
311.295	322.7
311.751	303.98
312.208	325.04
312.664	268.87
313.12	325.04
313.577	313.34
314.033	229.08
314.489	292.27
314.945	306.32
315.401	287.59
315.857	322.7
316.313	280.57
316.769	275.89
317.225	301.64
317.681	296.96
318.136	238.44
318.592	320.36
319.048	308.66
319.503	289.93
319.959	296.96
320.414	327.38
320.869	271.21
321.325	278.23
321.78	231.42
322.235	282.91
322.691	287.59
323.146	315.68
323.601	296.96
324.056	240.78
324.511	261.85
324.966	287.59
325.421	259.51
325.875	236.1
326.33	264.19
326.785	250.14
327.24	329.72
327.694	264.19
328.149	285.25
328.603	257.17
329.058	320.36
329.512	280.57
329.966	318.02
330.421	285.25
330.875	294.61
331.329	350.79
331.783	245.46
332.237	325.04
332.691	322.7
333.145	275.89
333.599	383.56
334.053	322.7
334.507	264.19
334.96	294.61
335.414	275.89
335.868	240.78
336.321	355.47
336.775	247.8
337.228	219.72
337.682	275.89
338.135	325.04
338.588	320.36
339.042	332.06
339.495	327.38
339.948	327.38
340.401	320.36
340.854	299.3
341.307	308.66
341.76	339.09
342.213	278.23
342.666	332.06
343.119	282.91
343.571	320.36
344.024	275.89
344.477	245.46
344.929	346.11
345.382	294.61
345.834	243.12
346.287	308.66
346.739	313.34
347.191	268.87
347.644	308.66
348.096	278.23
348.548	245.46
349	285.25
349.452	339.09
349.904	259.51
350.356	245.46
350.808	266.53
351.26	294.61
351.711	238.44
352.163	254.83
352.615	308.66
353.066	313.34
353.518	318.02
353.969	219.72
354.421	257.17
354.872	203.33
355.324	275.89
355.775	222.06
356.226	322.7
356.677	322.7
357.128	264.19
357.579	266.53
358.03	343.77
358.481	327.38
358.932	308.66
359.383	280.57
359.834	243.12
360.285	273.55
360.735	292.27
361.186	362.49
361.637	292.27
362.087	301.64
362.538	261.85
362.988	285.25
363.438	296.96
363.889	280.57
364.339	303.98
364.789	320.36
365.239	313.34
365.689	343.77
366.139	250.14
366.589	275.89
367.039	383.56
367.489	313.34
367.939	278.23
368.389	287.59
368.839	327.38
369.288	320.36
369.738	332.06
370.187	268.87
370.637	334.4
371.086	282.91
371.536	322.7
371.985	275.89
372.434	339.09
372.884	264.19
373.333	289.93
373.782	285.25
374.231	257.17
374.68	327.38
375.129	327.38
375.578	250.14
376.027	243.12
376.475	303.98
376.924	329.72
377.373	268.87
377.822	240.78
378.27	348.45
378.719	318.02
379.167	308.66
379.616	268.87
380.064	292.27
380.512	355.47
380.961	311
381.409	287.59
381.857	306.32
382.305	303.98
382.753	339.09
383.201	280.57
383.649	254.83
384.097	282.91
384.545	266.53
384.992	289.93
385.44	268.87
385.888	275.89
386.335	299.3
386.783	280.57
387.231	301.64
387.678	315.68
388.125	257.17
388.573	282.91
389.02	320.36
389.467	346.11
389.914	334.4
390.362	285.25
390.809	336.74
391.256	243.12
391.703	301.64
392.15	320.36
392.596	233.76
393.043	273.55
393.49	301.64
393.937	313.34
394.383	364.83
394.83	296.96
395.276	318.02
395.723	285.25
396.169	322.7
396.616	311
397.062	226.74
397.508	329.72
397.954	289.93
398.401	238.44
398.847	327.38
399.293	308.66
399.739	280.57
400.185	217.38
400.631	285.25
401.076	282.91
401.522	282.91
401.968	306.32
402.414	303.98
402.859	313.34
403.305	275.89
403.75	261.85
404.196	240.78
404.641	261.85
405.086	261.85
405.532	252.49
405.977	259.51
406.422	296.96
406.867	292.27
407.312	348.45
407.757	306.32
408.202	311
408.647	306.32
409.092	350.79
409.537	280.57
409.982	343.77
410.426	289.93
410.871	268.87
411.316	378.87
411.76	287.59
412.205	273.55
412.649	254.83
413.093	343.77
413.538	318.02
413.982	287.59
414.426	336.74
414.87	313.34
415.314	301.64
415.758	264.19
416.202	311
416.646	334.4
417.09	280.57
417.534	332.06
417.978	341.43
418.421	233.76
418.865	306.32
419.309	325.04
419.752	266.53
420.196	299.3
420.639	348.45
421.083	343.77
421.526	301.64
421.969	261.85
422.412	292.27
422.856	285.25
423.299	278.23
423.742	327.38
424.185	311
424.628	271.21
425.071	280.57
425.513	353.13
425.956	320.36
426.399	252.49
426.842	268.87
427.284	292.27
427.727	240.78
428.169	285.25
428.612	296.96
429.054	325.04
429.497	327.38
429.939	254.83
430.381	233.76
430.823	268.87
431.265	315.68
431.707	259.51
432.149	299.3
432.591	339.09
433.033	301.64
433.475	325.04
433.917	292.27
434.359	292.27
434.8	341.43
435.242	280.57
435.684	296.96
436.125	266.53
436.567	266.53
437.008	266.53
437.449	339.09
437.891	334.4
438.332	308.66
438.773	247.8
439.214	308.66
439.656	280.57
440.097	339.09
440.538	292.27
440.978	318.02
441.419	311
441.86	282.91
442.301	280.57
442.742	243.12
443.182	245.46
443.623	275.89
444.063	313.34
444.504	268.87
444.944	306.32
445.385	318.02
445.825	303.98
446.265	289.93
446.706	315.68
447.146	282.91
447.586	296.96
448.026	308.66
448.466	264.19
448.906	301.64
449.346	238.44
449.786	292.27
450.225	250.14
450.665	332.06
451.105	369.51
451.544	313.34
451.984	341.43
452.424	353.13
452.863	303.98
453.302	289.93
453.742	336.74
454.181	252.49
454.62	315.68
455.059	224.4
455.499	325.04
455.938	348.45
456.377	254.83
456.816	282.91
457.254	348.45
457.693	367.17
458.132	322.7
458.571	243.12
459.01	336.74
459.448	285.25
459.887	280.57
460.325	229.08
460.764	348.45
461.202	222.06
461.641	341.43
462.079	306.32
462.517	294.61
462.955	336.74
463.393	320.36
463.832	299.3
464.27	329.72
464.708	294.61
465.145	348.45
465.583	280.57
466.021	278.23
466.459	252.49
466.897	303.98
467.334	294.61
467.772	264.19
468.209	353.13
468.647	315.68
469.084	285.25
469.522	332.06
469.959	318.02
470.396	329.72
470.833	320.36
471.271	294.61
471.708	336.74
472.145	343.77
472.582	336.74
473.019	318.02
473.456	308.66
473.892	315.68
474.329	376.53
474.766	334.4
475.202	268.87
475.639	315.68
476.076	381.21
476.512	243.12
476.949	296.96
477.385	306.32
477.821	231.42
478.258	315.68
478.694	301.64
479.13	287.59
479.566	320.36
480.002	329.72
480.438	329.72
480.874	318.02
481.31	353.13
481.746	252.49
482.181	299.3
482.617	322.7
483.053	339.09
483.488	282.91
483.924	325.04
484.36	320.36
484.795	313.34
485.23	289.93
485.666	388.24
486.101	282.91
486.536	257.17
486.971	294.61
487.407	357.81
487.842	238.44
488.277	299.3
488.712	303.98
489.146	308.66
489.581	303.98
490.016	299.3
490.451	231.42
490.885	308.66
491.32	343.77
491.755	285.25
492.189	343.77
492.624	268.87
493.058	353.13
493.492	325.04
493.927	332.06
494.361	320.36
494.795	264.19
495.229	264.19
495.663	357.81
496.097	243.12
496.531	388.24
496.965	332.06
497.399	294.61
497.833	261.85
498.266	301.64
498.7	308.66
499.134	289.93
499.567	271.21
500.001	292.27
500.434	318.02
500.868	236.1
501.301	296.96
501.734	292.27
502.168	275.89
502.601	259.51
503.034	350.79
503.467	296.96
503.9	318.02
504.333	392.92
504.766	301.64
505.199	294.61
505.632	353.13
506.064	282.91
506.497	292.27
506.93	289.93
507.362	308.66
507.795	226.74
508.227	252.49
508.66	350.79
509.092	343.77
509.524	334.4
509.956	303.98
510.389	325.04
510.821	280.57
511.253	250.14
511.685	264.19
512.117	350.79
512.549	226.74
512.981	353.13
513.412	311
513.844	299.3
514.276	308.66
514.707	271.21
515.139	273.55
515.571	285.25
516.002	311
516.433	339.09
516.865	278.23
517.296	322.7
517.727	332.06
518.159	318.02
518.59	280.57
519.021	264.19
519.452	285.25
519.883	257.17
520.314	329.72
520.744	325.04
521.175	346.11
521.606	289.93
522.037	318.02
522.467	318.02
522.898	320.36
523.328	240.78
523.759	329.72
524.189	343.77
524.62	334.4
525.05	318.02
525.48	306.32
525.91	322.7
526.341	353.13
526.771	329.72
527.201	320.36
527.631	320.36
528.061	271.21
528.49	357.81
528.92	346.11
529.35	280.57
529.78	238.44
530.209	268.87
530.639	289.93
531.068	306.32
531.498	282.91
531.927	275.89
532.357	268.87
532.786	273.55
533.215	287.59
533.644	308.66
534.074	332.06
534.503	287.59
534.932	303.98
535.361	334.4
535.79	320.36
536.218	392.92
536.647	339.09
537.076	289.93
537.505	268.87
537.933	229.08
538.362	231.42
538.79	332.06
539.219	264.19
539.647	282.91
540.076	294.61
540.504	353.13
540.932	336.74
541.36	327.38
541.788	303.98
542.217	238.44
542.645	250.14
543.073	273.55
543.5	339.09
543.928	313.34
544.356	327.38
544.784	325.04
545.211	299.3
545.639	327.38
546.067	327.38
546.494	315.68
546.922	311
547.349	301.64
547.776	273.55
548.204	306.32
548.631	282.91
549.058	252.49
549.485	341.43
549.912	336.74
550.339	268.87
550.766	336.74
551.193	259.51
551.62	327.38
552.047	329.72
552.474	311
552.9	357.81
553.327	325.04
553.754	325.04
554.18	346.11
554.607	439.73
555.033	303.98
555.459	320.36
555.886	301.64
556.312	325.04
556.738	334.4
557.164	271.21
557.59	224.4
558.016	257.17
558.442	334.4
558.868	259.51
559.294	306.32
559.72	282.91
560.145	299.3
560.571	264.19
560.997	254.83
561.422	306.32
561.848	327.38
562.273	315.68
562.699	205.67
563.124	346.11
563.549	343.77
563.974	357.81
564.4	343.77
564.825	334.4
565.25	306.32
565.675	287.59
566.1	299.3
566.525	315.68
566.95	264.19
567.374	240.78
567.799	273.55
568.224	245.46
568.648	231.42
569.073	327.38
569.497	301.64
569.922	308.66
570.346	238.44
570.771	273.55
571.195	268.87
571.619	280.57
572.043	254.83
572.467	303.98
572.891	285.25
573.315	278.23
573.739	282.91
574.163	341.43
574.587	280.57
575.011	275.89
575.435	282.91
575.858	275.89
576.282	233.76
576.705	329.72
577.129	364.83
577.552	247.8
577.976	266.53
578.399	371.85
578.822	285.25
579.245	348.45
579.669	299.3
580.092	378.87
580.515	292.27
580.938	271.21
581.361	303.98
581.784	315.68
582.206	280.57
582.629	318.02
583.052	320.36
583.474	378.87
583.897	320.36
584.32	357.81
584.742	311
585.165	346.11
585.587	308.66
586.009	313.34
586.431	308.66
586.854	261.85
587.276	273.55
587.698	273.55
588.12	313.34
588.542	254.83
588.964	292.27
589.386	313.34
589.807	303.98
590.229	285.25
590.651	303.98
591.073	289.93
591.494	350.79
591.916	308.66
592.337	252.49
592.759	308.66
593.18	315.68
593.601	257.17
594.022	282.91
594.444	250.14
594.865	343.77
595.286	273.55
595.707	275.89
596.128	322.7
596.549	282.91
596.97	353.13
597.39	289.93
597.811	313.34
598.232	285.25
598.652	294.61
599.073	320.36
599.494	282.91
599.914	332.06
600.334	280.57
600.755	285.25
601.175	243.12
601.595	332.06
602.015	261.85
602.436	254.83
602.856	449.09
603.276	325.04
603.696	303.98
604.115	353.13
604.535	303.98
604.955	325.04
605.375	287.59
605.794	369.51
606.214	315.68
606.634	280.57
607.053	320.36
607.473	362.49
607.892	364.83
608.311	348.45
608.731	348.45
609.15	350.79
609.569	315.68
609.988	329.72
610.407	289.93
610.826	289.93
611.245	318.02
611.664	315.68
612.083	355.47
612.501	189.29
612.92	329.72
613.339	320.36
613.757	296.96
614.176	306.32
614.594	285.25
615.013	313.34
615.431	238.44
615.85	329.72
616.268	292.27
616.686	247.8
617.104	350.79
617.522	275.89
617.94	299.3
618.358	336.74
618.776	308.66
619.194	303.98
619.612	271.21
620.03	282.91
620.447	325.04
620.865	367.17
621.282	275.89
621.7	250.14
622.117	308.66
622.535	278.23
622.952	336.74
623.369	346.11
623.787	236.1
624.204	334.4
624.621	268.87
625.038	292.27
625.455	339.09
625.872	332.06
626.289	292.27
626.706	301.64
627.123	327.38
627.539	243.12
627.956	327.38
628.373	336.74
628.789	266.53
629.206	287.59
629.622	334.4
630.038	278.23
630.455	311
630.871	313.34
631.287	287.59
631.703	325.04
632.12	282.91
632.536	238.44
632.952	271.21
633.368	301.64
633.783	320.36
634.199	313.34
634.615	308.66
635.031	334.4
635.446	285.25
635.862	191.63
636.277	243.12
636.693	306.32
637.108	268.87
637.524	350.79
637.939	327.38
638.354	292.27
638.77	320.36
639.185	259.51
639.6	318.02
640.015	287.59
640.43	303.98
640.845	271.21
641.259	264.19
641.674	287.59
642.089	282.91
642.504	266.53
642.918	329.72
643.333	299.3
643.747	203.33
644.162	318.02
644.576	332.06
644.991	299.3
645.405	311
645.819	287.59
646.233	296.96
646.647	308.66
647.061	357.81
647.475	196.31
647.889	301.64
648.303	311
648.717	296.96
649.131	271.21
649.545	278.23
649.958	285.25
650.372	271.21
650.785	343.77
651.199	296.96
651.612	357.81
652.026	336.74
652.439	353.13
652.852	325.04
653.266	343.77
653.679	261.85
654.092	292.27
654.505	353.13
654.918	259.51
655.331	311
655.744	325.04
656.156	308.66
656.569	329.72
656.982	278.23
657.394	285.25
657.807	292.27
658.22	259.51
658.632	299.3
659.044	334.4
659.457	332.06
659.869	313.34
660.281	353.13
660.693	343.77
661.106	282.91
661.518	247.8
661.93	299.3
662.342	311
662.754	282.91
663.165	318.02
663.577	266.53
663.989	320.36
664.401	294.61
664.812	238.44
665.224	264.19
665.635	285.25
666.047	341.43
666.458	289.93
666.869	266.53
667.281	322.7
667.692	355.47
668.103	318.02
668.514	343.77
668.925	261.85
669.336	247.8
669.747	306.32
670.158	329.72
670.569	306.32
670.979	254.83
671.39	257.17
671.801	348.45
672.211	332.06
672.622	301.64
673.032	257.17
673.443	289.93
673.853	238.44
674.263	285.25
674.674	303.98
675.084	229.08
675.494	287.59
675.904	322.7
676.314	322.7
676.724	303.98
677.134	299.3
677.544	250.14
677.953	350.79
678.363	308.66
678.773	313.34
679.182	306.32
679.592	315.68
680.001	374.19
680.411	320.36
680.82	233.76
681.23	301.64
681.639	245.46
682.048	320.36
682.457	327.38
682.866	311
683.275	360.15
683.684	308.66
684.093	341.43
684.502	268.87
684.911	313.34
685.32	341.43
685.728	306.32
686.137	271.21
686.546	306.32
686.954	229.08
687.363	294.61
687.771	259.51
688.179	268.87
688.588	301.64
688.996	336.74
689.404	318.02
689.812	292.27
690.22	268.87
690.628	360.15
691.036	268.87
691.444	306.32
691.852	285.25
692.26	311
692.667	275.89
693.075	311
693.483	325.04
693.89	289.93
694.298	238.44
694.705	341.43
695.112	327.38
695.52	334.4
695.927	287.59
696.334	271.21
696.741	285.25
697.148	287.59
697.555	282.91
697.962	282.91
698.369	320.36
698.776	257.17
699.183	273.55
699.59	346.11
699.996	299.3
700.403	313.34
700.81	294.61
701.216	299.3
701.623	334.4
702.029	245.46
702.435	271.21
702.842	261.85
703.248	273.55
703.654	259.51
704.06	303.98
704.466	296.96
704.872	306.32
705.278	322.7
705.684	287.59
706.09	247.8
706.496	287.59
706.901	320.36
707.307	280.57
707.712	273.55
708.118	350.79
708.523	343.77
708.929	252.49
709.334	273.55
709.74	280.57
710.145	322.7
710.55	409.3
710.955	301.64
711.36	332.06
711.765	329.72
712.17	322.7
712.575	264.19
712.98	832.94
713.385	327.38
713.789	303.98
714.194	322.7
714.599	238.44
715.003	315.68
715.408	259.51
715.812	308.66
716.217	364.83
716.621	271.21
717.025	254.83
717.429	245.46
717.833	287.59
718.238	339.09
718.642	320.36
719.046	261.85
719.449	280.57
719.853	287.59
720.257	266.53
720.661	280.57
721.065	339.09
721.468	254.83
721.872	259.51
722.275	346.11
722.679	282.91
723.082	289.93
723.485	318.02
723.889	250.14
724.292	240.78
724.695	308.66
725.098	301.64
725.501	329.72
725.904	353.13
726.307	306.32
726.71	264.19
727.113	247.8
727.516	285.25
727.918	245.46
728.321	325.04
728.724	364.83
729.126	252.49
729.529	322.7
729.931	280.57
730.333	311
730.736	264.19
731.138	353.13
731.54	313.34
731.942	292.27
732.344	378.87
732.746	318.02
733.148	292.27
733.55	294.61
733.952	289.93
734.354	271.21
734.756	282.91
735.157	215.04
735.559	378.87
735.96	306.32
736.362	268.87
736.763	322.7
737.165	240.78
737.566	346.11
737.967	362.49
738.368	315.68
738.77	341.43
739.171	278.23
739.572	282.91
739.973	282.91
740.374	292.27
740.774	313.34
741.175	334.4
741.576	280.57
741.977	275.89
742.377	303.98
742.778	303.98
743.178	334.4
743.579	311
743.979	332.06
744.379	243.12
744.78	280.57
745.18	245.46
745.58	332.06
745.98	266.53
746.38	301.64
746.78	250.14
747.18	275.89
747.58	261.85
747.98	322.7
748.38	308.66
748.779	236.1
749.179	364.83
749.578	273.55
749.978	318.02
750.377	362.49
750.777	332.06
751.176	278.23
751.575	318.02
751.975	306.32
752.374	301.64
752.773	285.25
753.172	311
753.571	259.51
753.97	329.72
754.369	308.66
754.768	261.85
755.166	285.25
755.565	296.96
755.964	313.34
756.362	334.4
756.761	306.32
757.159	299.3
757.558	296.96
757.956	280.57
758.354	306.32
758.753	259.51
759.151	282.91
759.549	329.72
759.947	301.64
760.345	282.91
760.743	371.85
761.141	327.38
761.539	289.93
761.936	261.85
762.334	280.57
762.732	292.27
763.129	240.78
763.527	254.83
763.924	245.46
764.322	311
764.719	280.57
765.117	306.32
765.514	247.8
765.911	261.85
766.308	303.98
