Data from Al_FLMS009871__864__16-14-59-228.txt Node

Date: Fri Mar 08 16:14:59 CST 2024
User: pe5414po
Spectrometer: FLMS00987
Trigger mode: 0
Integration Time (sec): 1.000000E-1
Scans to average: 1
Electric dark correction enabled: true
Nonlinearity correction enabled: false
Boxcar width: 0
XAxis mode: Wavelengths
Number of Pixels in Spectrum: 2048
>>>>>Begin Spectral Data<<<<<
188.938	-91.13
189.409	-91.13
189.879	-91.13
190.349	-142.63
190.819	-140.29
191.29	-168.37
191.76	-79.43
192.23	-93.48
192.7	-77.09
193.17	-41.98
193.64	-41.98
194.109	-49
194.579	-32.62
195.049	16.53
195.519	-6.88
195.988	44.62
196.458	86.75
196.927	91.43
197.397	91.43
197.866	168.66
198.336	91.43
198.805	131.22
199.274	217.82
199.744	171.01
200.213	173.35
200.682	161.64
201.151	210.79
201.62	145.26
202.089	192.07
202.558	241.22
203.027	234.2
203.495	278.67
203.964	292.71
204.433	288.03
204.902	269.31
205.37	313.78
205.839	245.9
206.307	313.78
206.776	292.71
207.244	283.35
207.712	278.67
208.181	210.79
208.649	259.95
209.117	299.73
209.585	332.5
210.053	273.99
210.521	273.99
210.989	278.67
211.457	234.2
211.925	269.31
212.393	290.37
212.861	266.97
213.328	236.54
213.796	332.5
214.264	227.18
214.731	281.01
215.199	269.31
215.666	281.01
216.133	236.54
216.601	266.97
217.068	271.65
217.535	222.5
218.003	220.16
218.47	252.92
218.937	245.9
219.404	234.2
219.871	297.39
220.338	217.82
220.805	257.61
221.271	285.69
221.738	341.86
222.205	273.99
222.671	281.01
223.138	227.18
223.605	180.37
224.071	264.63
224.538	281.01
225.004	210.79
225.47	257.61
225.937	201.43
226.403	220.16
226.869	201.43
227.335	213.14
227.801	180.37
228.267	269.31
228.733	203.77
229.199	283.35
229.665	273.99
230.131	234.2
230.597	250.58
231.062	208.45
231.528	229.52
231.994	206.11
232.459	206.11
232.925	236.54
233.39	281.01
233.856	297.39
234.321	332.5
234.786	238.88
235.252	215.48
235.717	318.46
236.182	255.26
236.647	269.31
237.112	297.39
237.577	266.97
238.042	281.01
238.507	332.5
238.972	306.76
239.436	222.5
239.901	264.63
240.366	234.2
240.83	273.99
241.295	250.58
241.76	264.63
242.224	271.65
242.688	276.33
243.153	271.65
243.617	241.22
244.081	234.2
244.545	281.01
245.01	264.63
245.474	290.37
245.938	311.44
246.402	262.29
246.866	299.73
247.33	252.92
247.793	290.37
248.257	234.2
248.721	295.05
249.185	295.05
249.648	234.2
250.112	281.01
250.575	206.11
251.039	283.35
251.502	245.9
251.965	266.97
252.429	276.33
252.892	210.79
253.355	248.24
253.818	262.29
254.281	236.54
254.744	306.76
255.207	320.8
255.67	250.58
256.133	313.78
256.596	313.78
257.059	316.12
257.522	266.97
257.984	306.76
258.447	316.12
258.909	283.35
259.372	311.44
259.834	241.22
260.297	264.63
260.759	302.08
261.221	238.88
261.684	304.42
262.146	283.35
262.608	337.18
263.07	252.92
263.532	213.14
263.994	348.89
264.456	337.18
264.918	313.78
265.38	285.69
265.842	245.9
266.303	238.88
266.765	262.29
267.227	231.86
267.688	325.48
268.15	257.61
268.611	222.5
269.072	290.37
269.534	292.71
269.995	241.22
270.456	250.58
270.918	259.95
271.379	285.69
271.84	318.46
272.301	241.22
272.762	283.35
273.223	236.54
273.684	302.08
274.144	304.42
274.605	334.84
275.066	276.33
275.527	271.65
275.987	257.61
276.448	269.31
276.908	339.52
277.369	273.99
277.829	276.33
278.289	292.71
278.75	250.58
279.21	262.29
279.67	290.37
280.13	353.57
280.59	271.65
281.05	264.63
281.51	276.33
281.97	206.11
282.43	297.39
282.89	290.37
283.35	295.05
283.809	283.35
284.269	309.1
284.729	208.45
285.188	281.01
285.648	273.99
286.107	332.5
286.567	238.88
287.026	229.52
287.485	327.82
287.944	285.69
288.404	278.67
288.863	302.08
289.322	273.99
289.781	332.5
290.24	297.39
290.699	306.76
291.158	360.59
291.616	295.05
292.075	306.76
292.534	292.71
292.992	264.63
293.451	302.08
293.91	273.99
294.368	269.31
294.827	271.65
295.285	351.23
295.743	276.33
296.202	299.73
296.66	264.63
297.118	281.01
297.576	273.99
298.034	306.76
298.492	285.69
298.95	295.05
299.408	299.73
299.866	323.14
300.324	302.08
300.781	311.44
301.239	391.02
301.697	248.24
302.154	278.67
302.612	271.65
303.069	318.46
303.527	330.16
303.984	297.39
304.441	320.8
304.899	229.52
305.356	337.18
305.813	332.5
306.27	316.12
306.727	299.73
307.184	227.18
307.641	257.61
308.098	302.08
308.555	320.8
309.012	281.01
309.468	262.29
309.925	306.76
310.382	337.18
310.838	276.33
311.295	266.97
311.751	290.37
312.208	264.63
312.664	299.73
313.12	255.26
313.577	245.9
314.033	327.82
314.489	332.5
314.945	299.73
315.401	262.29
315.857	318.46
316.313	351.23
316.769	325.48
317.225	327.82
317.681	313.78
318.136	266.97
318.592	278.67
319.048	283.35
319.503	276.33
319.959	339.52
320.414	325.48
320.869	320.8
321.325	285.69
321.78	325.48
322.235	318.46
322.691	292.71
323.146	332.5
323.601	288.03
324.056	278.67
324.511	290.37
324.966	285.69
325.421	288.03
325.875	302.08
326.33	311.44
326.785	299.73
327.24	241.22
327.694	372.29
328.149	238.88
328.603	337.18
329.058	421.44
329.512	269.31
329.966	320.8
330.421	255.26
330.875	281.01
331.329	309.1
331.783	306.76
332.237	304.42
332.691	290.37
333.145	332.5
333.599	318.46
334.053	292.71
334.507	348.89
334.96	285.69
335.414	353.57
335.868	351.23
336.321	318.46
336.775	290.37
337.228	302.08
337.682	283.35
338.135	227.18
338.588	299.73
339.042	337.18
339.495	323.14
339.948	266.97
340.401	341.86
340.854	271.65
341.307	285.69
341.76	320.8
342.213	273.99
342.666	316.12
343.119	351.23
343.571	311.44
344.024	313.78
344.477	318.46
344.929	273.99
345.382	292.71
345.834	318.46
346.287	255.26
346.739	290.37
347.191	318.46
347.644	285.69
348.096	332.5
348.548	313.78
349	266.97
349.452	346.55
349.904	255.26
350.356	283.35
350.808	330.16
351.26	297.39
351.711	243.56
352.163	313.78
352.615	285.69
353.066	309.1
353.518	269.31
353.969	295.05
354.421	245.9
354.872	325.48
355.324	299.73
355.775	306.76
356.226	250.58
356.677	341.86
357.128	250.58
357.579	327.82
358.03	302.08
358.481	311.44
358.932	306.76
359.383	320.8
359.834	299.73
360.285	337.18
360.735	266.97
361.186	292.71
361.637	304.42
362.087	281.01
362.538	257.61
362.988	259.95
363.438	313.78
363.889	353.57
364.339	295.05
364.789	297.39
365.239	255.26
365.689	273.99
366.139	334.84
366.589	292.71
367.039	297.39
367.489	337.18
367.939	262.29
368.389	311.44
368.839	290.37
369.288	269.31
369.738	266.97
370.187	243.56
370.637	346.55
371.086	220.16
371.536	273.99
371.985	348.89
372.434	262.29
372.884	304.42
373.333	311.44
373.782	295.05
374.231	295.05
374.68	332.5
375.129	302.08
375.578	252.92
376.027	259.95
376.475	316.12
376.924	283.35
377.373	252.92
377.822	276.33
378.27	395.7
378.719	241.22
379.167	271.65
379.616	271.65
380.064	288.03
380.512	327.82
380.961	316.12
381.409	323.14
381.857	285.69
382.305	245.9
382.753	318.46
383.201	316.12
383.649	283.35
384.097	344.21
384.545	346.55
384.992	252.92
385.44	283.35
385.888	276.33
386.335	330.16
386.783	295.05
387.231	252.92
387.678	257.61
388.125	344.21
388.573	309.1
389.02	273.99
389.467	295.05
389.914	297.39
390.362	344.21
390.809	271.65
391.256	248.24
391.703	302.08
392.15	302.08
392.596	245.9
393.043	323.14
393.49	325.48
393.937	365.27
394.383	299.73
394.83	341.86
395.276	273.99
395.723	311.44
396.169	295.05
396.616	355.91
397.062	273.99
397.508	299.73
397.954	323.14
398.401	316.12
398.847	262.29
399.293	295.05
399.739	290.37
400.185	292.71
400.631	320.8
401.076	313.78
401.522	283.35
401.968	360.59
402.414	271.65
402.859	271.65
403.305	283.35
403.75	323.14
404.196	311.44
404.641	257.61
405.086	407.4
405.532	351.23
405.977	250.58
406.422	341.86
406.867	288.03
407.312	302.08
407.757	292.71
408.202	264.63
408.647	288.03
409.092	269.31
409.537	252.92
409.982	332.5
410.426	309.1
410.871	292.71
411.316	259.95
411.76	271.65
412.205	386.33
412.649	295.05
413.093	355.91
413.538	320.8
413.982	323.14
414.426	271.65
414.87	362.93
415.314	290.37
415.758	313.78
416.202	259.95
416.646	266.97
417.09	311.44
417.534	309.1
417.978	330.16
418.421	339.52
418.865	264.63
419.309	341.86
419.752	304.42
420.196	327.82
420.639	257.61
421.083	351.23
421.526	372.29
421.969	297.39
422.412	332.5
422.856	269.31
423.299	334.84
423.742	316.12
424.185	297.39
424.628	302.08
425.071	339.52
425.513	292.71
425.956	325.48
426.399	302.08
426.842	281.01
427.284	374.63
427.727	309.1
428.169	316.12
428.612	323.14
429.054	318.46
429.497	337.18
429.939	304.42
430.381	372.29
430.823	288.03
431.265	281.01
431.707	313.78
432.149	353.57
432.591	269.31
433.033	288.03
433.475	276.33
433.917	297.39
434.359	311.44
434.8	311.44
435.242	302.08
435.684	320.8
436.125	278.67
436.567	295.05
437.008	271.65
437.449	313.78
437.891	299.73
438.332	339.52
438.773	297.39
439.214	355.91
439.656	306.76
440.097	281.01
440.538	309.1
440.978	273.99
441.419	285.69
441.86	297.39
442.301	299.73
442.742	351.23
443.182	295.05
443.623	334.84
444.063	302.08
444.504	290.37
444.944	273.99
445.385	222.5
445.825	264.63
446.265	281.01
446.706	379.31
447.146	304.42
447.586	273.99
448.026	257.61
448.466	323.14
448.906	278.67
449.346	292.71
449.786	318.46
450.225	250.58
450.665	386.33
451.105	227.18
451.544	299.73
451.984	323.14
452.424	334.84
452.863	248.24
453.302	281.01
453.742	290.37
454.181	320.8
454.62	311.44
455.059	302.08
455.499	351.23
455.938	276.33
456.377	323.14
456.816	318.46
457.254	332.5
457.693	334.84
458.132	288.03
458.571	302.08
459.01	262.29
459.448	283.35
459.887	325.48
460.325	278.67
460.764	313.78
461.202	318.46
461.641	327.82
462.079	339.52
462.517	283.35
462.955	320.8
463.393	290.37
463.832	346.55
464.27	313.78
464.708	323.14
465.145	262.29
465.583	224.84
466.021	318.46
466.459	320.8
466.897	344.21
467.334	323.14
467.772	262.29
468.209	281.01
468.647	355.91
469.084	311.44
469.522	302.08
469.959	290.37
470.396	252.92
470.833	234.2
471.271	262.29
471.708	290.37
472.145	323.14
472.582	248.24
473.019	323.14
473.456	388.68
473.892	337.18
474.329	330.16
474.766	344.21
475.202	283.35
475.639	283.35
476.076	304.42
476.512	337.18
476.949	283.35
477.385	210.79
477.821	327.82
478.258	311.44
478.694	285.69
479.13	360.59
479.566	325.48
480.002	332.5
480.438	341.86
480.874	288.03
481.31	278.67
481.746	302.08
482.181	302.08
482.617	348.89
483.053	381.65
483.488	330.16
483.924	262.29
484.36	332.5
484.795	313.78
485.23	306.76
485.666	313.78
486.101	295.05
486.536	372.29
486.971	297.39
487.407	288.03
487.842	306.76
488.277	269.31
488.712	348.89
489.146	302.08
489.581	297.39
490.016	353.57
490.451	306.76
490.885	266.97
491.32	327.82
491.755	292.71
492.189	320.8
492.624	320.8
493.058	334.84
493.492	276.33
493.927	332.5
494.361	281.01
494.795	337.18
495.229	372.29
495.663	344.21
496.097	334.84
496.531	323.14
496.965	360.59
497.399	288.03
497.833	278.67
498.266	292.71
498.7	283.35
499.134	334.84
499.567	311.44
500.001	348.89
500.434	323.14
500.868	252.92
501.301	292.71
501.734	318.46
502.168	285.69
502.601	255.26
503.034	299.73
503.467	337.18
503.9	224.84
504.333	292.71
504.766	323.14
505.199	299.73
505.632	290.37
506.064	332.5
506.497	332.5
506.93	325.48
507.362	304.42
507.795	327.82
508.227	311.44
508.66	362.93
509.092	334.84
509.524	316.12
509.956	351.23
510.389	332.5
510.821	334.84
511.253	217.82
511.685	367.61
512.117	288.03
512.549	278.67
512.981	292.71
513.412	276.33
513.844	285.69
514.276	330.16
514.707	344.21
515.139	266.97
515.571	372.29
516.002	292.71
516.433	318.46
516.865	259.95
517.296	283.35
517.727	292.71
518.159	360.59
518.59	318.46
519.021	302.08
519.452	276.33
519.883	323.14
520.314	213.14
520.744	309.1
521.175	365.27
521.606	297.39
522.037	292.71
522.467	288.03
522.898	341.86
523.328	257.61
523.759	306.76
524.189	332.5
524.62	334.84
525.05	311.44
525.48	292.71
525.91	320.8
526.341	250.58
526.771	325.48
527.201	313.78
527.631	313.78
528.061	369.95
528.49	316.12
528.92	259.95
529.35	292.71
529.78	320.8
530.209	348.89
530.639	330.16
531.068	297.39
531.498	285.69
531.927	234.2
532.357	313.78
532.786	290.37
533.215	297.39
533.644	306.76
534.074	201.43
534.503	330.16
534.932	262.29
535.361	273.99
535.79	320.8
536.218	339.52
536.647	327.82
537.076	304.42
537.505	332.5
537.933	295.05
538.362	323.14
538.79	309.1
539.219	311.44
539.647	339.52
540.076	297.39
540.504	264.63
540.932	383.99
541.36	313.78
541.788	266.97
542.217	264.63
542.645	290.37
543.073	295.05
543.5	320.8
543.928	330.16
544.356	252.92
544.784	243.56
545.211	259.95
545.639	285.69
546.067	341.86
546.494	290.37
546.922	252.92
547.349	348.89
547.776	344.21
548.204	292.71
548.631	299.73
549.058	243.56
549.485	281.01
549.912	297.39
550.339	238.88
550.766	295.05
551.193	262.29
551.62	351.23
552.047	311.44
552.474	316.12
552.9	278.67
553.327	285.69
553.754	245.9
554.18	304.42
554.607	292.71
555.033	273.99
555.459	283.35
555.886	337.18
556.312	367.61
556.738	318.46
557.164	346.55
557.59	341.86
558.016	295.05
558.442	318.46
558.868	313.78
559.294	318.46
559.72	227.18
560.145	292.71
560.571	299.73
560.997	288.03
561.422	271.65
561.848	309.1
562.273	323.14
562.699	281.01
563.124	283.35
563.549	313.78
563.974	355.91
564.4	344.21
564.825	309.1
565.25	295.05
565.675	316.12
566.1	332.5
566.525	353.57
566.95	281.01
567.374	339.52
567.799	259.95
568.224	306.76
568.648	320.8
569.073	248.24
569.497	262.29
569.922	334.84
570.346	302.08
570.771	341.86
571.195	306.76
571.619	276.33
572.043	325.48
572.467	257.61
572.891	306.76
573.315	316.12
573.739	311.44
574.163	302.08
574.587	273.99
575.011	316.12
575.435	273.99
575.858	323.14
576.282	299.73
576.705	393.36
577.129	353.57
577.552	346.55
577.976	306.76
578.399	266.97
578.822	290.37
579.245	311.44
579.669	290.37
580.092	320.8
580.515	325.48
580.938	290.37
581.361	266.97
581.784	285.69
582.206	313.78
582.629	391.02
583.052	290.37
583.474	376.97
583.897	302.08
584.32	367.61
584.742	269.31
585.165	309.1
585.587	318.46
586.009	351.23
586.431	341.86
586.854	306.76
587.276	346.55
587.698	266.97
588.12	316.12
588.542	302.08
588.964	358.25
589.386	332.5
589.807	302.08
590.229	306.76
590.651	327.82
591.073	351.23
591.494	311.44
591.916	304.42
592.337	292.71
592.759	402.72
593.18	302.08
593.601	295.05
594.022	348.89
594.444	266.97
594.865	332.5
595.286	332.5
595.707	292.71
596.128	355.91
596.549	330.16
596.97	288.03
597.39	325.48
597.811	285.69
598.232	318.46
598.652	341.86
599.073	297.39
599.494	320.8
599.914	320.8
600.334	243.56
600.755	292.71
601.175	311.44
601.595	346.55
602.015	220.16
602.436	309.1
602.856	440.17
603.276	276.33
603.696	318.46
604.115	269.31
604.535	309.1
604.955	299.73
605.375	302.08
605.794	383.99
606.214	339.52
606.634	318.46
607.053	290.37
607.473	262.29
607.892	341.86
608.311	323.14
608.731	266.97
609.15	318.46
609.569	234.2
609.988	288.03
610.407	306.76
610.826	344.21
611.245	281.01
611.664	341.86
612.083	316.12
612.501	325.48
612.92	306.76
613.339	281.01
613.757	283.35
614.176	372.29
614.594	320.8
615.013	316.12
615.431	295.05
615.85	295.05
616.268	316.12
616.686	304.42
617.104	292.71
617.522	358.25
617.94	339.52
618.358	311.44
618.776	311.44
619.194	229.52
619.612	355.91
620.03	243.56
620.447	299.73
620.865	295.05
621.282	297.39
621.7	327.82
622.117	304.42
622.535	337.18
622.952	302.08
623.369	316.12
623.787	285.69
624.204	264.63
624.621	341.86
625.038	252.92
625.455	297.39
625.872	344.21
626.289	290.37
626.706	273.99
627.123	299.73
627.539	316.12
627.956	306.76
628.373	299.73
628.789	285.69
629.206	313.78
629.622	273.99
630.038	311.44
630.455	327.82
630.871	231.86
631.287	306.76
631.703	271.65
632.12	276.33
632.536	341.86
632.952	348.89
633.368	241.22
633.783	341.86
634.199	367.61
634.615	273.99
635.031	266.97
635.446	344.21
635.862	273.99
636.277	290.37
636.693	309.1
637.108	330.16
637.524	334.84
637.939	341.86
638.354	257.61
638.77	295.05
639.185	309.1
639.6	283.35
640.015	292.71
640.43	208.45
640.845	306.76
641.259	285.69
641.674	313.78
642.089	313.78
642.504	360.59
642.918	334.84
643.333	334.84
643.747	273.99
644.162	334.84
644.576	302.08
644.991	288.03
645.405	302.08
645.819	327.82
646.233	297.39
646.647	346.55
647.061	311.44
647.475	252.92
647.889	351.23
648.303	311.44
648.717	299.73
649.131	299.73
649.545	313.78
649.958	273.99
650.372	365.27
650.785	262.29
651.199	304.42
651.612	297.39
652.026	257.61
652.439	257.61
652.852	309.1
653.266	306.76
653.679	311.44
654.092	292.71
654.505	339.52
654.918	341.86
655.331	325.48
655.744	276.33
656.156	295.05
656.569	337.18
656.982	386.33
657.394	334.84
657.807	278.67
658.22	283.35
658.632	299.73
659.044	266.97
659.457	259.95
659.869	358.25
660.281	318.46
660.693	318.46
661.106	311.44
661.518	316.12
661.93	281.01
662.342	313.78
662.754	309.1
663.165	266.97
663.577	348.89
663.989	318.46
664.401	320.8
664.812	337.18
665.224	325.48
665.635	299.73
666.047	243.56
666.458	313.78
666.869	262.29
667.281	259.95
667.692	318.46
668.103	323.14
668.514	302.08
668.925	304.42
669.336	358.25
669.747	281.01
670.158	344.21
670.569	327.82
670.979	288.03
671.39	271.65
671.801	281.01
672.211	302.08
672.622	299.73
673.032	391.02
673.443	281.01
673.853	295.05
674.263	318.46
674.674	369.95
675.084	306.76
675.494	360.59
675.904	316.12
676.314	327.82
676.724	264.63
677.134	283.35
677.544	283.35
677.953	339.52
678.363	290.37
678.773	379.31
679.182	295.05
679.592	304.42
680.001	309.1
680.411	271.65
680.82	372.29
681.23	245.9
681.639	297.39
682.048	327.82
682.457	351.23
682.866	330.16
683.275	281.01
683.684	264.63
684.093	276.33
684.502	367.61
684.911	285.69
685.32	281.01
685.728	318.46
686.137	283.35
686.546	295.05
686.954	306.76
687.363	313.78
687.771	234.2
688.179	318.46
688.588	302.08
688.996	273.99
689.404	292.71
689.812	266.97
690.22	323.14
690.628	299.73
691.036	243.56
691.444	337.18
691.852	245.9
692.26	325.48
692.667	318.46
693.075	355.91
693.483	332.5
693.89	327.82
694.298	311.44
694.705	332.5
695.112	309.1
695.52	292.71
695.927	346.55
696.334	290.37
696.741	273.99
697.148	281.01
697.555	346.55
697.962	295.05
698.369	276.33
698.776	337.18
699.183	309.1
699.59	276.33
699.996	283.35
700.403	311.44
700.81	313.78
701.216	299.73
701.623	269.31
702.029	323.14
702.435	295.05
702.842	316.12
703.248	351.23
703.654	297.39
704.06	278.67
704.466	306.76
704.872	264.63
705.278	269.31
705.684	288.03
706.09	288.03
706.496	231.86
706.901	206.11
707.307	302.08
707.712	306.76
708.118	273.99
708.523	334.84
708.929	295.05
709.334	304.42
709.74	297.39
710.145	313.78
710.55	330.16
710.955	297.39
711.36	376.97
711.765	306.76
712.17	353.57
712.575	295.05
712.98	746.78
713.385	341.86
713.789	320.8
714.194	213.14
714.599	259.95
715.003	348.89
715.408	372.29
715.812	299.73
716.217	330.16
716.621	362.93
717.025	323.14
717.429	311.44
717.833	285.69
718.238	337.18
718.642	353.57
719.046	353.57
719.449	309.1
719.853	316.12
720.257	290.37
720.661	283.35
721.065	306.76
721.468	234.2
721.872	278.67
722.275	295.05
722.679	234.2
723.082	288.03
723.485	248.24
723.889	288.03
724.292	278.67
724.695	309.1
725.098	316.12
725.501	213.14
725.904	273.99
726.307	297.39
726.71	332.5
727.113	283.35
727.516	320.8
727.918	323.14
728.321	306.76
728.724	325.48
729.126	337.18
729.529	238.88
729.931	297.39
730.333	325.48
730.736	320.8
731.138	313.78
731.54	269.31
731.942	325.48
732.344	288.03
732.746	318.46
733.148	269.31
733.55	302.08
733.952	269.31
734.354	353.57
734.756	332.5
735.157	297.39
735.559	285.69
735.96	259.95
736.362	302.08
736.763	297.39
737.165	292.71
737.566	273.99
737.967	273.99
738.368	285.69
738.77	250.58
739.171	271.65
739.572	271.65
739.973	276.33
740.374	325.48
740.774	330.16
741.175	304.42
741.576	337.18
741.977	306.76
742.377	283.35
742.778	309.1
743.178	316.12
743.579	299.73
743.979	241.22
744.379	341.86
744.78	238.88
745.18	273.99
745.58	351.23
745.98	273.99
746.38	297.39
746.78	292.71
747.18	299.73
747.58	302.08
747.98	257.61
748.38	348.89
748.779	266.97
749.179	262.29
749.578	323.14
749.978	297.39
750.377	290.37
750.777	292.71
751.176	299.73
751.575	306.76
751.975	353.57
752.374	304.42
752.773	262.29
753.172	323.14
753.571	217.82
753.97	273.99
754.369	297.39
754.768	262.29
755.166	339.52
755.565	327.82
755.964	341.86
756.362	292.71
756.761	290.37
757.159	313.78
757.558	271.65
757.956	302.08
758.354	337.18
758.753	285.69
759.151	269.31
759.549	299.73
759.947	281.01
760.345	346.55
760.743	273.99
761.141	283.35
761.539	262.29
761.936	257.61
762.334	299.73
762.732	266.97
763.129	351.23
763.527	313.78
763.924	259.95
764.322	309.1
764.719	302.08
