Data from Al_FLMS009871__869__16-14-59-728.txt Node

Date: Fri Mar 08 16:14:59 CST 2024
User: pe5414po
Spectrometer: FLMS00987
Trigger mode: 0
Integration Time (sec): 1.000000E-1
Scans to average: 1
Electric dark correction enabled: true
Nonlinearity correction enabled: false
Boxcar width: 0
XAxis mode: Wavelengths
Number of Pixels in Spectrum: 2048
>>>>>Begin Spectral Data<<<<<
188.938	-67.58
189.409	-67.58
189.879	-67.58
190.349	-90.99
190.819	-67.58
191.29	-30.13
191.76	-98.01
192.23	-98.01
192.7	-46.52
193.17	-114.39
193.64	-30.13
194.109	-34.82
194.579	-48.86
195.049	9.65
195.519	54.12
195.988	7.31
196.458	70.51
196.927	58.81
197.397	140.72
197.866	96.25
198.336	63.49
198.805	138.38
199.274	173.49
199.744	187.54
200.213	234.35
200.682	143.07
201.151	208.6
201.62	274.14
202.089	243.71
202.558	304.56
203.027	262.43
203.495	295.2
203.964	239.03
204.433	220.3
204.902	316.26
205.37	393.5
205.839	302.22
206.307	278.82
206.776	292.86
207.244	339.67
207.712	384.14
208.181	346.69
208.649	264.77
209.117	262.43
209.585	327.97
210.053	281.16
210.521	243.71
210.989	327.97
211.457	313.92
211.925	220.3
212.393	304.56
212.861	337.33
213.328	201.58
213.796	311.58
214.264	241.37
214.731	283.5
215.199	267.11
215.666	274.14
216.133	262.43
216.601	288.18
217.068	239.03
217.535	250.73
218.003	253.07
218.47	257.75
218.937	269.45
219.404	288.18
219.871	250.73
220.338	304.56
220.805	269.45
221.271	269.45
221.738	217.96
222.205	236.69
222.671	255.41
223.138	264.77
223.605	297.54
224.071	262.43
224.538	290.52
225.004	309.24
225.47	281.16
225.937	302.22
226.403	285.84
226.869	285.84
227.335	309.24
227.801	290.52
228.267	309.24
228.733	306.9
229.199	288.18
229.665	299.88
230.131	239.03
230.597	257.75
231.062	325.63
231.528	260.09
231.994	309.24
232.459	320.95
232.925	208.6
233.39	278.82
233.856	274.14
234.321	285.84
234.786	210.94
235.252	271.79
235.717	232.01
236.182	248.39
236.647	330.31
237.112	302.22
237.577	267.11
238.042	302.22
238.507	264.77
238.972	337.33
239.436	299.88
239.901	297.54
240.366	229.67
240.83	342.01
241.295	309.24
241.76	285.84
242.224	227.32
242.688	330.31
243.153	236.69
243.617	281.16
244.081	288.18
244.545	243.71
245.01	295.2
245.474	295.2
245.938	295.2
246.402	250.73
246.866	220.3
247.33	330.31
247.793	269.45
248.257	278.82
248.721	297.54
249.185	274.14
249.648	304.56
250.112	283.5
250.575	227.32
251.039	264.77
251.502	224.98
251.965	241.37
252.429	281.16
252.892	313.92
253.355	327.97
253.818	323.29
254.281	292.86
254.744	229.67
255.207	274.14
255.67	285.84
256.133	302.22
256.596	267.11
257.059	288.18
257.522	327.97
257.984	288.18
258.447	295.2
258.909	302.22
259.372	255.41
259.834	257.75
260.297	283.5
260.759	269.45
261.221	309.24
261.684	304.56
262.146	274.14
262.608	332.65
263.07	292.86
263.532	309.24
263.994	274.14
264.456	281.16
264.918	292.86
265.38	299.88
265.842	299.88
266.303	243.71
266.765	299.88
267.227	285.84
267.688	295.2
268.15	295.2
268.611	295.2
269.072	304.56
269.534	292.86
269.995	306.9
270.456	260.09
270.918	292.86
271.379	274.14
271.84	327.97
272.301	358.39
272.762	274.14
273.223	281.16
273.684	285.84
274.144	290.52
274.605	304.56
275.066	342.01
275.527	295.2
275.987	260.09
276.448	257.75
276.908	306.9
277.369	255.41
277.829	292.86
278.289	246.05
278.75	288.18
279.21	222.64
279.67	281.16
280.13	229.67
280.59	313.92
281.05	297.54
281.51	330.31
281.97	327.97
282.43	344.35
282.89	278.82
283.35	334.99
283.809	318.61
284.269	313.92
284.729	302.22
285.188	353.71
285.648	330.31
286.107	295.2
286.567	297.54
287.026	313.92
287.485	292.86
287.944	281.16
288.404	358.39
288.863	349.03
289.322	302.22
289.781	379.46
290.24	332.65
290.699	276.48
291.158	262.43
291.616	290.52
292.075	302.22
292.534	288.18
292.992	264.77
293.451	309.24
293.91	262.43
294.368	304.56
294.827	283.5
295.285	356.05
295.743	327.97
296.202	318.61
296.66	297.54
297.118	318.61
297.576	318.61
298.034	309.24
298.492	440.31
298.95	372.44
299.408	285.84
299.866	234.35
300.324	262.43
300.781	327.97
301.239	367.76
301.697	320.95
302.154	290.52
302.612	337.33
303.069	285.84
303.527	276.48
303.984	290.52
304.441	327.97
304.899	304.56
305.356	334.99
305.813	311.58
306.27	323.29
306.727	309.24
307.184	316.26
307.641	306.9
308.098	318.61
308.555	260.09
309.012	318.61
309.468	330.31
309.925	306.9
310.382	290.52
310.838	292.86
311.295	276.48
311.751	304.56
312.208	288.18
312.664	285.84
313.12	374.78
313.577	302.22
314.033	278.82
314.489	302.22
314.945	344.35
315.401	337.33
315.857	295.2
316.313	297.54
316.769	365.42
317.225	283.5
317.681	295.2
318.136	344.35
318.592	306.9
319.048	327.97
319.503	295.2
319.959	260.09
320.414	297.54
320.869	269.45
321.325	313.92
321.78	311.58
322.235	311.58
322.691	363.08
323.146	349.03
323.601	330.31
324.056	304.56
324.511	313.92
324.966	311.58
325.421	224.98
325.875	346.69
326.33	306.9
326.785	316.26
327.24	271.79
327.694	323.29
328.149	262.43
328.603	339.67
329.058	255.41
329.512	342.01
329.966	316.26
330.421	346.69
330.875	370.1
331.329	351.37
331.783	292.86
332.237	339.67
332.691	285.84
333.145	381.8
333.599	278.82
334.053	323.29
334.507	299.88
334.96	269.45
335.414	274.14
335.868	339.67
336.321	311.58
336.775	337.33
337.228	306.9
337.682	342.01
338.135	327.97
338.588	360.74
339.042	365.42
339.495	302.22
339.948	367.76
340.401	313.92
340.854	306.9
341.307	370.1
341.76	267.11
342.213	346.69
342.666	306.9
343.119	358.39
343.571	274.14
344.024	316.26
344.477	290.52
344.929	363.08
345.382	299.88
345.834	257.75
346.287	274.14
346.739	267.11
347.191	339.67
347.644	290.52
348.096	297.54
348.548	285.84
349	311.58
349.452	304.56
349.904	337.33
350.356	358.39
350.808	283.5
351.26	309.24
351.711	288.18
352.163	309.24
352.615	332.65
353.066	262.43
353.518	323.29
353.969	297.54
354.421	295.2
354.872	274.14
355.324	253.07
355.775	292.86
356.226	349.03
356.677	386.48
357.128	262.43
357.579	313.92
358.03	295.2
358.481	356.05
358.932	313.92
359.383	342.01
359.834	349.03
360.285	278.82
360.735	327.97
361.186	363.08
361.637	339.67
362.087	332.65
362.538	339.67
362.988	327.97
363.438	339.67
363.889	342.01
364.339	236.69
364.789	327.97
365.239	290.52
365.689	309.24
366.139	391.16
366.589	267.11
367.039	323.29
367.489	346.69
367.939	337.33
368.389	353.71
368.839	363.08
369.288	288.18
369.738	304.56
370.187	342.01
370.637	349.03
371.086	283.5
371.536	330.31
371.985	302.22
372.434	302.22
372.884	332.65
373.333	271.79
373.782	393.5
374.231	332.65
374.68	285.84
375.129	320.95
375.578	220.3
376.027	299.88
376.475	292.86
376.924	246.05
377.373	346.69
377.822	302.22
378.27	267.11
378.719	299.88
379.167	290.52
379.616	304.56
380.064	285.84
380.512	302.22
380.961	374.78
381.409	309.24
381.857	278.82
382.305	269.45
382.753	374.78
383.201	342.01
383.649	267.11
384.097	316.26
384.545	311.58
384.992	295.2
385.44	372.44
385.888	283.5
386.335	353.71
386.783	253.07
387.231	297.54
387.678	269.45
388.125	356.05
388.573	363.08
389.02	267.11
389.467	297.54
389.914	302.22
390.362	323.29
390.809	320.95
391.256	320.95
391.703	283.5
392.15	271.79
392.596	316.26
393.043	332.65
393.49	323.29
393.937	253.07
394.383	299.88
394.83	344.35
395.276	306.9
395.723	325.63
396.169	295.2
396.616	327.97
397.062	311.58
397.508	278.82
397.954	353.71
398.401	278.82
398.847	295.2
399.293	271.79
399.739	330.31
400.185	372.44
400.631	292.86
401.076	306.9
401.522	449.68
401.968	295.2
402.414	274.14
402.859	327.97
403.305	349.03
403.75	290.52
404.196	395.84
404.641	313.92
405.086	262.43
405.532	384.14
405.977	360.74
406.422	356.05
406.867	292.86
407.312	332.65
407.757	365.42
408.202	358.39
408.647	351.37
409.092	327.97
409.537	255.41
409.982	323.29
410.426	257.75
410.871	330.31
411.316	356.05
411.76	318.61
412.205	311.58
412.649	353.71
413.093	318.61
413.538	313.92
413.982	295.2
414.426	309.24
414.87	316.26
415.314	304.56
415.758	297.54
416.202	372.44
416.646	276.48
417.09	278.82
417.534	306.9
417.978	278.82
418.421	344.35
418.865	381.8
419.309	363.08
419.752	381.8
420.196	302.22
420.639	353.71
421.083	311.58
421.526	292.86
421.969	269.45
422.412	346.69
422.856	344.35
423.299	337.33
423.742	276.48
424.185	278.82
424.628	304.56
425.071	306.9
425.513	327.97
425.956	334.99
426.399	363.08
426.842	353.71
427.284	316.26
427.727	313.92
428.169	363.08
428.612	334.99
429.054	306.9
429.497	334.99
429.939	339.67
430.381	344.35
430.823	292.86
431.265	409.89
431.707	334.99
432.149	360.74
432.591	339.67
433.033	365.42
433.475	302.22
433.917	297.54
434.359	283.5
434.8	332.65
435.242	262.43
435.684	342.01
436.125	278.82
436.567	271.79
437.008	334.99
437.449	332.65
437.891	306.9
438.332	334.99
438.773	360.74
439.214	316.26
439.656	264.77
440.097	325.63
440.538	339.67
440.978	311.58
441.419	297.54
441.86	356.05
442.301	311.58
442.742	318.61
443.182	346.69
443.623	255.41
444.063	323.29
444.504	309.24
444.944	327.97
445.385	346.69
445.825	285.84
446.265	250.73
446.706	332.65
447.146	370.1
447.586	327.97
448.026	316.26
448.466	297.54
448.906	363.08
449.346	349.03
449.786	323.29
450.225	358.39
450.665	344.35
451.105	269.45
451.544	323.29
451.984	316.26
452.424	318.61
452.863	353.71
453.302	288.18
453.742	311.58
454.181	316.26
454.62	360.74
455.059	320.95
455.499	367.76
455.938	337.33
456.377	349.03
456.816	325.63
457.254	318.61
457.693	351.37
458.132	370.1
458.571	318.61
459.01	320.95
459.448	332.65
459.887	320.95
460.325	292.86
460.764	304.56
461.202	337.33
461.641	297.54
462.079	374.78
462.517	332.65
462.955	316.26
463.393	313.92
463.832	278.82
464.27	360.74
464.708	325.63
465.145	292.86
465.583	274.14
466.021	297.54
466.459	330.31
466.897	250.73
467.334	215.62
467.772	342.01
468.209	297.54
468.647	337.33
469.084	334.99
469.522	360.74
469.959	260.09
470.396	363.08
470.833	323.29
471.271	283.5
471.708	292.86
472.145	311.58
472.582	344.35
473.019	330.31
473.456	285.84
473.892	285.84
474.329	313.92
474.766	320.95
475.202	318.61
475.639	344.35
476.076	325.63
476.512	330.31
476.949	243.71
477.385	290.52
477.821	344.35
478.258	353.71
478.694	304.56
479.13	267.11
479.566	346.69
480.002	334.99
480.438	297.54
480.874	358.39
481.31	292.86
481.746	327.97
482.181	320.95
482.617	260.09
483.053	393.5
483.488	267.11
483.924	309.24
484.36	365.42
484.795	274.14
485.23	351.37
485.666	349.03
486.101	276.48
486.536	309.24
486.971	281.16
487.407	395.84
487.842	318.61
488.277	320.95
488.712	285.84
489.146	327.97
489.581	342.01
490.016	304.56
490.451	313.92
490.885	292.86
491.32	299.88
491.755	344.35
492.189	349.03
492.624	353.71
493.058	271.79
493.492	318.61
493.927	334.99
494.361	337.33
494.795	367.76
495.229	295.2
495.663	262.43
496.097	349.03
496.531	342.01
496.965	430.95
497.399	363.08
497.833	323.29
498.266	346.69
498.7	363.08
499.134	299.88
499.567	325.63
500.001	274.14
500.434	318.61
500.868	311.58
501.301	370.1
501.734	278.82
502.168	337.33
502.601	365.42
503.034	360.74
503.467	363.08
503.9	372.44
504.333	342.01
504.766	295.2
505.199	297.54
505.632	334.99
506.064	372.44
506.497	344.35
506.93	358.39
507.362	278.82
507.795	306.9
508.227	306.9
508.66	320.95
509.092	327.97
509.524	339.67
509.956	297.54
510.389	302.22
510.821	356.05
511.253	271.79
511.685	351.37
512.117	283.5
512.549	323.29
512.981	309.24
513.412	290.52
513.844	325.63
514.276	379.46
514.707	334.99
515.139	351.37
515.571	332.65
516.002	316.26
516.433	302.22
516.865	334.99
517.296	297.54
517.727	274.14
518.159	311.58
518.59	365.42
519.021	320.95
519.452	320.95
519.883	304.56
520.314	323.29
520.744	327.97
521.175	374.78
521.606	295.2
522.037	320.95
522.467	349.03
522.898	332.65
523.328	332.65
523.759	302.22
524.189	271.79
524.62	332.65
525.05	372.44
525.48	306.9
525.91	327.97
526.341	351.37
526.771	297.54
527.201	297.54
527.631	274.14
528.061	374.78
528.49	316.26
528.92	344.35
529.35	330.31
529.78	253.07
530.209	360.74
530.639	311.58
531.068	353.71
531.498	285.84
531.927	332.65
532.357	297.54
532.786	402.86
533.215	306.9
533.644	320.95
534.074	316.26
534.503	386.48
534.932	299.88
535.361	302.22
535.79	267.11
536.218	334.99
536.647	365.42
537.076	299.88
537.505	262.43
537.933	316.26
538.362	349.03
538.79	323.29
539.219	309.24
539.647	332.65
540.076	297.54
540.504	309.24
540.932	306.9
541.36	327.97
541.788	297.54
542.217	330.31
542.645	257.75
543.073	358.39
543.5	327.97
543.928	311.58
544.356	323.29
544.784	339.67
545.211	309.24
545.639	318.61
546.067	360.74
546.494	349.03
546.922	365.42
547.349	327.97
547.776	295.2
548.204	320.95
548.631	299.88
549.058	356.05
549.485	313.92
549.912	325.63
550.339	304.56
550.766	356.05
551.193	281.16
551.62	358.39
552.047	292.86
552.474	358.39
552.9	342.01
553.327	365.42
553.754	290.52
554.18	304.56
554.607	388.82
555.033	349.03
555.459	384.14
555.886	285.84
556.312	353.71
556.738	311.58
557.164	337.33
557.59	332.65
558.016	353.71
558.442	330.31
558.868	281.16
559.294	337.33
559.72	330.31
560.145	292.86
560.571	309.24
560.997	337.33
561.422	295.2
561.848	276.48
562.273	374.78
562.699	304.56
563.124	398.18
563.549	344.35
563.974	358.39
564.4	267.11
564.825	302.22
565.25	316.26
565.675	386.48
566.1	313.92
566.525	320.95
566.95	304.56
567.374	283.5
567.799	323.29
568.224	283.5
568.648	346.69
569.073	325.63
569.497	323.29
569.922	334.99
570.346	257.75
570.771	318.61
571.195	349.03
571.619	316.26
572.043	363.08
572.467	297.54
572.891	327.97
573.315	271.79
573.739	306.9
574.163	302.22
574.587	246.05
575.011	318.61
575.435	290.52
575.858	395.84
576.282	356.05
576.705	346.69
577.129	290.52
577.552	318.61
577.976	313.92
578.399	304.56
578.822	374.78
579.245	356.05
579.669	313.92
580.092	339.67
580.515	302.22
580.938	342.01
581.361	356.05
581.784	274.14
582.206	318.61
582.629	356.05
583.052	381.8
583.474	304.56
583.897	285.84
584.32	309.24
584.742	351.37
585.165	316.26
585.587	297.54
586.009	316.26
586.431	370.1
586.854	363.08
587.276	320.95
587.698	302.22
588.12	288.18
588.542	320.95
588.964	278.82
589.386	267.11
589.807	342.01
590.229	316.26
590.651	323.29
591.073	297.54
591.494	283.5
591.916	372.44
592.337	283.5
592.759	283.5
593.18	349.03
593.601	309.24
594.022	334.99
594.444	360.74
594.865	346.69
595.286	285.84
595.707	323.29
596.128	363.08
596.549	320.95
596.97	327.97
597.39	334.99
597.811	269.45
598.232	292.86
598.652	295.2
599.073	318.61
599.494	334.99
599.914	306.9
600.334	295.2
600.755	311.58
601.175	285.84
601.595	330.31
602.015	306.9
602.436	264.77
602.856	454.36
603.276	330.31
603.696	346.69
604.115	288.18
604.535	323.29
604.955	372.44
605.375	365.42
605.794	281.16
606.214	320.95
606.634	334.99
607.053	349.03
607.473	276.48
607.892	295.2
608.311	337.33
608.731	311.58
609.15	342.01
609.569	320.95
609.988	330.31
610.407	304.56
610.826	271.79
611.245	358.39
611.664	337.33
612.083	318.61
612.501	349.03
612.92	342.01
613.339	323.29
613.757	281.16
614.176	281.16
614.594	412.23
615.013	311.58
615.431	320.95
615.85	299.88
616.268	342.01
616.686	337.33
617.104	304.56
617.522	342.01
617.94	327.97
618.358	344.35
618.776	257.75
619.194	353.71
619.612	344.35
620.03	257.75
620.447	409.89
620.865	330.31
621.282	372.44
621.7	344.35
622.117	339.67
622.535	339.67
622.952	323.29
623.369	246.05
623.787	302.22
624.204	313.92
624.621	313.92
625.038	353.71
625.455	290.52
625.872	248.39
626.289	302.22
626.706	334.99
627.123	353.71
627.539	295.2
627.956	334.99
628.373	281.16
628.789	278.82
629.206	344.35
629.622	325.63
630.038	311.58
630.455	304.56
630.871	353.71
631.287	297.54
631.703	414.57
632.12	304.56
632.536	334.99
632.952	316.26
633.368	363.08
633.783	327.97
634.199	330.31
634.615	330.31
635.031	297.54
635.446	367.76
635.862	299.88
636.277	295.2
636.693	356.05
637.108	325.63
637.524	299.88
637.939	332.65
638.354	316.26
638.77	253.07
639.185	339.67
639.6	323.29
640.015	297.54
640.43	302.22
640.845	393.5
641.259	276.48
641.674	316.26
642.089	292.86
642.504	370.1
642.918	290.52
643.333	339.67
643.747	320.95
644.162	271.79
644.576	372.44
644.991	370.1
645.405	313.92
645.819	295.2
646.233	290.52
646.647	349.03
647.061	349.03
647.475	325.63
647.889	288.18
648.303	327.97
648.717	313.92
649.131	253.07
649.545	344.35
649.958	339.67
650.372	295.2
650.785	339.67
651.199	276.48
651.612	306.9
652.026	346.69
652.439	288.18
652.852	290.52
653.266	363.08
653.679	320.95
654.092	318.61
654.505	367.76
654.918	379.46
655.331	320.95
655.744	337.33
656.156	309.24
656.569	299.88
656.982	236.69
657.394	295.2
657.807	342.01
658.22	271.79
658.632	356.05
659.044	281.16
659.457	330.31
659.869	358.39
660.281	281.16
660.693	267.11
661.106	370.1
661.518	276.48
661.93	337.33
662.342	365.42
662.754	339.67
663.165	316.26
663.577	302.22
663.989	356.05
664.401	285.84
664.812	267.11
665.224	274.14
665.635	323.29
666.047	285.84
666.458	283.5
666.869	302.22
667.281	332.65
667.692	339.67
668.103	339.67
668.514	379.46
668.925	313.92
669.336	344.35
669.747	327.97
670.158	234.35
670.569	302.22
670.979	339.67
671.39	330.31
671.801	290.52
672.211	262.43
672.622	323.29
673.032	285.84
673.443	239.03
673.853	262.43
674.263	351.37
674.674	316.26
675.084	288.18
675.494	316.26
675.904	327.97
676.314	363.08
676.724	381.8
677.134	353.71
677.544	334.99
677.953	309.24
678.363	274.14
678.773	358.39
679.182	311.58
679.592	367.76
680.001	248.39
680.411	351.37
680.82	304.56
681.23	332.65
681.639	290.52
682.048	311.58
682.457	320.95
682.866	330.31
683.275	325.63
683.684	267.11
684.093	309.24
684.502	342.01
684.911	271.79
685.32	372.44
685.728	363.08
686.137	281.16
686.546	325.63
686.954	327.97
687.363	283.5
687.771	349.03
688.179	285.84
688.588	278.82
688.996	309.24
689.404	309.24
689.812	290.52
690.22	269.45
690.628	274.14
691.036	299.88
691.444	356.05
691.852	313.92
692.26	246.05
692.667	337.33
693.075	342.01
693.483	332.65
693.89	320.95
694.298	299.88
694.705	332.65
695.112	344.35
695.52	344.35
695.927	290.52
696.334	295.2
696.741	283.5
697.148	283.5
697.555	320.95
697.962	332.65
698.369	236.69
698.776	337.33
699.183	262.43
699.59	276.48
699.996	316.26
700.403	337.33
700.81	327.97
701.216	332.65
701.623	241.37
702.029	344.35
702.435	346.69
702.842	323.29
703.248	311.58
703.654	316.26
704.06	302.22
704.466	384.14
704.872	283.5
705.278	332.65
705.684	320.95
706.09	295.2
706.496	337.33
706.901	309.24
707.307	316.26
707.712	295.2
708.118	311.58
708.523	337.33
708.929	337.33
709.334	372.44
709.74	349.03
710.145	313.92
710.55	384.14
710.955	318.61
711.36	302.22
711.765	351.37
712.17	330.31
712.575	299.88
712.98	824.16
713.385	426.27
713.789	311.58
714.194	318.61
714.599	342.01
715.003	290.52
715.408	311.58
715.812	313.92
716.217	351.37
716.621	349.03
717.025	370.1
717.429	337.33
717.833	302.22
718.238	377.12
718.642	248.39
719.046	283.5
719.449	271.79
719.853	332.65
720.257	384.14
720.661	311.58
721.065	323.29
721.468	351.37
721.872	320.95
722.275	327.97
722.679	304.56
723.082	306.9
723.485	344.35
723.889	304.56
724.292	304.56
724.695	306.9
725.098	264.77
725.501	344.35
725.904	344.35
726.307	367.76
726.71	297.54
727.113	318.61
727.516	405.21
727.918	297.54
728.321	342.01
728.724	278.82
729.126	313.92
729.529	351.37
729.931	306.9
730.333	367.76
730.736	316.26
731.138	330.31
731.54	288.18
731.942	311.58
732.344	346.69
732.746	363.08
733.148	388.82
733.55	381.8
733.952	346.69
734.354	370.1
734.756	278.82
735.157	334.99
735.559	372.44
735.96	299.88
736.362	372.44
736.763	325.63
737.165	255.41
737.566	367.76
737.967	332.65
738.368	297.54
738.77	325.63
739.171	290.52
739.572	304.56
739.973	246.05
740.374	330.31
740.774	320.95
741.175	313.92
741.576	306.9
741.977	309.24
742.377	337.33
742.778	271.79
743.178	325.63
743.579	363.08
743.979	271.79
744.379	276.48
744.78	318.61
745.18	372.44
745.58	316.26
745.98	276.48
746.38	349.03
746.78	351.37
747.18	320.95
747.58	320.95
747.98	320.95
748.38	332.65
748.779	302.22
749.179	295.2
749.578	346.69
749.978	309.24
750.377	330.31
750.777	323.29
751.176	349.03
751.575	337.33
751.975	327.97
752.374	337.33
752.773	316.26
753.172	239.03
753.571	309.24
753.97	356.05
754.369	285.84
754.768	255.41
755.166	367.76
755.565	416.91
755.964	271.79
756.362	325.63
756.761	299.88
757.159	271.79
757.558	306.9
757.956	365.42
758.354	358.39
758.753	342.01
759.151	327.97
759.549	367.76
759.947	351.37
760.345	313.92
760.743	349.03
761.141	388.82
761.539	356.05
761.936	358.39
762.334	353.71
762.732	346.69
763.129	334.99
763.527	360.74
763.924	370.1
764.322	278.82
764.719	379.46
