Data from Al_FLMS009871__870__16-14-59-828.txt Node

Date: Fri Mar 08 16:14:59 CST 2024
User: pe5414po
Spectrometer: FLMS00987
Trigger mode: 0
Integration Time (sec): 1.000000E-1
Scans to average: 1
Electric dark correction enabled: true
Nonlinearity correction enabled: false
Boxcar width: 0
XAxis mode: Wavelengths
Number of Pixels in Spectrum: 2048
>>>>>Begin Spectral Data<<<<<
188.938	-29.7
189.409	-29.7
189.879	-29.7
190.349	-78.85
190.819	-123.32
191.29	-99.91
191.76	-92.89
192.23	-102.25
192.7	-78.85
193.17	-132.68
193.64	28.82
194.109	-57.78
194.579	-6.29
195.049	33.5
195.519	-10.97
195.988	63.93
196.458	68.61
196.927	33.5
197.397	66.27
197.866	138.82
198.336	148.19
198.805	117.76
199.274	159.89
199.744	227.76
200.213	213.72
200.682	232.44
201.151	225.42
201.62	227.76
202.089	253.51
202.558	255.85
203.027	302.66
203.495	302.66
203.964	314.36
204.433	279.26
204.902	309.68
205.37	319.04
205.839	286.28
206.307	347.13
206.776	396.28
207.244	251.17
207.712	302.66
208.181	309.68
208.649	288.62
209.117	337.77
209.585	255.85
210.053	253.51
210.521	391.6
210.989	283.94
211.457	363.51
211.925	262.87
212.393	377.56
212.861	372.88
213.328	351.81
213.796	326.07
214.264	293.3
214.731	272.23
215.199	307.34
215.666	300.32
216.133	269.89
216.601	276.91
217.068	288.62
217.535	288.62
218.003	213.72
218.47	269.89
218.937	220.74
219.404	232.44
219.871	288.62
220.338	246.49
220.805	246.49
221.271	239.47
221.738	302.66
222.205	349.47
222.671	295.64
223.138	295.64
223.605	281.6
224.071	356.49
224.538	272.23
225.004	290.96
225.47	248.83
225.937	251.17
226.403	246.49
226.869	288.62
227.335	302.66
227.801	314.36
228.267	335.43
228.733	276.91
229.199	260.53
229.665	295.64
230.131	258.19
230.597	255.85
231.062	328.41
231.528	354.15
231.994	239.47
232.459	286.28
232.925	248.83
233.39	255.85
233.856	251.17
234.321	319.04
234.786	290.96
235.252	248.83
235.717	347.13
236.182	312.02
236.647	232.44
237.112	344.79
237.577	300.32
238.042	340.11
238.507	267.55
238.972	321.38
239.436	260.53
239.901	297.98
240.366	305
240.83	281.6
241.295	290.96
241.76	297.98
242.224	302.66
242.688	309.68
243.153	288.62
243.617	283.94
244.081	297.98
244.545	356.49
245.01	297.98
245.474	326.07
245.938	286.28
246.402	335.43
246.866	288.62
247.33	330.75
247.793	260.53
248.257	309.68
248.721	307.34
249.185	307.34
249.648	290.96
250.112	288.62
250.575	255.85
251.039	265.21
251.502	283.94
251.965	307.34
252.429	288.62
252.892	314.36
253.355	351.81
253.818	314.36
254.281	330.75
254.744	255.85
255.207	262.87
255.67	314.36
256.133	309.68
256.596	267.55
257.059	342.45
257.522	330.75
257.984	248.83
258.447	283.94
258.909	347.13
259.372	211.38
259.834	295.64
260.297	323.73
260.759	290.96
261.221	335.43
261.684	290.96
262.146	272.23
262.608	384.58
263.07	283.94
263.532	232.44
263.994	288.62
264.456	302.66
264.918	312.02
265.38	272.23
265.842	330.75
266.303	279.26
266.765	272.23
267.227	295.64
267.688	344.79
268.15	370.54
268.611	302.66
269.072	288.62
269.534	323.73
269.995	321.38
270.456	393.94
270.918	244.15
271.379	344.79
271.84	309.68
272.301	295.64
272.762	293.3
273.223	316.7
273.684	340.11
274.144	349.47
274.605	351.81
275.066	319.04
275.527	265.21
275.987	276.91
276.448	375.22
276.908	351.81
277.369	377.56
277.829	305
278.289	290.96
278.75	349.47
279.21	267.55
279.67	323.73
280.13	286.28
280.59	283.94
281.05	328.41
281.51	309.68
281.97	295.64
282.43	319.04
282.89	290.96
283.35	377.56
283.809	283.94
284.269	342.45
284.729	297.98
285.188	279.26
285.648	351.81
286.107	305
286.567	314.36
287.026	368.2
287.485	265.21
287.944	337.77
288.404	347.13
288.863	276.91
289.322	305
289.781	319.04
290.24	265.21
290.699	283.94
291.158	300.32
291.616	337.77
292.075	330.75
292.534	258.19
292.992	305
293.451	330.75
293.91	326.07
294.368	309.68
294.827	272.23
295.285	272.23
295.743	295.64
296.202	316.7
296.66	344.79
297.118	321.38
297.576	302.66
298.034	309.68
298.492	344.79
298.95	302.66
299.408	319.04
299.866	276.91
300.324	283.94
300.781	321.38
301.239	314.36
301.697	279.26
302.154	323.73
302.612	319.04
303.069	328.41
303.527	333.09
303.984	326.07
304.441	375.22
304.899	288.62
305.356	349.47
305.813	337.77
306.27	340.11
306.727	293.3
307.184	312.02
307.641	253.51
308.098	265.21
308.555	319.04
309.012	323.73
309.468	333.09
309.925	297.98
310.382	351.81
310.838	344.79
311.295	314.36
311.751	281.6
312.208	312.02
312.664	300.32
313.12	274.57
313.577	323.73
314.033	293.3
314.489	314.36
314.945	344.79
315.401	253.51
315.857	295.64
316.313	262.87
316.769	276.91
317.225	288.62
317.681	269.89
318.136	342.45
318.592	307.34
319.048	309.68
319.503	312.02
319.959	340.11
320.414	305
320.869	307.34
321.325	279.26
321.78	300.32
322.235	300.32
322.691	309.68
323.146	307.34
323.601	293.3
324.056	279.26
324.511	302.66
324.966	344.79
325.421	316.7
325.875	286.28
326.33	396.28
326.785	225.42
327.24	316.7
327.694	330.75
328.149	276.91
328.603	323.73
329.058	283.94
329.512	246.49
329.966	281.6
330.421	347.13
330.875	328.41
331.329	384.58
331.783	300.32
332.237	340.11
332.691	312.02
333.145	340.11
333.599	297.98
334.053	330.75
334.507	328.41
334.96	365.85
335.414	323.73
335.868	302.66
336.321	365.85
336.775	227.76
337.228	354.15
337.682	295.64
338.135	365.85
338.588	288.62
339.042	333.09
339.495	321.38
339.948	365.85
340.401	297.98
340.854	335.43
341.307	351.81
341.76	314.36
342.213	297.98
342.666	400.96
343.119	307.34
343.571	272.23
344.024	342.45
344.477	400.96
344.929	321.38
345.382	340.11
345.834	307.34
346.287	258.19
346.739	302.66
347.191	347.13
347.644	300.32
348.096	288.62
348.548	351.81
349	286.28
349.452	382.24
349.904	312.02
350.356	279.26
350.808	300.32
351.26	356.49
351.711	344.79
352.163	333.09
352.615	279.26
353.066	363.51
353.518	246.49
353.969	354.15
354.421	286.28
354.872	260.53
355.324	386.92
355.775	351.81
356.226	274.57
356.677	342.45
357.128	368.2
357.579	347.13
358.03	309.68
358.481	300.32
358.932	272.23
359.383	239.47
359.834	312.02
360.285	326.07
360.735	340.11
361.186	297.98
361.637	389.26
362.087	328.41
362.538	340.11
362.988	323.73
363.438	330.75
363.889	305
364.339	344.79
364.789	300.32
365.239	328.41
365.689	333.09
366.139	319.04
366.589	293.3
367.039	237.13
367.489	344.79
367.939	300.32
368.389	382.24
368.839	389.26
369.288	319.04
369.738	335.43
370.187	302.66
370.637	386.92
371.086	281.6
371.536	288.62
371.985	288.62
372.434	347.13
372.884	323.73
373.333	269.89
373.782	312.02
374.231	335.43
374.68	307.34
375.129	337.77
375.578	326.07
376.027	333.09
376.475	335.43
376.924	377.56
377.373	340.11
377.822	297.98
378.27	328.41
378.719	335.43
379.167	361.17
379.616	314.36
380.064	368.2
380.512	297.98
380.961	358.83
381.409	300.32
381.857	309.68
382.305	276.91
382.753	279.26
383.201	305
383.649	354.15
384.097	354.15
384.545	333.09
384.992	344.79
385.44	305
385.888	344.79
386.335	321.38
386.783	365.85
387.231	368.2
387.678	323.73
388.125	279.26
388.573	356.49
389.02	354.15
389.467	328.41
389.914	356.49
390.362	335.43
390.809	340.11
391.256	354.15
391.703	321.38
392.15	302.66
392.596	377.56
393.043	365.85
393.49	335.43
393.937	342.45
394.383	323.73
394.83	342.45
395.276	372.88
395.723	326.07
396.169	356.49
396.616	319.04
397.062	300.32
397.508	312.02
397.954	312.02
398.401	363.51
398.847	326.07
399.293	349.47
399.739	305
400.185	323.73
400.631	288.62
401.076	293.3
401.522	290.96
401.968	333.09
402.414	309.68
402.859	288.62
403.305	300.32
403.75	349.47
404.196	365.85
404.641	297.98
405.086	307.34
405.532	326.07
405.977	281.6
406.422	368.2
406.867	340.11
407.312	354.15
407.757	335.43
408.202	340.11
408.647	337.77
409.092	314.36
409.537	288.62
409.982	363.51
410.426	356.49
410.871	312.02
411.316	384.58
411.76	307.34
412.205	400.96
412.649	321.38
413.093	328.41
413.538	354.15
413.982	377.56
414.426	274.57
414.87	328.41
415.314	330.75
415.758	312.02
416.202	290.96
416.646	337.77
417.09	283.94
417.534	328.41
417.978	323.73
418.421	312.02
418.865	354.15
419.309	272.23
419.752	302.66
420.196	300.32
420.639	384.58
421.083	340.11
421.526	321.38
421.969	365.85
422.412	307.34
422.856	368.2
423.299	342.45
423.742	314.36
424.185	344.79
424.628	312.02
425.071	342.45
425.513	351.81
425.956	379.9
426.399	391.6
426.842	323.73
427.284	267.55
427.727	403.3
428.169	305
428.612	358.83
429.054	300.32
429.497	295.64
429.939	312.02
430.381	314.36
430.823	295.64
431.265	382.24
431.707	333.09
432.149	244.15
432.591	323.73
433.033	356.49
433.475	326.07
433.917	300.32
434.359	312.02
434.8	305
435.242	410.33
435.684	415.01
436.125	316.7
436.567	305
437.008	305
437.449	321.38
437.891	342.45
438.332	358.83
438.773	276.91
439.214	314.36
439.656	342.45
440.097	356.49
440.538	342.45
440.978	337.77
441.419	305
441.86	337.77
442.301	354.15
442.742	309.68
443.182	349.47
443.623	290.96
444.063	316.7
444.504	297.98
444.944	377.56
445.385	305
445.825	335.43
446.265	297.98
446.706	340.11
447.146	347.13
447.586	323.73
448.026	293.3
448.466	274.57
448.906	361.17
449.346	312.02
449.786	356.49
450.225	305
450.665	337.77
451.105	347.13
451.544	253.51
451.984	321.38
452.424	328.41
452.863	344.79
453.302	358.83
453.742	368.2
454.181	300.32
454.62	316.7
455.059	316.7
455.499	305
455.938	393.94
456.377	321.38
456.816	349.47
457.254	335.43
457.693	323.73
458.132	316.7
458.571	389.26
459.01	333.09
459.448	297.98
459.887	323.73
460.325	269.89
460.764	333.09
461.202	300.32
461.641	400.96
462.079	314.36
462.517	330.75
462.955	333.09
463.393	372.88
463.832	368.2
464.27	347.13
464.708	290.96
465.145	309.68
465.583	358.83
466.021	393.94
466.459	349.47
466.897	312.02
467.334	246.49
467.772	365.85
468.209	382.24
468.647	351.81
469.084	314.36
469.522	333.09
469.959	354.15
470.396	335.43
470.833	309.68
471.271	342.45
471.708	351.81
472.145	326.07
472.582	363.51
473.019	316.7
473.456	379.9
473.892	337.77
474.329	293.3
474.766	391.6
475.202	297.98
475.639	267.55
476.076	307.34
476.512	379.9
476.949	307.34
477.385	316.7
477.821	337.77
478.258	283.94
478.694	365.85
479.13	335.43
479.566	363.51
480.002	297.98
480.438	337.77
480.874	316.7
481.31	279.26
481.746	330.75
482.181	344.79
482.617	363.51
483.053	372.88
483.488	340.11
483.924	375.22
484.36	335.43
484.795	312.02
485.23	302.66
485.666	305
486.101	307.34
486.536	297.98
486.971	333.09
487.407	328.41
487.842	384.58
488.277	405.64
488.712	330.75
489.146	356.49
489.581	340.11
490.016	321.38
490.451	267.55
490.885	314.36
491.32	316.7
491.755	276.91
492.189	314.36
492.624	300.32
493.058	347.13
493.492	340.11
493.927	314.36
494.361	305
494.795	288.62
495.229	316.7
495.663	337.77
496.097	309.68
496.531	276.91
496.965	321.38
497.399	321.38
497.833	340.11
498.266	269.89
498.7	361.17
499.134	342.45
499.567	286.28
500.001	309.68
500.434	358.83
500.868	319.04
501.301	351.81
501.734	398.62
502.168	293.3
502.601	281.6
503.034	358.83
503.467	281.6
503.9	347.13
504.333	337.77
504.766	297.98
505.199	337.77
505.632	312.02
506.064	363.51
506.497	382.24
506.93	382.24
507.362	340.11
507.795	375.22
508.227	246.49
508.66	274.57
509.092	344.79
509.524	356.49
509.956	321.38
510.389	356.49
510.821	300.32
511.253	312.02
511.685	316.7
512.117	319.04
512.549	302.66
512.981	335.43
513.412	333.09
513.844	260.53
514.276	358.83
514.707	276.91
515.139	354.15
515.571	305
516.002	368.2
516.433	384.58
516.865	403.3
517.296	330.75
517.727	281.6
518.159	361.17
518.59	312.02
519.021	326.07
519.452	370.54
519.883	368.2
520.314	351.81
520.744	295.64
521.175	377.56
521.606	314.36
522.037	295.64
522.467	361.17
522.898	290.96
523.328	356.49
523.759	337.77
524.189	295.64
524.62	361.17
525.05	283.94
525.48	386.92
525.91	330.75
526.341	347.13
526.771	323.73
527.201	361.17
527.631	281.6
528.061	295.64
528.49	340.11
528.92	333.09
529.35	361.17
529.78	335.43
530.209	323.73
530.639	314.36
531.068	295.64
531.498	286.28
531.927	377.56
532.357	300.32
532.786	262.87
533.215	244.15
533.644	281.6
534.074	319.04
534.503	288.62
534.932	302.66
535.361	265.21
535.79	354.15
536.218	368.2
536.647	330.75
537.076	314.36
537.505	323.73
537.933	368.2
538.362	328.41
538.79	333.09
539.219	290.96
539.647	351.81
540.076	379.9
540.504	326.07
540.932	379.9
541.36	358.83
541.788	319.04
542.217	384.58
542.645	326.07
543.073	333.09
543.5	323.73
543.928	330.75
544.356	335.43
544.784	269.89
545.211	314.36
545.639	286.28
546.067	267.55
546.494	391.6
546.922	358.83
547.349	295.64
547.776	365.85
548.204	389.26
548.631	344.79
549.058	300.32
549.485	342.45
549.912	283.94
550.339	323.73
550.766	340.11
551.193	321.38
551.62	328.41
552.047	384.58
552.474	365.85
552.9	365.85
553.327	337.77
553.754	363.51
554.18	297.98
554.607	330.75
555.033	307.34
555.459	316.7
555.886	251.17
556.312	396.28
556.738	342.45
557.164	293.3
557.59	302.66
558.016	391.6
558.442	305
558.868	295.64
559.294	337.77
559.72	300.32
560.145	340.11
560.571	361.17
560.997	272.23
561.422	354.15
561.848	279.26
562.273	286.28
562.699	323.73
563.124	349.47
563.549	349.47
563.974	297.98
564.4	286.28
564.825	323.73
565.25	272.23
565.675	300.32
566.1	288.62
566.525	281.6
566.95	323.73
567.374	288.62
567.799	302.66
568.224	368.2
568.648	321.38
569.073	347.13
569.497	321.38
569.922	337.77
570.346	276.91
570.771	356.49
571.195	297.98
571.619	244.15
572.043	316.7
572.467	356.49
572.891	330.75
573.315	429.05
573.739	349.47
574.163	349.47
574.587	340.11
575.011	356.49
575.435	307.34
575.858	426.71
576.282	290.96
576.705	389.26
577.129	354.15
577.552	330.75
577.976	375.22
578.399	344.79
578.822	389.26
579.245	326.07
579.669	309.68
580.092	316.7
580.515	330.75
580.938	375.22
581.361	368.2
581.784	377.56
582.206	288.62
582.629	342.45
583.052	363.51
583.474	267.55
583.897	272.23
584.32	335.43
584.742	356.49
585.165	255.85
585.587	314.36
586.009	354.15
586.431	307.34
586.854	307.34
587.276	281.6
587.698	361.17
588.12	349.47
588.542	330.75
588.964	265.21
589.386	335.43
589.807	337.77
590.229	314.36
590.651	328.41
591.073	286.28
591.494	302.66
591.916	330.75
592.337	309.68
592.759	288.62
593.18	309.68
593.601	314.36
594.022	384.58
594.444	335.43
594.865	344.79
595.286	265.21
595.707	300.32
596.128	335.43
596.549	349.47
596.97	354.15
597.39	328.41
597.811	316.7
598.232	312.02
598.652	347.13
599.073	316.7
599.494	358.83
599.914	321.38
600.334	365.85
600.755	293.3
601.175	335.43
601.595	347.13
602.015	309.68
602.436	307.34
602.856	440.75
603.276	302.66
603.696	283.94
604.115	344.79
604.535	307.34
604.955	312.02
605.375	379.9
605.794	351.81
606.214	302.66
606.634	312.02
607.053	319.04
607.473	281.6
607.892	351.81
608.311	370.54
608.731	342.45
609.15	279.26
609.569	330.75
609.988	370.54
610.407	384.58
610.826	314.36
611.245	335.43
611.664	276.91
612.083	286.28
612.501	344.79
612.92	300.32
613.339	330.75
613.757	328.41
614.176	370.54
614.594	316.7
615.013	307.34
615.431	276.91
615.85	293.3
616.268	393.94
616.686	344.79
617.104	349.47
617.522	309.68
617.94	356.49
618.358	288.62
618.776	237.13
619.194	295.64
619.612	340.11
620.03	302.66
620.447	326.07
620.865	281.6
621.282	333.09
621.7	333.09
622.117	281.6
622.535	274.57
622.952	340.11
623.369	431.39
623.787	337.77
624.204	368.2
624.621	295.64
625.038	281.6
625.455	358.83
625.872	363.51
626.289	276.91
626.706	305
627.123	386.92
627.539	319.04
627.956	297.98
628.373	356.49
628.789	290.96
629.206	323.73
629.622	354.15
630.038	279.26
630.455	302.66
630.871	279.26
631.287	248.83
631.703	330.75
632.12	330.75
632.536	305
632.952	326.07
633.368	370.54
633.783	365.85
634.199	258.19
634.615	342.45
635.031	316.7
635.446	309.68
635.862	302.66
636.277	337.77
636.693	281.6
637.108	400.96
637.524	335.43
637.939	351.81
638.354	297.98
638.77	274.57
639.185	293.3
639.6	312.02
640.015	342.45
640.43	307.34
640.845	342.45
641.259	309.68
641.674	398.62
642.089	393.94
642.504	321.38
642.918	281.6
643.333	344.79
643.747	314.36
644.162	293.3
644.576	328.41
644.991	312.02
645.405	293.3
645.819	398.62
646.233	337.77
646.647	283.94
647.061	290.96
647.475	295.64
647.889	309.68
648.303	330.75
648.717	337.77
649.131	321.38
649.545	309.68
649.958	321.38
650.372	347.13
650.785	297.98
651.199	375.22
651.612	382.24
652.026	290.96
652.439	349.47
652.852	340.11
653.266	307.34
653.679	293.3
654.092	283.94
654.505	323.73
654.918	347.13
655.331	382.24
655.744	417.35
656.156	375.22
656.569	319.04
656.982	307.34
657.394	391.6
657.807	365.85
658.22	279.26
658.632	307.34
659.044	382.24
659.457	419.69
659.869	349.47
660.281	363.51
660.693	358.83
661.106	358.83
661.518	326.07
661.93	309.68
662.342	340.11
662.754	361.17
663.165	389.26
663.577	326.07
663.989	344.79
664.401	337.77
664.812	314.36
665.224	361.17
665.635	283.94
666.047	297.98
666.458	349.47
666.869	323.73
667.281	305
667.692	276.91
668.103	340.11
668.514	351.81
668.925	365.85
669.336	361.17
669.747	356.49
670.158	342.45
670.569	323.73
670.979	335.43
671.39	333.09
671.801	307.34
672.211	262.87
672.622	365.85
673.032	382.24
673.443	319.04
673.853	288.62
674.263	335.43
674.674	335.43
675.084	335.43
675.494	330.75
675.904	302.66
676.314	344.79
676.724	274.57
677.134	227.76
677.544	351.81
677.953	319.04
678.363	358.83
678.773	403.3
679.182	347.13
679.592	342.45
680.001	358.83
680.411	323.73
680.82	335.43
681.23	312.02
681.639	356.49
682.048	398.62
682.457	295.64
682.866	340.11
683.275	361.17
683.684	312.02
684.093	361.17
684.502	319.04
684.911	319.04
685.32	351.81
685.728	361.17
686.137	314.36
686.546	391.6
686.954	382.24
687.363	323.73
687.771	309.68
688.179	351.81
688.588	330.75
688.996	307.34
689.404	309.68
689.812	363.51
690.22	276.91
690.628	347.13
691.036	316.7
691.444	302.66
691.852	372.88
692.26	323.73
692.667	368.2
693.075	302.66
693.483	337.77
693.89	288.62
694.298	370.54
694.705	309.68
695.112	300.32
695.52	316.7
695.927	279.26
696.334	286.28
696.741	330.75
697.148	344.79
697.555	358.83
697.962	312.02
698.369	347.13
698.776	356.49
699.183	326.07
699.59	333.09
699.996	361.17
700.403	330.75
700.81	321.38
701.216	335.43
701.623	323.73
702.029	319.04
702.435	300.32
702.842	356.49
703.248	312.02
703.654	389.26
704.06	283.94
704.466	382.24
704.872	358.83
705.278	328.41
705.684	309.68
706.09	258.19
706.496	368.2
706.901	351.81
707.307	321.38
707.712	307.34
708.118	300.32
708.523	272.23
708.929	328.41
709.334	290.96
709.74	368.2
710.145	326.07
710.55	293.3
710.955	335.43
711.36	330.75
711.765	309.68
712.17	391.6
712.575	328.41
712.98	766.09
713.385	356.49
713.789	330.75
714.194	391.6
714.599	349.47
715.003	368.2
715.408	316.7
715.812	290.96
716.217	274.57
716.621	412.67
717.025	356.49
717.429	316.7
717.833	340.11
718.238	286.28
718.642	307.34
719.046	321.38
719.449	251.17
719.853	337.77
720.257	300.32
720.661	344.79
721.065	314.36
721.468	307.34
721.872	349.47
722.275	377.56
722.679	279.26
723.082	305
723.485	363.51
723.889	323.73
724.292	333.09
724.695	372.88
725.098	370.54
725.501	283.94
725.904	305
726.307	356.49
726.71	372.88
727.113	356.49
727.516	379.9
727.918	379.9
728.321	297.98
728.724	340.11
729.126	288.62
729.529	323.73
729.931	300.32
730.333	312.02
730.736	253.51
731.138	340.11
731.54	314.36
731.942	340.11
732.344	262.87
732.746	260.53
733.148	333.09
733.55	267.55
733.952	398.62
734.354	274.57
734.756	344.79
735.157	328.41
735.559	272.23
735.96	347.13
736.362	375.22
736.763	372.88
737.165	405.64
737.566	255.85
737.967	297.98
738.368	326.07
738.77	307.34
739.171	328.41
739.572	319.04
739.973	316.7
740.374	293.3
740.774	326.07
741.175	326.07
741.576	297.98
741.977	358.83
742.377	365.85
742.778	335.43
743.178	312.02
743.579	260.53
743.979	300.32
744.379	316.7
744.78	340.11
745.18	323.73
745.58	302.66
745.98	354.15
746.38	354.15
746.78	314.36
747.18	384.58
747.58	290.96
747.98	321.38
748.38	312.02
748.779	342.45
749.179	335.43
749.578	312.02
749.978	323.73
750.377	300.32
750.777	319.04
751.176	330.75
751.575	295.64
751.975	351.81
752.374	358.83
752.773	358.83
753.172	272.23
753.571	309.68
753.97	309.68
754.369	262.87
754.768	375.22
755.166	307.34
755.565	405.64
755.964	349.47
756.362	283.94
756.761	312.02
757.159	307.34
757.558	365.85
757.956	347.13
758.354	417.35
758.753	342.45
759.151	349.47
759.549	316.7
759.947	340.11
760.345	356.49
760.743	281.6
761.141	295.64
761.539	302.66
761.936	347.13
762.334	335.43
762.732	354.15
763.129	351.81
763.527	342.45
763.924	330.75
764.322	344.79
764.719	316.7
765.117	337.77
765.514	305
765.911	337.77
766.308	354.15
766.705	326.07
