Data from Al_FLMS009871__879__16-15-00-728.txt Node

Date: Fri Mar 08 16:15:00 CST 2024
User: pe5414po
Spectrometer: FLMS00987
Trigger mode: 0
Integration Time (sec): 1.000000E-1
Scans to average: 1
Electric dark correction enabled: true
Nonlinearity correction enabled: false
Boxcar width: 0
XAxis mode: Wavelengths
Number of Pixels in Spectrum: 2048
>>>>>Begin Spectral Data<<<<<
188.938	-88.06
189.409	-88.06
189.879	-88.06
190.349	-95.08
190.819	-76.36
191.29	-64.66
191.76	-120.83
192.23	-99.77
192.7	-59.98
193.17	-106.79
193.64	-57.64
194.109	3.22
194.579	78.12
195.049	-31.89
195.519	-31.89
195.988	80.46
196.458	31.3
196.927	68.75
197.397	113.22
197.866	71.09
198.336	127.27
198.805	138.97
199.274	185.78
199.744	232.59
200.213	178.76
200.682	225.57
201.151	244.29
201.62	291.1
202.089	277.06
202.558	270.04
203.027	288.76
203.495	279.4
203.964	307.49
204.433	248.97
204.902	305.15
205.37	272.38
205.839	295.79
206.307	286.42
206.776	351.96
207.244	314.51
207.712	344.94
208.181	314.51
208.649	295.79
209.117	295.79
209.585	263.02
210.053	263.02
210.521	305.15
210.989	258.34
211.457	323.87
211.925	284.08
212.393	288.76
212.861	323.87
213.328	258.34
213.796	309.83
214.264	227.91
214.731	244.29
215.199	328.55
215.666	277.06
216.133	246.63
216.601	256
217.068	223.23
217.535	246.63
218.003	216.21
218.47	274.72
218.937	293.44
219.404	281.74
219.871	270.04
220.338	298.13
220.805	321.53
221.271	326.21
221.738	307.49
222.205	248.97
222.671	272.38
223.138	218.55
223.605	230.25
224.071	220.89
224.538	239.61
225.004	241.95
225.47	330.89
225.937	351.96
226.403	309.83
226.869	328.55
227.335	272.38
227.801	265.36
228.267	300.47
228.733	270.04
229.199	209.19
229.665	330.89
230.131	298.13
230.597	298.13
231.062	263.02
231.528	302.81
231.994	284.08
232.459	295.79
232.925	305.15
233.39	260.68
233.856	349.62
234.321	335.57
234.786	295.79
235.252	272.38
235.717	323.87
236.182	312.17
236.647	258.34
237.112	272.38
237.577	288.76
238.042	253.66
238.507	321.53
238.972	295.79
239.436	265.36
239.901	291.1
240.366	321.53
240.83	260.68
241.295	300.47
241.76	344.94
242.224	288.76
242.688	260.68
243.153	286.42
243.617	307.49
244.081	314.51
244.545	337.91
245.01	281.74
245.474	281.74
245.938	253.66
246.402	286.42
246.866	270.04
247.33	279.4
247.793	241.95
248.257	241.95
248.721	263.02
249.185	347.28
249.648	272.38
250.112	281.74
250.575	267.7
251.039	251.32
251.502	274.72
251.965	288.76
252.429	256
252.892	267.7
253.355	328.55
253.818	284.08
254.281	300.47
254.744	279.4
255.207	305.15
255.67	279.4
256.133	274.72
256.596	326.21
257.059	314.51
257.522	286.42
257.984	319.19
258.447	302.81
258.909	295.79
259.372	230.25
259.834	314.51
260.297	340.26
260.759	316.85
261.221	248.97
261.684	281.74
262.146	281.74
262.608	307.49
263.07	286.42
263.532	389.41
263.994	274.72
264.456	260.68
264.918	333.23
265.38	239.61
265.842	267.7
266.303	298.13
266.765	356.64
267.227	337.91
267.688	277.06
268.15	305.15
268.611	323.87
269.072	256
269.534	335.57
269.995	295.79
270.456	305.15
270.918	253.66
271.379	321.53
271.84	281.74
272.301	314.51
272.762	319.19
273.223	288.76
273.684	354.3
274.144	316.85
274.605	328.55
275.066	246.63
275.527	277.06
275.987	319.19
276.448	309.83
276.908	298.13
277.369	344.94
277.829	300.47
278.289	270.04
278.75	279.4
279.21	267.7
279.67	309.83
280.13	256
280.59	277.06
281.05	277.06
281.51	286.42
281.97	288.76
282.43	298.13
282.89	281.74
283.35	267.7
283.809	300.47
284.269	314.51
284.729	248.97
285.188	270.04
285.648	347.28
286.107	368.34
286.567	244.29
287.026	244.29
287.485	333.23
287.944	321.53
288.404	358.98
288.863	340.26
289.322	326.21
289.781	361.32
290.24	326.21
290.699	293.44
291.158	288.76
291.616	351.96
292.075	319.19
292.534	234.93
292.992	326.21
293.451	281.74
293.91	258.34
294.368	335.57
294.827	293.44
295.285	314.51
295.743	344.94
296.202	323.87
296.66	211.53
297.118	312.17
297.576	295.79
298.034	366
298.492	291.1
298.95	342.6
299.408	260.68
299.866	305.15
300.324	316.85
300.781	335.57
301.239	263.02
301.697	347.28
302.154	300.47
302.612	295.79
303.069	309.83
303.527	293.44
303.984	316.85
304.441	246.63
304.899	319.19
305.356	284.08
305.813	302.81
306.27	295.79
306.727	368.34
307.184	288.76
307.641	312.17
308.098	288.76
308.555	291.1
309.012	330.89
309.468	295.79
309.925	251.32
310.382	291.1
310.838	358.98
311.295	335.57
311.751	314.51
312.208	323.87
312.664	307.49
313.12	340.26
313.577	347.28
314.033	384.73
314.489	291.1
314.945	300.47
315.401	316.85
315.857	209.19
316.313	326.21
316.769	321.53
317.225	382.39
317.681	305.15
318.136	344.94
318.592	333.23
319.048	302.81
319.503	337.91
319.959	342.6
320.414	244.29
320.869	361.32
321.325	302.81
321.78	363.66
322.235	333.23
322.691	265.36
323.146	342.6
323.601	344.94
324.056	323.87
324.511	384.73
324.966	340.26
325.421	342.6
325.875	356.64
326.33	295.79
326.785	260.68
327.24	307.49
327.694	328.55
328.149	279.4
328.603	328.55
329.058	286.42
329.512	305.15
329.966	312.17
330.421	337.91
330.875	288.76
331.329	305.15
331.783	267.7
332.237	358.98
332.691	330.89
333.145	328.55
333.599	347.28
334.053	277.06
334.507	270.04
334.96	279.4
335.414	312.17
335.868	330.89
336.321	370.68
336.775	300.47
337.228	295.79
337.682	335.57
338.135	284.08
338.588	286.42
339.042	391.75
339.495	300.47
339.948	337.91
340.401	270.04
340.854	272.38
341.307	333.23
341.76	354.3
342.213	316.85
342.666	314.51
343.119	298.13
343.571	309.83
344.024	323.87
344.477	286.42
344.929	380.04
345.382	314.51
345.834	373.02
346.287	375.36
346.739	366
347.191	342.6
347.644	356.64
348.096	272.38
348.548	312.17
349	302.81
349.452	356.64
349.904	288.76
350.356	330.89
350.808	424.51
351.26	354.3
351.711	396.43
352.163	323.87
352.615	312.17
353.066	330.89
353.518	361.32
353.969	284.08
354.421	366
354.872	335.57
355.324	312.17
355.775	309.83
356.226	373.02
356.677	354.3
357.128	347.28
357.579	340.26
358.03	349.62
358.481	305.15
358.932	309.83
359.383	330.89
359.834	316.85
360.285	340.26
360.735	291.1
361.186	340.26
361.637	312.17
362.087	277.06
362.538	438.56
362.988	293.44
363.438	377.7
363.889	387.07
364.339	347.28
364.789	234.93
365.239	340.26
365.689	368.34
366.139	321.53
366.589	354.3
367.039	330.89
367.489	373.02
367.939	326.21
368.389	326.21
368.839	272.38
369.288	368.34
369.738	309.83
370.187	337.91
370.637	281.74
371.086	316.85
371.536	321.53
371.985	307.49
372.434	307.49
372.884	312.17
373.333	361.32
373.782	410.47
374.231	263.02
374.68	281.74
375.129	321.53
375.578	291.1
376.027	319.19
376.475	354.3
376.924	302.81
377.373	326.21
377.822	265.36
378.27	382.39
378.719	351.96
379.167	270.04
379.616	305.15
380.064	312.17
380.512	337.91
380.961	267.7
381.409	272.38
381.857	323.87
382.305	312.17
382.753	293.44
383.201	281.74
383.649	330.89
384.097	394.09
384.545	363.66
384.992	363.66
385.44	340.26
385.888	340.26
386.335	363.66
386.783	347.28
387.231	323.87
387.678	316.85
388.125	270.04
388.573	337.91
389.02	401.11
389.467	337.91
389.914	333.23
390.362	361.32
390.809	330.89
391.256	366
391.703	260.68
392.15	286.42
392.596	337.91
393.043	288.76
393.49	274.72
393.937	366
394.383	248.97
394.83	316.85
395.276	356.64
395.723	335.57
396.169	358.98
396.616	281.74
397.062	267.7
397.508	368.34
397.954	267.7
398.401	288.76
398.847	349.62
399.293	398.77
399.739	316.85
400.185	384.73
400.631	347.28
401.076	354.3
401.522	328.55
401.968	333.23
402.414	387.07
402.859	349.62
403.305	305.15
403.75	340.26
404.196	337.91
404.641	279.4
405.086	293.44
405.532	291.1
405.977	279.4
406.422	312.17
406.867	291.1
407.312	330.89
407.757	335.57
408.202	356.64
408.647	368.34
409.092	293.44
409.537	302.81
409.982	384.73
410.426	326.21
410.871	349.62
411.316	321.53
411.76	298.13
412.205	307.49
412.649	366
413.093	358.98
413.538	293.44
413.982	300.47
414.426	328.55
414.87	274.72
415.314	377.7
415.758	312.17
416.202	312.17
416.646	302.81
417.09	335.57
417.534	344.94
417.978	330.89
418.421	358.98
418.865	307.49
419.309	319.19
419.752	375.36
420.196	344.94
420.639	330.89
421.083	319.19
421.526	312.17
421.969	410.47
422.412	291.1
422.856	354.3
423.299	344.94
423.742	358.98
424.185	300.47
424.628	349.62
425.071	337.91
425.513	309.83
425.956	340.26
426.399	415.15
426.842	316.85
427.284	316.85
427.727	358.98
428.169	373.02
428.612	349.62
429.054	263.02
429.497	356.64
429.939	302.81
430.381	300.47
430.823	368.34
431.265	298.13
431.707	288.76
432.149	302.81
432.591	307.49
433.033	274.72
433.475	263.02
433.917	286.42
434.359	316.85
434.8	300.47
435.242	293.44
435.684	358.98
436.125	347.28
436.567	342.6
437.008	288.76
437.449	274.72
437.891	274.72
438.332	344.94
438.773	337.91
439.214	314.51
439.656	330.89
440.097	321.53
440.538	337.91
440.978	335.57
441.419	277.06
441.86	340.26
442.301	349.62
442.742	279.4
443.182	291.1
443.623	263.02
444.063	344.94
444.504	321.53
444.944	305.15
445.385	316.85
445.825	284.08
446.265	305.15
446.706	335.57
447.146	356.64
447.586	370.68
448.026	377.7
448.466	319.19
448.906	351.96
449.346	344.94
449.786	263.02
450.225	354.3
450.665	344.94
451.105	239.61
451.544	328.55
451.984	354.3
452.424	281.74
452.863	291.1
453.302	309.83
453.742	293.44
454.181	300.47
454.62	307.49
455.059	330.89
455.499	302.81
455.938	330.89
456.377	340.26
456.816	347.28
457.254	349.62
457.693	288.76
458.132	349.62
458.571	349.62
459.01	307.49
459.448	284.08
459.887	319.19
460.325	330.89
460.764	391.75
461.202	370.68
461.641	358.98
462.079	344.94
462.517	302.81
462.955	361.32
463.393	253.66
463.832	293.44
464.27	286.42
464.708	312.17
465.145	366
465.583	344.94
466.021	358.98
466.459	300.47
466.897	293.44
467.334	270.04
467.772	375.36
468.209	330.89
468.647	293.44
469.084	321.53
469.522	300.47
469.959	335.57
470.396	251.32
470.833	326.21
471.271	349.62
471.708	265.36
472.145	295.79
472.582	333.23
473.019	342.6
473.456	312.17
473.892	284.08
474.329	319.19
474.766	422.17
475.202	337.91
475.639	330.89
476.076	321.53
476.512	363.66
476.949	363.66
477.385	293.44
477.821	321.53
478.258	288.76
478.694	309.83
479.13	300.47
479.566	344.94
480.002	307.49
480.438	277.06
480.874	298.13
481.31	391.75
481.746	328.55
482.181	389.41
482.617	305.15
483.053	286.42
483.488	342.6
483.924	335.57
484.36	309.83
484.795	356.64
485.23	244.29
485.666	403.45
486.101	323.87
486.536	288.76
486.971	340.26
487.407	354.3
487.842	358.98
488.277	328.55
488.712	291.1
489.146	368.34
489.581	295.79
490.016	307.49
490.451	321.53
490.885	302.81
491.32	335.57
491.755	337.91
492.189	375.36
492.624	279.4
493.058	293.44
493.492	309.83
493.927	316.85
494.361	373.02
494.795	361.32
495.229	312.17
495.663	307.49
496.097	333.23
496.531	263.02
496.965	403.45
497.399	335.57
497.833	300.47
498.266	239.61
498.7	349.62
499.134	316.85
499.567	314.51
500.001	340.26
500.434	305.15
500.868	358.98
501.301	328.55
501.734	328.55
502.168	340.26
502.601	272.38
503.034	302.81
503.467	340.26
503.9	373.02
504.333	344.94
504.766	270.04
505.199	284.08
505.632	302.81
506.064	300.47
506.497	314.51
506.93	347.28
507.362	330.89
507.795	288.76
508.227	270.04
508.66	333.23
509.092	274.72
509.524	293.44
509.956	309.83
510.389	286.42
510.821	253.66
511.253	316.85
511.685	330.89
512.117	387.07
512.549	384.73
512.981	274.72
513.412	323.87
513.844	307.49
514.276	382.39
514.707	410.47
515.139	335.57
515.571	351.96
516.002	333.23
516.433	356.64
516.865	366
517.296	366
517.727	314.51
518.159	333.23
518.59	363.66
519.021	335.57
519.452	391.75
519.883	314.51
520.314	356.64
520.744	323.87
521.175	333.23
521.606	356.64
522.037	277.06
522.467	340.26
522.898	333.23
523.328	295.79
523.759	401.11
524.189	309.83
524.62	274.72
525.05	300.47
525.48	300.47
525.91	305.15
526.341	335.57
526.771	354.3
527.201	354.3
527.631	344.94
528.061	333.23
528.49	337.91
528.92	319.19
529.35	309.83
529.78	351.96
530.209	337.91
530.639	349.62
531.068	321.53
531.498	302.81
531.927	258.34
532.357	326.21
532.786	349.62
533.215	344.94
533.644	307.49
534.074	295.79
534.503	295.79
534.932	321.53
535.361	305.15
535.79	305.15
536.218	333.23
536.647	309.83
537.076	321.53
537.505	300.47
537.933	351.96
538.362	389.41
538.79	363.66
539.219	344.94
539.647	293.44
540.076	375.36
540.504	286.42
540.932	347.28
541.36	323.87
541.788	316.85
542.217	321.53
542.645	300.47
543.073	330.89
543.5	323.87
543.928	366
544.356	316.85
544.784	387.07
545.211	302.81
545.639	314.51
546.067	316.85
546.494	295.79
546.922	307.49
547.349	335.57
547.776	389.41
548.204	323.87
548.631	300.47
549.058	305.15
549.485	370.68
549.912	431.54
550.339	337.91
550.766	316.85
551.193	291.1
551.62	319.19
552.047	298.13
552.474	344.94
552.9	248.97
553.327	349.62
553.754	354.3
554.18	342.6
554.607	244.29
555.033	366
555.459	326.21
555.886	286.42
556.312	291.1
556.738	293.44
557.164	330.89
557.59	356.64
558.016	323.87
558.442	349.62
558.868	265.36
559.294	284.08
559.72	316.85
560.145	375.36
560.571	415.15
560.997	330.89
561.422	358.98
561.848	323.87
562.273	335.57
562.699	326.21
563.124	312.17
563.549	265.36
563.974	337.91
564.4	380.04
564.825	300.47
565.25	326.21
565.675	284.08
566.1	335.57
566.525	295.79
566.95	340.26
567.374	342.6
567.799	321.53
568.224	263.02
568.648	305.15
569.073	354.3
569.497	422.17
569.922	321.53
570.346	344.94
570.771	366
571.195	258.34
571.619	363.66
572.043	288.76
572.467	333.23
572.891	419.83
573.315	323.87
573.739	333.23
574.163	300.47
574.587	295.79
575.011	361.32
575.435	380.04
575.858	300.47
576.282	312.17
576.705	337.91
577.129	370.68
577.552	337.91
577.976	330.89
578.399	373.02
578.822	358.98
579.245	342.6
579.669	368.34
580.092	349.62
580.515	351.96
580.938	358.98
581.361	351.96
581.784	302.81
582.206	321.53
582.629	319.19
583.052	302.81
583.474	361.32
583.897	293.44
584.32	377.7
584.742	363.66
585.165	326.21
585.587	305.15
586.009	335.57
586.431	316.85
586.854	272.38
587.276	300.47
587.698	328.55
588.12	356.64
588.542	314.51
588.964	288.76
589.386	349.62
589.807	330.89
590.229	368.34
590.651	323.87
591.073	351.96
591.494	256
591.916	354.3
592.337	358.98
592.759	351.96
593.18	328.55
593.601	387.07
594.022	384.73
594.444	344.94
594.865	361.32
595.286	358.98
595.707	330.89
596.128	391.75
596.549	342.6
596.97	323.87
597.39	293.44
597.811	288.76
598.232	286.42
598.652	319.19
599.073	295.79
599.494	279.4
599.914	333.23
600.334	361.32
600.755	358.98
601.175	300.47
601.595	305.15
602.015	305.15
602.436	305.15
602.856	415.15
603.276	260.68
603.696	351.96
604.115	305.15
604.535	347.28
604.955	344.94
605.375	300.47
605.794	389.41
606.214	305.15
606.634	279.4
607.053	328.55
607.473	349.62
607.892	319.19
608.311	291.1
608.731	272.38
609.15	316.85
609.569	274.72
609.988	326.21
610.407	344.94
610.826	340.26
611.245	342.6
611.664	251.32
612.083	314.51
612.501	347.28
612.92	321.53
613.339	305.15
613.757	398.77
614.176	412.81
614.594	335.57
615.013	363.66
615.431	328.55
615.85	323.87
616.268	344.94
616.686	333.23
617.104	258.34
617.522	274.72
617.94	337.91
618.358	286.42
618.776	384.73
619.194	314.51
619.612	330.89
620.03	349.62
620.447	300.47
620.865	349.62
621.282	305.15
621.7	307.49
622.117	326.21
622.535	349.62
622.952	363.66
623.369	291.1
623.787	309.83
624.204	300.47
624.621	349.62
625.038	337.91
625.455	330.89
625.872	335.57
626.289	340.26
626.706	344.94
627.123	354.3
627.539	293.44
627.956	328.55
628.373	363.66
628.789	351.96
629.206	319.19
629.622	373.02
630.038	368.34
630.455	323.87
630.871	342.6
631.287	382.39
631.703	323.87
632.12	340.26
632.536	333.23
632.952	309.83
633.368	305.15
633.783	337.91
634.199	302.81
634.615	356.64
635.031	298.13
635.446	300.47
635.862	279.4
636.277	302.81
636.693	293.44
637.108	361.32
637.524	358.98
637.939	248.97
638.354	312.17
638.77	368.34
639.185	323.87
639.6	344.94
640.015	366
640.43	260.68
640.845	321.53
641.259	398.77
641.674	309.83
642.089	316.85
642.504	286.42
642.918	288.76
643.333	394.09
643.747	344.94
644.162	323.87
644.576	337.91
644.991	380.04
645.405	307.49
645.819	328.55
646.233	337.91
646.647	330.89
647.061	277.06
647.475	380.04
647.889	330.89
648.303	368.34
648.717	326.21
649.131	347.28
649.545	347.28
649.958	373.02
650.372	288.76
650.785	286.42
651.199	344.94
651.612	321.53
652.026	286.42
652.439	295.79
652.852	356.64
653.266	309.83
653.679	349.62
654.092	403.45
654.505	281.74
654.918	312.17
655.331	307.49
655.744	288.76
656.156	363.66
656.569	354.3
656.982	312.17
657.394	398.77
657.807	347.28
658.22	384.73
658.632	291.1
659.044	312.17
659.457	295.79
659.869	288.76
660.281	293.44
660.693	298.13
661.106	293.44
661.518	375.36
661.93	319.19
662.342	344.94
662.754	314.51
663.165	340.26
663.577	330.89
663.989	358.98
664.401	333.23
664.812	314.51
665.224	326.21
665.635	340.26
666.047	307.49
666.458	309.83
666.869	323.87
667.281	319.19
667.692	316.85
668.103	272.38
668.514	326.21
668.925	295.79
669.336	321.53
669.747	319.19
670.158	326.21
670.569	412.81
670.979	267.7
671.39	344.94
671.801	307.49
672.211	281.74
672.622	354.3
673.032	351.96
673.443	333.23
673.853	286.42
674.263	344.94
674.674	333.23
675.084	291.1
675.494	323.87
675.904	323.87
676.314	305.15
676.724	314.51
677.134	279.4
677.544	333.23
677.953	309.83
678.363	328.55
678.773	417.49
679.182	281.74
679.592	328.55
680.001	335.57
680.411	293.44
680.82	323.87
681.23	307.49
681.639	302.81
682.048	375.36
682.457	363.66
682.866	281.74
683.275	328.55
683.684	321.53
684.093	335.57
684.502	281.74
684.911	340.26
685.32	316.85
685.728	321.53
686.137	337.91
686.546	293.44
686.954	354.3
687.363	323.87
687.771	321.53
688.179	358.98
688.588	330.89
688.996	319.19
689.404	375.36
689.812	326.21
690.22	358.98
690.628	340.26
691.036	363.66
691.444	396.43
691.852	356.64
692.26	358.98
692.667	373.02
693.075	305.15
693.483	312.17
693.89	293.44
694.298	312.17
694.705	356.64
695.112	375.36
695.52	316.85
695.927	270.04
696.334	326.21
696.741	330.89
697.148	316.85
697.555	323.87
697.962	300.47
698.369	356.64
698.776	326.21
699.183	328.55
699.59	300.47
699.996	330.89
700.403	321.53
700.81	272.38
701.216	326.21
701.623	288.76
702.029	401.11
702.435	256
702.842	344.94
703.248	286.42
703.654	319.19
704.06	319.19
704.466	279.4
704.872	342.6
705.278	305.15
705.684	344.94
706.09	302.81
706.496	319.19
706.901	384.73
707.307	333.23
707.712	272.38
708.118	321.53
708.523	330.89
708.929	344.94
709.334	291.1
709.74	330.89
710.145	344.94
710.55	344.94
710.955	323.87
711.36	335.57
711.765	312.17
712.17	337.91
712.575	328.55
712.98	829.43
713.385	375.36
713.789	335.57
714.194	307.49
714.599	358.98
715.003	361.32
715.408	326.21
715.812	305.15
716.217	258.34
716.621	284.08
717.025	300.47
717.429	333.23
717.833	389.41
718.238	328.55
718.642	349.62
719.046	321.53
719.449	361.32
719.853	342.6
720.257	256
720.661	213.87
721.065	298.13
721.468	314.51
721.872	323.87
722.275	274.72
722.679	258.34
723.082	356.64
723.485	272.38
723.889	263.02
724.292	302.81
724.695	295.79
725.098	312.17
725.501	307.49
725.904	410.47
726.307	302.81
726.71	248.97
727.113	312.17
727.516	323.87
727.918	314.51
728.321	335.57
728.724	295.79
729.126	330.89
729.529	366
729.931	328.55
730.333	295.79
730.736	347.28
731.138	298.13
731.54	340.26
731.942	241.95
732.344	328.55
732.746	373.02
733.148	347.28
733.55	335.57
733.952	272.38
734.354	270.04
734.756	309.83
735.157	358.98
735.559	337.91
735.96	326.21
736.362	277.06
736.763	237.27
737.165	326.21
737.566	302.81
737.967	361.32
738.368	323.87
738.77	344.94
739.171	305.15
739.572	302.81
739.973	361.32
740.374	305.15
740.774	323.87
741.175	342.6
741.576	344.94
741.977	314.51
742.377	333.23
742.778	267.7
743.178	314.51
743.579	314.51
743.979	300.47
744.379	333.23
744.78	323.87
745.18	305.15
745.58	366
745.98	349.62
746.38	295.79
746.78	323.87
747.18	328.55
747.58	335.57
747.98	349.62
748.38	342.6
748.779	300.47
749.179	312.17
749.578	305.15
749.978	321.53
750.377	281.74
750.777	340.26
751.176	293.44
751.575	328.55
751.975	312.17
752.374	302.81
752.773	298.13
753.172	340.26
753.571	284.08
753.97	354.3
754.369	232.59
754.768	314.51
755.166	274.72
755.565	307.49
755.964	309.83
756.362	337.91
756.761	333.23
757.159	298.13
757.558	333.23
757.956	368.34
758.354	321.53
758.753	309.83
759.151	375.36
759.549	333.23
759.947	358.98
760.345	349.62
760.743	358.98
761.141	340.26
761.539	389.41
761.936	321.53
762.334	330.89
762.732	358.98
763.129	279.4
763.527	277.06
763.924	363.66
764.322	340.26
764.719	298.13
765.117	281.74
765.514	337.91
765.911	314.51
