Data from Al_FLMS009871__1108__16-31-47-200.txt Node

Date: Fri Mar 08 16:31:47 CST 2024
User: pe5414po
Spectrometer: FLMS00987
Trigger mode: 0
Integration Time (sec): 1.000000E-1
Scans to average: 1
Electric dark correction enabled: true
Nonlinearity correction enabled: false
Boxcar width: 0
XAxis mode: Wavelengths
Number of Pixels in Spectrum: 2048
>>>>>Begin Spectral Data<<<<<
188.938	-55.73
189.409	-55.73
189.879	-55.73
190.349	-137.65
190.819	-123.61
191.29	-128.29
191.76	-121.27
192.23	-135.31
192.7	-72.12
193.17	-51.05
193.64	-11.26
194.109	-58.07
194.579	5.12
195.049	40.23
195.519	-8.92
195.988	51.93
196.458	23.84
196.927	98.74
197.397	82.36
197.866	138.53
198.336	145.55
198.805	183
199.274	145.55
199.744	164.28
200.213	211.09
200.682	225.13
201.151	159.6
201.62	201.72
202.089	206.41
202.558	243.85
203.027	227.47
203.495	119.81
203.964	243.85
204.433	269.6
204.902	274.28
205.37	278.96
205.839	220.45
206.307	302.37
206.776	314.07
207.244	307.05
207.712	290.67
208.181	271.94
208.649	321.09
209.117	300.03
209.585	290.67
210.053	321.09
210.521	283.64
210.989	241.51
211.457	353.86
211.925	330.45
212.393	208.75
212.861	283.64
213.328	267.26
213.796	201.72
214.264	283.64
214.731	297.69
215.199	213.43
215.666	304.71
216.133	206.41
216.601	246.2
217.068	253.22
217.535	234.49
218.003	300.03
218.47	316.41
218.937	260.24
219.404	255.56
219.871	283.64
220.338	218.11
220.805	178.32
221.271	220.45
221.738	250.88
222.205	283.64
222.671	335.14
223.138	288.32
223.605	229.81
224.071	201.72
224.538	246.2
225.004	309.39
225.47	271.94
225.937	239.17
226.403	267.26
226.869	307.05
227.335	241.51
227.801	255.56
228.267	309.39
228.733	304.71
229.199	229.81
229.665	318.75
230.131	250.88
230.597	307.05
231.062	234.49
231.528	295.35
231.994	185.34
232.459	271.94
232.925	281.3
233.39	283.64
233.856	220.45
234.321	225.13
234.786	260.24
235.252	316.41
235.717	344.5
236.182	295.35
236.647	278.96
237.112	257.9
237.577	215.77
238.042	285.98
238.507	295.35
238.972	271.94
239.436	192.36
239.901	264.92
240.366	262.58
240.83	243.85
241.295	311.73
241.76	253.22
242.224	255.56
242.688	293.01
243.153	250.88
243.617	269.6
244.081	316.41
244.545	236.83
245.01	260.24
245.474	281.3
245.938	295.35
246.402	271.94
246.866	218.11
247.33	253.22
247.793	260.24
248.257	318.75
248.721	283.64
249.185	283.64
249.648	283.64
250.112	276.62
250.575	255.56
251.039	260.24
251.502	227.47
251.965	321.09
252.429	281.3
252.892	227.47
253.355	267.26
253.818	194.7
254.281	269.6
254.744	325.77
255.207	330.45
255.67	211.09
256.133	229.81
256.596	229.81
257.059	262.58
257.522	297.69
257.984	211.09
258.447	346.84
258.909	281.3
259.372	232.15
259.834	281.3
260.297	239.17
260.759	255.56
261.221	307.05
261.684	304.71
262.146	274.28
262.608	295.35
263.07	367.9
263.532	239.17
263.994	276.62
264.456	222.79
264.918	271.94
265.38	325.77
265.842	290.67
266.303	243.85
266.765	314.07
267.227	307.05
267.688	300.03
268.15	302.37
268.611	264.92
269.072	257.9
269.534	290.67
269.995	321.09
270.456	325.77
270.918	260.24
271.379	220.45
271.84	330.45
272.301	246.2
272.762	309.39
273.223	351.52
273.684	295.35
274.144	358.54
274.605	250.88
275.066	269.6
275.527	356.2
275.987	332.79
276.448	264.92
276.908	309.39
277.369	248.54
277.829	302.37
278.289	257.9
278.75	307.05
279.21	269.6
279.67	318.75
280.13	311.73
280.59	281.3
281.05	276.62
281.51	239.17
281.97	269.6
282.43	260.24
282.89	232.15
283.35	295.35
283.809	239.17
284.269	318.75
284.729	318.75
285.188	281.3
285.648	271.94
286.107	290.67
286.567	297.69
287.026	339.82
287.485	264.92
287.944	311.73
288.404	278.96
288.863	225.13
289.322	297.69
289.781	288.32
290.24	269.6
290.699	285.98
291.158	241.51
291.616	332.79
292.075	267.26
292.534	281.3
292.992	374.92
293.451	346.84
293.91	318.75
294.368	295.35
294.827	344.5
295.285	316.41
295.743	264.92
296.202	283.64
296.66	332.79
297.118	290.67
297.576	309.39
298.034	278.96
298.492	307.05
298.95	356.2
299.408	222.79
299.866	236.83
300.324	295.35
300.781	365.56
301.239	349.18
301.697	262.58
302.154	264.92
302.612	304.71
303.069	316.41
303.527	316.41
303.984	311.73
304.441	278.96
304.899	304.71
305.356	257.9
305.813	304.71
306.27	288.32
306.727	337.48
307.184	328.11
307.641	290.67
308.098	234.49
308.555	314.07
309.012	293.01
309.468	302.37
309.925	260.24
310.382	316.41
310.838	314.07
311.295	330.45
311.751	325.77
312.208	271.94
312.664	257.9
313.12	285.98
313.577	288.32
314.033	314.07
314.489	293.01
314.945	253.22
315.401	295.35
315.857	300.03
316.313	328.11
316.769	278.96
317.225	288.32
317.681	295.35
318.136	302.37
318.592	344.5
319.048	262.58
319.503	271.94
319.959	300.03
320.414	325.77
320.869	276.62
321.325	297.69
321.78	339.82
322.235	307.05
322.691	323.43
323.146	300.03
323.601	248.54
324.056	358.54
324.511	314.07
324.966	285.98
325.421	274.28
325.875	300.03
326.33	349.18
326.785	271.94
327.24	314.07
327.694	325.77
328.149	250.88
328.603	246.2
329.058	288.32
329.512	346.84
329.966	267.26
330.421	314.07
330.875	297.69
331.329	332.79
331.783	344.5
332.237	346.84
332.691	309.39
333.145	300.03
333.599	281.3
334.053	304.71
334.507	297.69
334.96	358.54
335.414	330.45
335.868	335.14
336.321	323.43
336.775	281.3
337.228	288.32
337.682	307.05
338.135	342.16
338.588	285.98
339.042	311.73
339.495	323.43
339.948	342.16
340.401	253.22
340.854	332.79
341.307	339.82
341.76	234.49
342.213	257.9
342.666	269.6
343.119	276.62
343.571	293.01
344.024	316.41
344.477	257.9
344.929	290.67
345.382	351.52
345.834	283.64
346.287	295.35
346.739	318.75
347.191	283.64
347.644	318.75
348.096	278.96
348.548	346.84
349	297.69
349.452	321.09
349.904	302.37
350.356	281.3
350.808	283.64
351.26	276.62
351.711	386.63
352.163	302.37
352.615	335.14
353.066	335.14
353.518	285.98
353.969	330.45
354.421	349.18
354.872	300.03
355.324	300.03
355.775	332.79
356.226	297.69
356.677	307.05
357.128	283.64
357.579	353.86
358.03	304.71
358.481	328.11
358.932	332.79
359.383	316.41
359.834	290.67
360.285	276.62
360.735	395.99
361.186	304.71
361.637	281.3
362.087	358.54
362.538	328.11
362.988	307.05
363.438	342.16
363.889	353.86
364.339	288.32
364.789	278.96
365.239	234.49
365.689	257.9
366.139	285.98
366.589	314.07
367.039	370.24
367.489	311.73
367.939	346.84
368.389	356.2
368.839	300.03
369.288	318.75
369.738	264.92
370.187	283.64
370.637	363.22
371.086	344.5
371.536	335.14
371.985	330.45
372.434	288.32
372.884	304.71
373.333	257.9
373.782	351.52
374.231	349.18
374.68	309.39
375.129	379.61
375.578	281.3
376.027	318.75
376.475	335.14
376.924	302.37
377.373	332.79
377.822	335.14
378.27	353.86
378.719	328.11
379.167	321.09
379.616	309.39
380.064	328.11
380.512	314.07
380.961	335.14
381.409	344.5
381.857	325.77
382.305	293.01
382.753	365.56
383.201	360.88
383.649	300.03
384.097	304.71
384.545	316.41
384.992	330.45
385.44	271.94
385.888	302.37
386.335	215.77
386.783	337.48
387.231	288.32
387.678	293.01
388.125	353.86
388.573	297.69
389.02	250.88
389.467	239.17
389.914	246.2
390.362	332.79
390.809	314.07
391.256	314.07
391.703	309.39
392.15	344.5
392.596	304.71
393.043	318.75
393.49	328.11
393.937	353.86
394.383	346.84
394.83	337.48
395.276	278.96
395.723	353.86
396.169	309.39
396.616	339.82
397.062	316.41
397.508	225.13
397.954	276.62
398.401	377.27
398.847	269.6
399.293	337.48
399.739	316.41
400.185	346.84
400.631	311.73
401.076	295.35
401.522	278.96
401.968	300.03
402.414	358.54
402.859	321.09
403.305	314.07
403.75	262.58
404.196	246.2
404.641	339.82
405.086	311.73
405.532	285.98
405.977	330.45
406.422	335.14
406.867	311.73
407.312	311.73
407.757	360.88
408.202	250.88
408.647	304.71
409.092	288.32
409.537	335.14
409.982	276.62
410.426	300.03
410.871	346.84
411.316	276.62
411.76	300.03
412.205	304.71
412.649	335.14
413.093	260.24
413.538	318.75
413.982	321.09
414.426	257.9
414.87	281.3
415.314	267.26
415.758	330.45
416.202	288.32
416.646	295.35
417.09	339.82
417.534	290.67
417.978	222.79
418.421	285.98
418.865	290.67
419.309	330.45
419.752	302.37
420.196	360.88
420.639	267.26
421.083	283.64
421.526	330.45
421.969	325.77
422.412	346.84
422.856	323.43
423.299	316.41
423.742	316.41
424.185	309.39
424.628	339.82
425.071	370.24
425.513	295.35
425.956	285.98
426.399	311.73
426.842	311.73
427.284	248.54
427.727	300.03
428.169	285.98
428.612	264.92
429.054	325.77
429.497	342.16
429.939	363.22
430.381	342.16
430.823	311.73
431.265	267.26
431.707	356.2
432.149	365.56
432.591	332.79
433.033	283.64
433.475	248.54
433.917	325.77
434.359	325.77
434.8	318.75
435.242	316.41
435.684	314.07
436.125	295.35
436.567	285.98
437.008	274.28
437.449	421.74
437.891	379.61
438.332	360.88
438.773	285.98
439.214	321.09
439.656	335.14
440.097	262.58
440.538	351.52
440.978	318.75
441.419	307.05
441.86	309.39
442.301	283.64
442.742	309.39
443.182	297.69
443.623	356.2
444.063	353.86
444.504	316.41
444.944	264.92
445.385	328.11
445.825	335.14
446.265	403.01
446.706	276.62
447.146	307.05
447.586	339.82
448.026	257.9
448.466	307.05
448.906	332.79
449.346	300.03
449.786	363.22
450.225	370.24
450.665	304.71
451.105	323.43
451.544	307.05
451.984	318.75
452.424	323.43
452.863	332.79
453.302	328.11
453.742	295.35
454.181	293.01
454.62	318.75
455.059	323.43
455.499	283.64
455.938	290.67
456.377	363.22
456.816	321.09
457.254	337.48
457.693	358.54
458.132	302.37
458.571	304.71
459.01	307.05
459.448	339.82
459.887	330.45
460.325	260.24
460.764	309.39
461.202	262.58
461.641	325.77
462.079	321.09
462.517	318.75
462.955	302.37
463.393	311.73
463.832	342.16
464.27	311.73
464.708	302.37
465.145	311.73
465.583	367.9
466.021	337.48
466.459	367.9
466.897	339.82
467.334	353.86
467.772	330.45
468.209	278.96
468.647	316.41
469.084	293.01
469.522	323.43
469.959	339.82
470.396	374.92
470.833	290.67
471.271	283.64
471.708	337.48
472.145	311.73
472.582	278.96
473.019	311.73
473.456	297.69
473.892	293.01
474.329	293.01
474.766	295.35
475.202	293.01
475.639	300.03
476.076	358.54
476.512	302.37
476.949	304.71
477.385	339.82
477.821	241.51
478.258	274.28
478.694	330.45
479.13	337.48
479.566	297.69
480.002	300.03
480.438	325.77
480.874	367.9
481.31	339.82
481.746	300.03
482.181	325.77
482.617	337.48
483.053	307.05
483.488	316.41
483.924	321.09
484.36	309.39
484.795	255.56
485.23	328.11
485.666	370.24
486.101	339.82
486.536	372.58
486.971	330.45
487.407	316.41
487.842	323.43
488.277	349.18
488.712	285.98
489.146	344.5
489.581	290.67
490.016	304.71
490.451	316.41
490.885	262.58
491.32	314.07
491.755	288.32
492.189	290.67
492.624	295.35
493.058	264.92
493.492	328.11
493.927	295.35
494.361	269.6
494.795	300.03
495.229	278.96
495.663	321.09
496.097	314.07
496.531	267.26
496.965	325.77
497.399	300.03
497.833	330.45
498.266	300.03
498.7	253.22
499.134	318.75
499.567	358.54
500.001	311.73
500.434	349.18
500.868	339.82
501.301	367.9
501.734	311.73
502.168	311.73
502.601	297.69
503.034	349.18
503.467	358.54
503.9	269.6
504.333	274.28
504.766	281.3
505.199	325.77
505.632	269.6
506.064	290.67
506.497	278.96
506.93	316.41
507.362	304.71
507.795	267.26
508.227	264.92
508.66	309.39
509.092	356.2
509.524	243.85
509.956	309.39
510.389	236.83
510.821	330.45
511.253	330.45
511.685	302.37
512.117	335.14
512.549	321.09
512.981	339.82
513.412	293.01
513.844	311.73
514.276	262.58
514.707	311.73
515.139	316.41
515.571	302.37
516.002	293.01
516.433	293.01
516.865	307.05
517.296	318.75
517.727	316.41
518.159	269.6
518.59	381.95
519.021	318.75
519.452	283.64
519.883	271.94
520.314	262.58
520.744	318.75
521.175	283.64
521.606	344.5
522.037	358.54
522.467	311.73
522.898	316.41
523.328	311.73
523.759	318.75
524.189	349.18
524.62	316.41
525.05	271.94
525.48	330.45
525.91	278.96
526.341	316.41
526.771	262.58
527.201	297.69
527.631	264.92
528.061	342.16
528.49	267.26
528.92	194.7
529.35	332.79
529.78	311.73
530.209	309.39
530.639	271.94
531.068	276.62
531.498	271.94
531.927	302.37
532.357	302.37
532.786	274.28
533.215	309.39
533.644	278.96
534.074	400.67
534.503	377.27
534.932	293.01
535.361	330.45
535.79	332.79
536.218	271.94
536.647	293.01
537.076	288.32
537.505	185.34
537.933	290.67
538.362	353.86
538.79	302.37
539.219	323.43
539.647	388.97
540.076	278.96
540.504	323.43
540.932	349.18
541.36	243.85
541.788	314.07
542.217	262.58
542.645	309.39
543.073	269.6
543.5	316.41
543.928	309.39
544.356	307.05
544.784	344.5
545.211	304.71
545.639	281.3
546.067	377.27
546.494	328.11
546.922	342.16
547.349	346.84
547.776	330.45
548.204	325.77
548.631	353.86
549.058	281.3
549.485	250.88
549.912	311.73
550.339	304.71
550.766	304.71
551.193	302.37
551.62	365.56
552.047	321.09
552.474	300.03
552.9	332.79
553.327	311.73
553.754	302.37
554.18	264.92
554.607	288.32
555.033	342.16
555.459	288.32
555.886	307.05
556.312	288.32
556.738	281.3
557.164	300.03
557.59	300.03
558.016	304.71
558.442	300.03
558.868	339.82
559.294	297.69
559.72	260.24
560.145	300.03
560.571	302.37
560.997	344.5
561.422	267.26
561.848	271.94
562.273	297.69
562.699	274.28
563.124	337.48
563.549	257.9
563.974	363.22
564.4	285.98
564.825	250.88
565.25	330.45
565.675	271.94
566.1	295.35
566.525	323.43
566.95	342.16
567.374	325.77
567.799	358.54
568.224	337.48
568.648	365.56
569.073	285.98
569.497	328.11
569.922	353.86
570.346	302.37
570.771	363.22
571.195	384.29
571.619	339.82
572.043	314.07
572.467	302.37
572.891	346.84
573.315	269.6
573.739	335.14
574.163	318.75
574.587	250.88
575.011	307.05
575.435	346.84
575.858	342.16
576.282	307.05
576.705	300.03
577.129	314.07
577.552	325.77
577.976	379.61
578.399	304.71
578.822	330.45
579.245	295.35
579.669	276.62
580.092	295.35
580.515	267.26
580.938	274.28
581.361	365.56
581.784	328.11
582.206	337.48
582.629	365.56
583.052	297.69
583.474	311.73
583.897	302.37
584.32	283.64
584.742	293.01
585.165	281.3
585.587	218.11
586.009	274.28
586.431	321.09
586.854	339.82
587.276	316.41
587.698	283.64
588.12	297.69
588.542	283.64
588.964	302.37
589.386	323.43
589.807	283.64
590.229	351.52
590.651	297.69
591.073	325.77
591.494	328.11
591.916	349.18
592.337	323.43
592.759	309.39
593.18	262.58
593.601	325.77
594.022	367.9
594.444	281.3
594.865	283.64
595.286	358.54
595.707	253.22
596.128	311.73
596.549	297.69
596.97	330.45
597.39	260.24
597.811	307.05
598.232	311.73
598.652	337.48
599.073	349.18
599.494	314.07
599.914	271.94
600.334	307.05
600.755	316.41
601.175	316.41
601.595	253.22
602.015	302.37
602.436	346.84
602.856	421.74
603.276	309.39
603.696	283.64
604.115	363.22
604.535	293.01
604.955	339.82
605.375	302.37
605.794	288.32
606.214	393.65
606.634	316.41
607.053	311.73
607.473	255.56
607.892	323.43
608.311	316.41
608.731	285.98
609.15	274.28
609.569	260.24
609.988	271.94
610.407	295.35
610.826	267.26
611.245	307.05
611.664	295.35
612.083	264.92
612.501	290.67
612.92	290.67
613.339	360.88
613.757	271.94
614.176	349.18
614.594	316.41
615.013	278.96
615.431	337.48
615.85	307.05
616.268	297.69
616.686	365.56
617.104	300.03
617.522	307.05
617.94	248.54
618.358	304.71
618.776	330.45
619.194	325.77
619.612	379.61
620.03	262.58
620.447	332.79
620.865	321.09
621.282	370.24
621.7	360.88
622.117	297.69
622.535	304.71
622.952	227.47
623.369	271.94
623.787	309.39
624.204	314.07
624.621	300.03
625.038	349.18
625.455	302.37
625.872	349.18
626.289	285.98
626.706	358.54
627.123	316.41
627.539	363.22
627.956	307.05
628.373	328.11
628.789	349.18
629.206	262.58
629.622	281.3
630.038	285.98
630.455	288.32
630.871	302.37
631.287	353.86
631.703	321.09
632.12	304.71
632.536	332.79
632.952	307.05
633.368	314.07
633.783	283.64
634.199	384.29
634.615	370.24
635.031	318.75
635.446	314.07
635.862	264.92
636.277	344.5
636.693	309.39
637.108	316.41
637.524	351.52
637.939	307.05
638.354	295.35
638.77	367.9
639.185	285.98
639.6	248.54
640.015	346.84
640.43	281.3
640.845	344.5
641.259	351.52
641.674	300.03
642.089	363.22
642.504	330.45
642.918	351.52
643.333	323.43
643.747	264.92
644.162	300.03
644.576	307.05
644.991	323.43
645.405	342.16
645.819	297.69
646.233	363.22
646.647	300.03
647.061	323.43
647.475	337.48
647.889	285.98
648.303	309.39
648.717	283.64
649.131	328.11
649.545	297.69
649.958	337.48
650.372	269.6
650.785	255.56
651.199	311.73
651.612	332.79
652.026	381.95
652.439	309.39
652.852	339.82
653.266	344.5
653.679	309.39
654.092	295.35
654.505	307.05
654.918	339.82
655.331	365.56
655.744	325.77
656.156	225.13
656.569	323.43
656.982	297.69
657.394	353.86
657.807	328.11
658.22	344.5
658.632	351.52
659.044	309.39
659.457	276.62
659.869	297.69
660.281	271.94
660.693	346.84
661.106	335.14
661.518	328.11
661.93	304.71
662.342	330.45
662.754	321.09
663.165	360.88
663.577	339.82
663.989	346.84
664.401	335.14
664.812	321.09
665.224	337.48
665.635	353.86
666.047	264.92
666.458	239.17
666.869	325.77
667.281	367.9
667.692	281.3
668.103	321.09
668.514	300.03
668.925	300.03
669.336	330.45
669.747	307.05
670.158	293.01
670.569	274.28
670.979	288.32
671.39	316.41
671.801	271.94
672.211	321.09
672.622	339.82
673.032	356.2
673.443	271.94
673.853	339.82
674.263	255.56
674.674	293.01
675.084	283.64
675.494	335.14
675.904	321.09
676.314	302.37
676.724	307.05
677.134	344.5
677.544	318.75
677.953	293.01
678.363	283.64
678.773	342.16
679.182	281.3
679.592	321.09
680.001	330.45
680.411	297.69
680.82	346.84
681.23	325.77
681.639	353.86
682.048	339.82
682.457	281.3
682.866	311.73
683.275	281.3
683.684	337.48
684.093	339.82
684.502	344.5
684.911	283.64
685.32	349.18
685.728	311.73
686.137	278.96
686.546	318.75
686.954	372.58
687.363	316.41
687.771	297.69
688.179	262.58
688.588	293.01
688.996	304.71
689.404	285.98
689.812	225.13
690.22	316.41
690.628	302.37
691.036	309.39
691.444	323.43
691.852	335.14
692.26	300.03
692.667	302.37
693.075	321.09
693.483	417.05
693.89	300.03
694.298	339.82
694.705	316.41
695.112	381.95
695.52	356.2
695.927	260.24
696.334	274.28
696.741	304.71
697.148	267.26
697.555	269.6
697.962	346.84
698.369	335.14
698.776	337.48
699.183	318.75
699.59	323.43
699.996	311.73
700.403	300.03
700.81	260.24
701.216	339.82
701.623	201.72
702.029	316.41
702.435	278.96
702.842	346.84
703.248	255.56
703.654	300.03
704.06	323.43
704.466	300.03
704.872	321.09
705.278	278.96
705.684	325.77
706.09	318.75
706.496	260.24
706.901	307.05
707.307	271.94
707.712	285.98
708.118	283.64
708.523	290.67
708.929	356.2
709.334	302.37
709.74	300.03
710.145	321.09
710.55	335.14
710.955	330.45
711.36	232.15
711.765	344.5
712.17	307.05
712.575	314.07
712.98	812.6
713.385	290.67
713.789	318.75
714.194	328.11
714.599	332.79
715.003	337.48
715.408	311.73
715.812	274.28
716.217	255.56
716.621	271.94
717.025	288.32
717.429	302.37
717.833	325.77
718.238	302.37
718.642	330.45
719.046	318.75
719.449	288.32
719.853	318.75
720.257	335.14
720.661	274.28
721.065	297.69
721.468	300.03
721.872	264.92
722.275	351.52
722.679	269.6
723.082	229.81
723.485	316.41
723.889	330.45
724.292	309.39
724.695	285.98
725.098	281.3
725.501	328.11
725.904	372.58
726.307	274.28
726.71	267.26
727.113	213.43
727.516	264.92
727.918	295.35
728.321	344.5
728.724	328.11
729.126	257.9
729.529	297.69
729.931	323.43
730.333	285.98
730.736	339.82
731.138	328.11
731.54	276.62
731.942	379.61
732.344	262.58
732.746	307.05
733.148	278.96
733.55	309.39
733.952	243.85
734.354	302.37
734.756	300.03
735.157	290.67
735.559	316.41
735.96	246.2
736.362	339.82
736.763	311.73
737.165	236.83
737.566	234.49
737.967	274.28
738.368	274.28
738.77	372.58
739.171	283.64
739.572	307.05
739.973	232.15
740.374	302.37
740.774	304.71
741.175	274.28
741.576	328.11
741.977	318.75
742.377	405.35
742.778	295.35
743.178	307.05
743.579	264.92
743.979	377.27
744.379	288.32
744.78	356.2
745.18	318.75
745.58	307.05
745.98	264.92
746.38	271.94
746.78	311.73
747.18	349.18
747.58	257.9
747.98	246.2
748.38	260.24
748.779	283.64
749.179	293.01
749.578	271.94
749.978	325.77
750.377	262.58
750.777	288.32
751.176	293.01
751.575	278.96
751.975	314.07
752.374	293.01
752.773	323.43
753.172	283.64
753.571	356.2
753.97	309.39
754.369	358.54
754.768	412.37
755.166	293.01
755.565	353.86
755.964	293.01
756.362	307.05
756.761	236.83
757.159	307.05
757.558	285.98
757.956	367.9
758.354	295.35
758.753	297.69
759.151	290.67
759.549	276.62
759.947	269.6
760.345	314.07
760.743	234.49
761.141	321.09
761.539	281.3
761.936	267.26
762.334	253.22
762.732	316.41
763.129	311.73
763.527	283.64
763.924	309.39
764.322	325.77
764.719	318.75
