Data from Al_FLMS009871__1106__16-31-47-000.txt Node

Date: Fri Mar 08 16:31:47 CST 2024
User: pe5414po
Spectrometer: FLMS00987
Trigger mode: 0
Integration Time (sec): 1.000000E-1
Scans to average: 1
Electric dark correction enabled: true
Nonlinearity correction enabled: false
Boxcar width: 0
XAxis mode: Wavelengths
Number of Pixels in Spectrum: 2048
>>>>>Begin Spectral Data<<<<<
188.938	-104.01
189.409	-104.01
189.879	-104.01
190.349	-82.94
190.819	-92.3
191.29	-87.62
191.76	-47.83
192.23	-146.14
192.7	-31.45
193.17	-82.94
193.64	-33.79
194.109	-31.45
194.579	13.02
195.049	-5.71
195.519	48.13
195.988	8.34
196.458	13.02
196.927	78.55
197.397	64.51
197.866	123.02
198.336	118.34
198.805	181.54
199.274	200.26
199.744	146.43
200.213	221.33
200.682	242.39
201.151	256.43
201.62	242.39
202.089	270.48
202.558	256.43
203.027	254.09
203.495	251.75
203.964	263.46
204.433	282.18
204.902	284.52
205.37	226.01
205.839	324.31
206.307	314.95
206.776	310.27
207.244	350.06
207.712	310.27
208.181	303.25
208.649	317.29
209.117	305.59
209.585	265.8
210.053	375.8
210.521	261.12
210.989	352.4
211.457	242.39
211.925	284.52
212.393	282.18
212.861	338.35
213.328	270.48
213.796	254.09
214.264	293.88
214.731	338.35
215.199	305.59
215.666	291.54
216.133	277.5
216.601	326.65
217.068	310.27
217.535	326.65
218.003	268.14
218.47	293.88
218.937	277.5
219.404	211.96
219.871	207.28
220.338	261.12
220.805	284.52
221.271	251.75
221.738	317.29
222.205	314.95
222.671	165.15
223.138	270.48
223.605	240.05
224.071	282.18
224.538	321.97
225.004	298.56
225.47	277.5
225.937	331.33
226.403	268.14
226.869	312.61
227.335	254.09
227.801	275.16
228.267	284.52
228.733	284.52
229.199	359.42
229.665	291.54
230.131	256.43
230.597	247.07
231.062	279.84
231.528	279.84
231.994	282.18
232.459	317.29
232.925	181.54
233.39	272.82
233.856	272.82
234.321	324.31
234.786	249.41
235.252	256.43
235.717	268.14
236.182	207.28
236.647	321.97
237.112	261.12
237.577	331.33
238.042	336.01
238.507	300.91
238.972	293.88
239.436	300.91
239.901	340.69
240.366	226.01
240.83	328.99
241.295	279.84
241.76	314.95
242.224	293.88
242.688	291.54
243.153	268.14
243.617	300.91
244.081	251.75
244.545	233.03
245.01	296.22
245.474	303.25
245.938	319.63
246.402	324.31
246.866	244.73
247.33	293.88
247.793	340.69
248.257	296.22
248.721	289.2
249.185	272.82
249.648	336.01
250.112	321.97
250.575	321.97
251.039	263.46
251.502	296.22
251.965	324.31
252.429	331.33
252.892	270.48
253.355	300.91
253.818	331.33
254.281	251.75
254.744	293.88
255.207	343.03
255.67	343.03
256.133	270.48
256.596	282.18
257.059	312.61
257.522	284.52
257.984	270.48
258.447	277.5
258.909	352.4
259.372	284.52
259.834	237.71
260.297	333.67
260.759	312.61
261.221	326.65
261.684	307.93
262.146	270.48
262.608	340.69
263.07	284.52
263.532	277.5
263.994	375.8
264.456	328.99
264.918	350.06
265.38	270.48
265.842	331.33
266.303	268.14
266.765	314.95
267.227	289.2
267.688	352.4
268.15	298.56
268.611	251.75
269.072	289.2
269.534	305.59
269.995	289.2
270.456	254.09
270.918	319.63
271.379	343.03
271.84	237.71
272.301	352.4
272.762	324.31
273.223	352.4
273.684	378.14
274.144	340.69
274.605	321.97
275.066	298.56
275.527	289.2
275.987	293.88
276.448	289.2
276.908	303.25
277.369	258.78
277.829	272.82
278.289	275.16
278.75	291.54
279.21	340.69
279.67	359.42
280.13	282.18
280.59	336.01
281.05	314.95
281.51	331.33
281.97	321.97
282.43	268.14
282.89	300.91
283.35	289.2
283.809	223.67
284.269	345.38
284.729	279.84
285.188	333.67
285.648	399.21
286.107	328.99
286.567	328.99
287.026	286.86
287.485	270.48
287.944	317.29
288.404	319.63
288.863	296.22
289.322	340.69
289.781	291.54
290.24	357.08
290.699	230.69
291.158	326.65
291.616	350.06
292.075	305.59
292.534	319.63
292.992	303.25
293.451	240.05
293.91	321.97
294.368	317.29
294.827	282.18
295.285	340.69
295.743	237.71
296.202	307.93
296.66	305.59
297.118	319.63
297.576	298.56
298.034	307.93
298.492	333.67
298.95	359.42
299.408	305.59
299.866	357.08
300.324	268.14
300.781	298.56
301.239	354.74
301.697	321.97
302.154	347.72
302.612	317.29
303.069	319.63
303.527	291.54
303.984	340.69
304.441	305.59
304.899	296.22
305.356	319.63
305.813	268.14
306.27	279.84
306.727	307.93
307.184	350.06
307.641	319.63
308.098	331.33
308.555	343.03
309.012	314.95
309.468	368.78
309.925	277.5
310.382	242.39
310.838	331.33
311.295	289.2
311.751	392.19
312.208	298.56
312.664	328.99
313.12	312.61
313.577	272.82
314.033	268.14
314.489	305.59
314.945	305.59
315.401	247.07
315.857	310.27
316.313	284.52
316.769	279.84
317.225	317.29
317.681	345.38
318.136	324.31
318.592	336.01
319.048	324.31
319.503	310.27
319.959	347.72
320.414	265.8
320.869	338.35
321.325	321.97
321.78	310.27
322.235	286.86
322.691	270.48
323.146	296.22
323.601	270.48
324.056	324.31
324.511	279.84
324.966	314.95
325.421	289.2
325.875	240.05
326.33	251.75
326.785	286.86
327.24	345.38
327.694	333.67
328.149	340.69
328.603	357.08
329.058	350.06
329.512	380.48
329.966	336.01
330.421	345.38
330.875	347.72
331.329	350.06
331.783	293.88
332.237	314.95
332.691	333.67
333.145	305.59
333.599	303.25
334.053	303.25
334.507	312.61
334.96	359.42
335.414	331.33
335.868	331.33
336.321	331.33
336.775	321.97
337.228	256.43
337.682	331.33
338.135	270.48
338.588	317.29
339.042	298.56
339.495	289.2
339.948	307.93
340.401	352.4
340.854	343.03
341.307	352.4
341.76	352.4
342.213	399.21
342.666	326.65
343.119	345.38
343.571	326.65
344.024	298.56
344.477	298.56
344.929	319.63
345.382	291.54
345.834	366.44
346.287	357.08
346.739	328.99
347.191	235.37
347.644	310.27
348.096	371.12
348.548	249.41
349	352.4
349.452	357.08
349.904	216.65
350.356	321.97
350.808	284.52
351.26	368.78
351.711	357.08
352.163	291.54
352.615	265.8
353.066	312.61
353.518	265.8
353.969	282.18
354.421	366.44
354.872	336.01
355.324	279.84
355.775	336.01
356.226	300.91
356.677	375.8
357.128	328.99
357.579	375.8
358.03	361.76
358.481	333.67
358.932	286.86
359.383	296.22
359.834	305.59
360.285	298.56
360.735	350.06
361.186	265.8
361.637	340.69
362.087	331.33
362.538	328.99
362.988	331.33
363.438	312.61
363.889	331.33
364.339	331.33
364.789	314.95
365.239	336.01
365.689	354.74
366.139	317.29
366.589	307.93
367.039	354.74
367.489	328.99
367.939	305.59
368.389	361.76
368.839	324.31
369.288	347.72
369.738	310.27
370.187	303.25
370.637	345.38
371.086	317.29
371.536	333.67
371.985	328.99
372.434	312.61
372.884	366.44
373.333	282.18
373.782	293.88
374.231	366.44
374.68	307.93
375.129	352.4
375.578	343.03
376.027	293.88
376.475	328.99
376.924	272.82
377.373	336.01
377.822	312.61
378.27	256.43
378.719	305.59
379.167	352.4
379.616	343.03
380.064	233.03
380.512	326.65
380.961	307.93
381.409	317.29
381.857	345.38
382.305	324.31
382.753	314.95
383.201	300.91
383.649	347.72
384.097	357.08
384.545	326.65
384.992	336.01
385.44	314.95
385.888	352.4
386.335	343.03
386.783	333.67
387.231	314.95
387.678	293.88
388.125	303.25
388.573	303.25
389.02	261.12
389.467	317.29
389.914	247.07
390.362	284.52
390.809	265.8
391.256	338.35
391.703	272.82
392.15	321.97
392.596	303.25
393.043	233.03
393.49	258.78
393.937	352.4
394.383	336.01
394.83	345.38
395.276	324.31
395.723	415.59
396.169	312.61
396.616	328.99
397.062	300.91
397.508	345.38
397.954	270.48
398.401	364.1
398.847	324.31
399.293	343.03
399.739	263.46
400.185	296.22
400.631	258.78
401.076	293.88
401.522	312.61
401.968	338.35
402.414	293.88
402.859	289.2
403.305	364.1
403.75	336.01
404.196	328.99
404.641	340.69
405.086	319.63
405.532	324.31
405.977	324.31
406.422	314.95
406.867	312.61
407.312	305.59
407.757	354.74
408.202	317.29
408.647	293.88
409.092	312.61
409.537	336.01
409.982	319.63
410.426	357.08
410.871	321.97
411.316	354.74
411.76	324.31
412.205	366.44
412.649	324.31
413.093	336.01
413.538	352.4
413.982	289.2
414.426	352.4
414.87	298.56
415.314	305.59
415.758	317.29
416.202	352.4
416.646	336.01
417.09	347.72
417.534	359.42
417.978	343.03
418.421	289.2
418.865	277.5
419.309	272.82
419.752	340.69
420.196	331.33
420.639	240.05
421.083	373.46
421.526	305.59
421.969	340.69
422.412	368.78
422.856	331.33
423.299	258.78
423.742	340.69
424.185	312.61
424.628	359.42
425.071	406.23
425.513	368.78
425.956	312.61
426.399	378.14
426.842	354.74
427.284	251.75
427.727	275.16
428.169	336.01
428.612	326.65
429.054	352.4
429.497	296.22
429.939	279.84
430.381	258.78
430.823	296.22
431.265	336.01
431.707	364.1
432.149	324.31
432.591	345.38
433.033	326.65
433.475	272.82
433.917	319.63
434.359	289.2
434.8	291.54
435.242	422.61
435.684	319.63
436.125	319.63
436.567	324.31
437.008	333.67
437.449	338.35
437.891	300.91
438.332	328.99
438.773	270.48
439.214	340.69
439.656	282.18
440.097	338.35
440.538	366.44
440.978	357.08
441.419	303.25
441.86	385.16
442.301	375.8
442.742	385.16
443.182	361.76
443.623	317.29
444.063	328.99
444.504	357.08
444.944	338.35
445.385	307.93
445.825	300.91
446.265	286.86
446.706	352.4
447.146	300.91
447.586	343.03
448.026	333.67
448.466	307.93
448.906	340.69
449.346	282.18
449.786	317.29
450.225	340.69
450.665	357.08
451.105	350.06
451.544	319.63
451.984	282.18
452.424	303.25
452.863	333.67
453.302	345.38
453.742	328.99
454.181	333.67
454.62	354.74
455.059	345.38
455.499	347.72
455.938	277.5
456.377	340.69
456.816	366.44
457.254	357.08
457.693	310.27
458.132	354.74
458.571	326.65
459.01	324.31
459.448	385.16
459.887	310.27
460.325	291.54
460.764	305.59
461.202	331.33
461.641	347.72
462.079	357.08
462.517	361.76
462.955	345.38
463.393	359.42
463.832	291.54
464.27	328.99
464.708	336.01
465.145	305.59
465.583	350.06
466.021	286.86
466.459	338.35
466.897	296.22
467.334	321.97
467.772	326.65
468.209	354.74
468.647	277.5
469.084	336.01
469.522	317.29
469.959	305.59
470.396	343.03
470.833	321.97
471.271	357.08
471.708	324.31
472.145	298.56
472.582	336.01
473.019	368.78
473.456	333.67
473.892	345.38
474.329	314.95
474.766	333.67
475.202	303.25
475.639	321.97
476.076	286.86
476.512	298.56
476.949	326.65
477.385	429.63
477.821	359.42
478.258	336.01
478.694	319.63
479.13	328.99
479.566	328.99
480.002	331.33
480.438	408.57
480.874	343.03
481.31	338.35
481.746	314.95
482.181	317.29
482.617	345.38
483.053	340.69
483.488	328.99
483.924	317.29
484.36	300.91
484.795	333.67
485.23	279.84
485.666	338.35
486.101	343.03
486.536	408.57
486.971	321.97
487.407	343.03
487.842	385.16
488.277	289.2
488.712	331.33
489.146	354.74
489.581	387.5
490.016	343.03
490.451	352.4
490.885	284.52
491.32	413.25
491.755	331.33
492.189	429.63
492.624	326.65
493.058	317.29
493.492	338.35
493.927	378.14
494.361	333.67
494.795	319.63
495.229	310.27
495.663	366.44
496.097	312.61
496.531	378.14
496.965	291.54
497.399	333.67
497.833	324.31
498.266	336.01
498.7	336.01
499.134	277.5
499.567	307.93
500.001	359.42
500.434	328.99
500.868	361.76
501.301	354.74
501.734	324.31
502.168	392.19
502.601	324.31
503.034	317.29
503.467	361.76
503.9	275.16
504.333	347.72
504.766	368.78
505.199	371.12
505.632	293.88
506.064	331.33
506.497	357.08
506.93	279.84
507.362	261.12
507.795	307.93
508.227	303.25
508.66	357.08
509.092	272.82
509.524	305.59
509.956	314.95
510.389	265.8
510.821	352.4
511.253	324.31
511.685	331.33
512.117	378.14
512.549	331.33
512.981	321.97
513.412	336.01
513.844	382.82
514.276	298.56
514.707	373.46
515.139	340.69
515.571	366.44
516.002	333.67
516.433	333.67
516.865	296.22
517.296	317.29
517.727	361.76
518.159	336.01
518.59	326.65
519.021	307.93
519.452	343.03
519.883	415.59
520.314	338.35
520.744	328.99
521.175	338.35
521.606	317.29
522.037	307.93
522.467	357.08
522.898	371.12
523.328	324.31
523.759	305.59
524.189	385.16
524.62	324.31
525.05	289.2
525.48	378.14
525.91	382.82
526.341	361.76
526.771	368.78
527.201	338.35
527.631	265.8
528.061	300.91
528.49	340.69
528.92	284.52
529.35	314.95
529.78	345.38
530.209	333.67
530.639	321.97
531.068	336.01
531.498	373.46
531.927	328.99
532.357	321.97
532.786	350.06
533.215	333.67
533.644	296.22
534.074	319.63
534.503	275.16
534.932	312.61
535.361	284.52
535.79	331.33
536.218	272.82
536.647	317.29
537.076	298.56
537.505	331.33
537.933	331.33
538.362	282.18
538.79	268.14
539.219	333.67
539.647	336.01
540.076	364.1
540.504	282.18
540.932	312.61
541.36	303.25
541.788	333.67
542.217	268.14
542.645	371.12
543.073	317.29
543.5	359.42
543.928	345.38
544.356	317.29
544.784	350.06
545.211	347.72
545.639	387.5
546.067	343.03
546.494	314.95
546.922	340.69
547.349	343.03
547.776	345.38
548.204	307.93
548.631	345.38
549.058	354.74
549.485	359.42
549.912	324.31
550.339	343.03
550.766	305.59
551.193	343.03
551.62	317.29
552.047	354.74
552.474	350.06
552.9	373.46
553.327	331.33
553.754	319.63
554.18	263.46
554.607	336.01
555.033	286.86
555.459	270.48
555.886	286.86
556.312	357.08
556.738	347.72
557.164	321.97
557.59	361.76
558.016	284.52
558.442	282.18
558.868	314.95
559.294	368.78
559.72	350.06
560.145	317.29
560.571	310.27
560.997	293.88
561.422	340.69
561.848	345.38
562.273	310.27
562.699	333.67
563.124	265.8
563.549	326.65
563.974	324.31
564.4	296.22
564.825	326.65
565.25	303.25
565.675	286.86
566.1	307.93
566.525	336.01
566.95	324.31
567.374	303.25
567.799	350.06
568.224	291.54
568.648	394.53
569.073	321.97
569.497	303.25
569.922	284.52
570.346	310.27
570.771	380.48
571.195	279.84
571.619	368.78
572.043	326.65
572.467	352.4
572.891	336.01
573.315	357.08
573.739	307.93
574.163	328.99
574.587	326.65
575.011	291.54
575.435	338.35
575.858	314.95
576.282	310.27
576.705	371.12
577.129	343.03
577.552	333.67
577.976	321.97
578.399	338.35
578.822	331.33
579.245	359.42
579.669	340.69
580.092	392.19
580.515	324.31
580.938	312.61
581.361	378.14
581.784	303.25
582.206	343.03
582.629	326.65
583.052	312.61
583.474	354.74
583.897	354.74
584.32	307.93
584.742	310.27
585.165	321.97
585.587	338.35
586.009	314.95
586.431	347.72
586.854	324.31
587.276	364.1
587.698	333.67
588.12	354.74
588.542	310.27
588.964	293.88
589.386	324.31
589.807	326.65
590.229	282.18
590.651	361.76
591.073	279.84
591.494	307.93
591.916	361.76
592.337	291.54
592.759	350.06
593.18	328.99
593.601	296.22
594.022	251.75
594.444	314.95
594.865	336.01
595.286	268.14
595.707	331.33
596.128	296.22
596.549	303.25
596.97	380.48
597.39	340.69
597.811	336.01
598.232	336.01
598.652	303.25
599.073	289.2
599.494	321.97
599.914	366.44
600.334	403.89
600.755	345.38
601.175	357.08
601.595	382.82
602.015	352.4
602.436	296.22
602.856	455.38
603.276	361.76
603.696	361.76
604.115	368.78
604.535	378.14
604.955	345.38
605.375	321.97
605.794	289.2
606.214	307.93
606.634	326.65
607.053	305.59
607.473	312.61
607.892	328.99
608.311	413.25
608.731	324.31
609.15	331.33
609.569	336.01
609.988	361.76
610.407	319.63
610.826	336.01
611.245	387.5
611.664	324.31
612.083	350.06
612.501	291.54
612.92	310.27
613.339	364.1
613.757	307.93
614.176	359.42
614.594	300.91
615.013	380.48
615.431	282.18
615.85	286.86
616.268	331.33
616.686	305.59
617.104	326.65
617.522	258.78
617.94	326.65
618.358	256.43
618.776	336.01
619.194	338.35
619.612	350.06
620.03	300.91
620.447	326.65
620.865	277.5
621.282	333.67
621.7	368.78
622.117	333.67
622.535	333.67
622.952	345.38
623.369	275.16
623.787	298.56
624.204	340.69
624.621	331.33
625.038	314.95
625.455	345.38
625.872	333.67
626.289	303.25
626.706	373.46
627.123	293.88
627.539	380.48
627.956	321.97
628.373	317.29
628.789	357.08
629.206	345.38
629.622	345.38
630.038	364.1
630.455	333.67
630.871	333.67
631.287	282.18
631.703	254.09
632.12	352.4
632.536	307.93
632.952	265.8
633.368	324.31
633.783	282.18
634.199	303.25
634.615	333.67
635.031	326.65
635.446	317.29
635.862	338.35
636.277	317.29
636.693	307.93
637.108	314.95
637.524	333.67
637.939	361.76
638.354	371.12
638.77	263.46
639.185	298.56
639.6	340.69
640.015	237.71
640.43	326.65
640.845	314.95
641.259	272.82
641.674	307.93
642.089	312.61
642.504	338.35
642.918	373.46
643.333	328.99
643.747	310.27
644.162	298.56
644.576	343.03
644.991	361.76
645.405	328.99
645.819	282.18
646.233	352.4
646.647	415.59
647.061	321.97
647.475	385.16
647.889	314.95
648.303	293.88
648.717	364.1
649.131	340.69
649.545	310.27
649.958	317.29
650.372	350.06
650.785	347.72
651.199	326.65
651.612	357.08
652.026	338.35
652.439	312.61
652.852	328.99
653.266	338.35
653.679	361.76
654.092	389.85
654.505	336.01
654.918	324.31
655.331	375.8
655.744	350.06
656.156	321.97
656.569	333.67
656.982	307.93
657.394	347.72
657.807	317.29
658.22	336.01
658.632	340.69
659.044	347.72
659.457	310.27
659.869	310.27
660.281	338.35
660.693	275.16
661.106	300.91
661.518	343.03
661.93	366.44
662.342	310.27
662.754	354.74
663.165	324.31
663.577	354.74
663.989	328.99
664.401	333.67
664.812	380.48
665.224	326.65
665.635	361.76
666.047	296.22
666.458	378.14
666.869	265.8
667.281	300.91
667.692	387.5
668.103	317.29
668.514	326.65
668.925	293.88
669.336	282.18
669.747	312.61
670.158	375.8
670.569	305.59
670.979	340.69
671.39	385.16
671.801	368.78
672.211	361.76
672.622	289.2
673.032	317.29
673.443	366.44
673.853	368.78
674.263	307.93
674.674	319.63
675.084	347.72
675.494	324.31
675.904	307.93
676.314	361.76
676.724	310.27
677.134	343.03
677.544	336.01
677.953	347.72
678.363	279.84
678.773	333.67
679.182	312.61
679.592	286.86
680.001	328.99
680.411	338.35
680.82	317.29
681.23	326.65
681.639	317.29
682.048	286.86
682.457	324.31
682.866	371.12
683.275	319.63
683.684	310.27
684.093	312.61
684.502	312.61
684.911	279.84
685.32	314.95
685.728	305.59
686.137	293.88
686.546	265.8
686.954	319.63
687.363	340.69
687.771	396.87
688.179	350.06
688.588	378.14
688.996	286.86
689.404	368.78
689.812	350.06
690.22	401.55
690.628	298.56
691.036	359.42
691.444	284.52
691.852	321.97
692.26	314.95
692.667	324.31
693.075	336.01
693.483	321.97
693.89	307.93
694.298	336.01
694.705	289.2
695.112	314.95
695.52	336.01
695.927	333.67
696.334	357.08
696.741	385.16
697.148	312.61
697.555	282.18
697.962	270.48
698.369	366.44
698.776	328.99
699.183	331.33
699.59	333.67
699.996	291.54
700.403	324.31
700.81	361.76
701.216	298.56
701.623	382.82
702.029	296.22
702.435	326.65
702.842	293.88
703.248	366.44
703.654	305.59
704.06	303.25
704.466	300.91
704.872	303.25
705.278	314.95
705.684	354.74
706.09	336.01
706.496	310.27
706.901	298.56
707.307	265.8
707.712	282.18
708.118	371.12
708.523	296.22
708.929	319.63
709.334	298.56
709.74	310.27
710.145	336.01
710.55	321.97
710.955	282.18
711.36	282.18
711.765	286.86
712.17	361.76
712.575	368.78
712.98	853.27
713.385	347.72
713.789	326.65
714.194	317.29
714.599	373.46
715.003	380.48
715.408	305.59
715.812	328.99
716.217	286.86
716.621	291.54
717.025	331.33
717.429	345.38
717.833	291.54
718.238	340.69
718.642	352.4
719.046	326.65
719.449	305.59
719.853	366.44
720.257	354.74
720.661	289.2
721.065	371.12
721.468	321.97
721.872	258.78
722.275	277.5
722.679	371.12
723.082	345.38
723.485	401.55
723.889	331.33
724.292	312.61
724.695	317.29
725.098	282.18
725.501	258.78
725.904	331.33
726.307	331.33
726.71	338.35
727.113	319.63
727.516	321.97
727.918	410.91
728.321	392.19
728.724	286.86
729.126	338.35
729.529	312.61
729.931	324.31
730.333	305.59
730.736	256.43
731.138	310.27
731.54	354.74
731.942	378.14
732.344	312.61
732.746	354.74
733.148	343.03
733.55	375.8
733.952	378.14
734.354	317.29
734.756	352.4
735.157	293.88
735.559	296.22
735.96	303.25
736.362	347.72
736.763	289.2
737.165	307.93
737.566	261.12
737.967	336.01
738.368	343.03
738.77	319.63
739.171	333.67
739.572	291.54
739.973	230.69
740.374	321.97
740.774	319.63
741.175	359.42
741.576	319.63
741.977	261.12
742.377	350.06
742.778	324.31
743.178	368.78
743.579	258.78
743.979	300.91
744.379	284.52
744.78	354.74
745.18	293.88
745.58	312.61
745.98	296.22
746.38	307.93
746.78	338.35
747.18	321.97
747.58	326.65
747.98	303.25
748.38	296.22
748.779	296.22
749.179	307.93
749.578	310.27
749.978	279.84
750.377	303.25
750.777	307.93
751.176	338.35
751.575	305.59
751.975	352.4
752.374	317.29
752.773	343.03
753.172	282.18
753.571	331.33
753.97	359.42
754.369	300.91
754.768	387.5
755.166	286.86
755.565	321.97
755.964	317.29
756.362	328.99
756.761	293.88
757.159	364.1
757.558	359.42
757.956	296.22
758.354	314.95
758.753	368.78
759.151	324.31
759.549	289.2
759.947	307.93
760.345	289.2
760.743	350.06
761.141	345.38
761.539	357.08
761.936	371.12
762.334	352.4
762.732	261.12
763.129	310.27
763.527	291.54
763.924	364.1
764.322	378.14
