Data from Al_FLMS009871__1105__16-31-46-900.txt Node

Date: Fri Mar 08 16:31:46 CST 2024
User: pe5414po
Spectrometer: FLMS00987
Trigger mode: 0
Integration Time (sec): 1.000000E-1
Scans to average: 1
Electric dark correction enabled: true
Nonlinearity correction enabled: false
Boxcar width: 0
XAxis mode: Wavelengths
Number of Pixels in Spectrum: 2048
>>>>>Begin Spectral Data<<<<<
188.938	-93.04
189.409	-93.04
189.879	-93.04
190.349	-93.04
190.819	-149.21
191.29	-158.57
191.76	-60.27
192.23	-71.97
192.7	-125.8
193.17	-83.67
193.64	-4.1
194.109	-57.93
194.579	-1.76
195.049	2.93
195.519	9.95
195.988	35.69
196.458	42.71
196.927	94.21
197.397	73.14
197.866	136.34
198.336	169.1
198.805	129.31
199.274	136.34
199.744	215.91
200.213	218.25
200.682	141.02
201.151	215.91
201.62	208.89
202.089	183.15
202.558	218.25
203.027	211.23
203.495	276.77
203.964	241.66
204.433	227.62
204.902	297.83
205.37	269.75
205.839	279.11
206.307	281.45
206.776	297.83
207.244	281.45
207.712	253.36
208.181	290.81
208.649	318.9
209.117	281.45
209.585	318.9
210.053	244
210.521	304.85
210.989	342.3
211.457	309.54
211.925	346.98
212.393	276.77
212.861	265.07
213.328	241.66
213.796	244
214.264	267.41
214.731	251.02
215.199	283.79
215.666	253.36
216.133	239.32
216.601	241.66
217.068	281.45
217.535	297.83
218.003	262.73
218.47	232.3
218.937	262.73
219.404	234.64
219.871	300.17
220.338	197.19
220.805	248.68
221.271	229.96
221.738	215.91
222.205	211.23
222.671	225.28
223.138	218.25
223.605	279.11
224.071	239.32
224.538	288.47
225.004	234.64
225.47	265.07
225.937	220.6
226.403	255.7
226.869	258.04
227.335	253.36
227.801	255.7
228.267	260.38
228.733	232.3
229.199	307.2
229.665	244
230.131	260.38
230.597	253.36
231.062	276.77
231.528	276.77
231.994	215.91
232.459	300.17
232.925	258.04
233.39	246.34
233.856	265.07
234.321	314.22
234.786	229.96
235.252	260.38
235.717	260.38
236.182	218.25
236.647	321.24
237.112	232.3
237.577	239.32
238.042	281.45
238.507	236.98
238.972	335.28
239.436	248.68
239.901	241.66
240.366	262.73
240.83	251.02
241.295	295.49
241.76	330.6
242.224	309.54
242.688	276.77
243.153	272.09
243.617	171.44
244.081	208.89
244.545	244
245.01	213.57
245.474	267.41
245.938	283.79
246.402	269.75
246.866	239.32
247.33	262.73
247.793	307.2
248.257	311.88
248.721	267.41
249.185	302.51
249.648	295.49
250.112	286.13
250.575	307.2
251.039	283.79
251.502	236.98
251.965	255.7
252.429	251.02
252.892	309.54
253.355	283.79
253.818	283.79
254.281	307.2
254.744	300.17
255.207	258.04
255.67	335.28
256.133	302.51
256.596	234.64
257.059	346.98
257.522	265.07
257.984	318.9
258.447	260.38
258.909	314.22
259.372	258.04
259.834	251.02
260.297	244
260.759	248.68
261.221	222.94
261.684	222.94
262.146	267.41
262.608	248.68
263.07	339.96
263.532	318.9
263.994	295.49
264.456	279.11
264.918	302.51
265.38	251.02
265.842	272.09
266.303	274.43
266.765	286.13
267.227	260.38
267.688	244
268.15	309.54
268.611	232.3
269.072	260.38
269.534	267.41
269.995	281.45
270.456	295.49
270.918	290.81
271.379	337.62
271.84	307.2
272.301	309.54
272.762	255.7
273.223	314.22
273.684	258.04
274.144	253.36
274.605	286.13
275.066	321.24
275.527	302.51
275.987	307.2
276.448	262.73
276.908	302.51
277.369	297.83
277.829	227.62
278.289	351.67
278.75	244
279.21	288.47
279.67	239.32
280.13	316.56
280.59	339.96
281.05	286.13
281.51	346.98
281.97	302.51
282.43	309.54
282.89	311.88
283.35	311.88
283.809	248.68
284.269	274.43
284.729	300.17
285.188	222.94
285.648	246.34
286.107	218.25
286.567	283.79
287.026	337.62
287.485	281.45
287.944	293.15
288.404	316.56
288.863	269.75
289.322	258.04
289.781	318.9
290.24	316.56
290.699	323.58
291.158	244
291.616	288.47
292.075	328.26
292.534	258.04
292.992	265.07
293.451	197.19
293.91	295.49
294.368	290.81
294.827	302.51
295.285	330.6
295.743	244
296.202	274.43
296.66	267.41
297.118	293.15
297.576	321.24
298.034	290.81
298.492	232.3
298.95	279.11
299.408	269.75
299.866	316.56
300.324	375.07
300.781	272.09
301.239	328.26
301.697	328.26
302.154	258.04
302.612	183.15
303.069	295.49
303.527	309.54
303.984	318.9
304.441	293.15
304.899	321.24
305.356	344.64
305.813	300.17
306.27	328.26
306.727	344.64
307.184	293.15
307.641	262.73
308.098	304.85
308.555	276.77
309.012	248.68
309.468	279.11
309.925	262.73
310.382	335.28
310.838	297.83
311.295	316.56
311.751	272.09
312.208	314.22
312.664	286.13
313.12	286.13
313.577	314.22
314.033	304.85
314.489	297.83
314.945	246.34
315.401	297.83
315.857	302.51
316.313	321.24
316.769	300.17
317.225	311.88
317.681	337.62
318.136	330.6
318.592	288.47
319.048	332.94
319.503	246.34
319.959	361.03
320.414	274.43
320.869	346.98
321.325	269.75
321.78	297.83
322.235	293.15
322.691	265.07
323.146	286.13
323.601	328.26
324.056	225.28
324.511	293.15
324.966	316.56
325.421	311.88
325.875	295.49
326.33	290.81
326.785	307.2
327.24	346.98
327.694	283.79
328.149	274.43
328.603	276.77
329.058	276.77
329.512	356.35
329.966	339.96
330.421	260.38
330.875	302.51
331.329	321.24
331.783	276.77
332.237	302.51
332.691	351.67
333.145	302.51
333.599	321.24
334.053	283.79
334.507	279.11
334.96	316.56
335.414	302.51
335.868	316.56
336.321	354.01
336.775	229.96
337.228	314.22
337.682	311.88
338.135	286.13
338.588	314.22
339.042	335.28
339.495	302.51
339.948	316.56
340.401	358.69
340.854	265.07
341.307	309.54
341.76	321.24
342.213	290.81
342.666	307.2
343.119	269.75
343.571	318.9
344.024	269.75
344.477	295.49
344.929	248.68
345.382	300.17
345.834	290.81
346.287	225.28
346.739	372.73
347.191	246.34
347.644	295.49
348.096	318.9
348.548	309.54
349	267.41
349.452	269.75
349.904	311.88
350.356	342.3
350.808	328.26
351.26	251.02
351.711	281.45
352.163	321.24
352.615	279.11
353.066	276.77
353.518	281.45
353.969	262.73
354.421	321.24
354.872	258.04
355.324	363.37
355.775	267.41
356.226	239.32
356.677	372.73
357.128	358.69
357.579	304.85
358.03	325.92
358.481	330.6
358.932	290.81
359.383	344.64
359.834	339.96
360.285	262.73
360.735	316.56
361.186	276.77
361.637	295.49
362.087	311.88
362.538	356.35
362.988	379.75
363.438	311.88
363.889	335.28
364.339	288.47
364.789	332.94
365.239	297.83
365.689	251.02
366.139	300.17
366.589	234.64
367.039	269.75
367.489	253.36
367.939	346.98
368.389	281.45
368.839	295.49
369.288	281.45
369.738	253.36
370.187	272.09
370.637	309.54
371.086	194.85
371.536	314.22
371.985	304.85
372.434	276.77
372.884	337.62
373.333	244
373.782	269.75
374.231	255.7
374.68	335.28
375.129	234.64
375.578	328.26
376.027	304.85
376.475	325.92
376.924	300.17
377.373	309.54
377.822	328.26
378.27	297.83
378.719	276.77
379.167	309.54
379.616	337.62
380.064	370.39
380.512	300.17
380.961	251.02
381.409	295.49
381.857	332.94
382.305	274.43
382.753	342.3
383.201	314.22
383.649	311.88
384.097	302.51
384.545	297.83
384.992	260.38
385.44	321.24
385.888	227.62
386.335	344.64
386.783	272.09
387.231	276.77
387.678	279.11
388.125	344.64
388.573	323.58
389.02	309.54
389.467	372.73
389.914	272.09
390.362	253.36
390.809	269.75
391.256	365.71
391.703	276.77
392.15	323.58
392.596	281.45
393.043	309.54
393.49	318.9
393.937	335.28
394.383	339.96
394.83	361.03
395.276	328.26
395.723	304.85
396.169	337.62
396.616	293.15
397.062	279.11
397.508	262.73
397.954	325.92
398.401	365.71
398.847	344.64
399.293	318.9
399.739	267.41
400.185	272.09
400.631	337.62
401.076	309.54
401.522	342.3
401.968	274.43
402.414	281.45
402.859	323.58
403.305	304.85
403.75	260.38
404.196	311.88
404.641	248.68
405.086	325.92
405.532	316.56
405.977	295.49
406.422	311.88
406.867	255.7
407.312	272.09
407.757	323.58
408.202	354.01
408.647	335.28
409.092	344.64
409.537	304.85
409.982	307.2
410.426	281.45
410.871	304.85
411.316	267.41
411.76	274.43
412.205	309.54
412.649	272.09
413.093	325.92
413.538	288.47
413.982	288.47
414.426	290.81
414.87	318.9
415.314	351.67
415.758	290.81
416.202	389.11
416.646	342.3
417.09	267.41
417.534	288.47
417.978	342.3
418.421	335.28
418.865	283.79
419.309	265.07
419.752	328.26
420.196	344.64
420.639	328.26
421.083	311.88
421.526	274.43
421.969	304.85
422.412	286.13
422.856	258.04
423.299	335.28
423.742	297.83
424.185	316.56
424.628	344.64
425.071	321.24
425.513	309.54
425.956	314.22
426.399	309.54
426.842	323.58
427.284	283.79
427.727	281.45
428.169	396.14
428.612	332.94
429.054	344.64
429.497	363.37
429.939	361.03
430.381	274.43
430.823	255.7
431.265	314.22
431.707	286.13
432.149	344.64
432.591	325.92
433.033	293.15
433.475	283.79
433.917	302.51
434.359	318.9
434.8	342.3
435.242	354.01
435.684	246.34
436.125	311.88
436.567	286.13
437.008	279.11
437.449	300.17
437.891	400.82
438.332	307.2
438.773	288.47
439.214	304.85
439.656	300.17
440.097	304.85
440.538	295.49
440.978	300.17
441.419	251.02
441.86	314.22
442.301	321.24
442.742	325.92
443.182	276.77
443.623	332.94
444.063	293.15
444.504	335.28
444.944	295.49
445.385	321.24
445.825	372.73
446.265	293.15
446.706	295.49
447.146	274.43
447.586	349.32
448.026	337.62
448.466	335.28
448.906	311.88
449.346	260.38
449.786	246.34
450.225	290.81
450.665	262.73
451.105	349.32
451.544	393.8
451.984	302.51
452.424	300.17
452.863	356.35
453.302	297.83
453.742	286.13
454.181	330.6
454.62	318.9
455.059	328.26
455.499	290.81
455.938	297.83
456.377	335.28
456.816	286.13
457.254	337.62
457.693	323.58
458.132	304.85
458.571	281.45
459.01	297.83
459.448	304.85
459.887	358.69
460.325	391.45
460.764	356.35
461.202	281.45
461.641	311.88
462.079	330.6
462.517	346.98
462.955	332.94
463.393	323.58
463.832	321.24
464.27	269.75
464.708	323.58
465.145	330.6
465.583	325.92
466.021	307.2
466.459	361.03
466.897	325.92
467.334	283.79
467.772	328.26
468.209	281.45
468.647	302.51
469.084	309.54
469.522	302.51
469.959	337.62
470.396	314.22
470.833	311.88
471.271	314.22
471.708	311.88
472.145	309.54
472.582	297.83
473.019	335.28
473.456	386.77
473.892	311.88
474.329	262.73
474.766	290.81
475.202	337.62
475.639	311.88
476.076	269.75
476.512	244
476.949	351.67
477.385	304.85
477.821	297.83
478.258	337.62
478.694	309.54
479.13	349.32
479.566	293.15
480.002	267.41
480.438	253.36
480.874	323.58
481.31	288.47
481.746	330.6
482.181	339.96
482.617	379.75
483.053	283.79
483.488	304.85
483.924	344.64
484.36	302.51
484.795	321.24
485.23	293.15
485.666	316.56
486.101	346.98
486.536	297.83
486.971	302.51
487.407	335.28
487.842	361.03
488.277	323.58
488.712	276.77
489.146	311.88
489.581	351.67
490.016	377.41
490.451	297.83
490.885	283.79
491.32	330.6
491.755	297.83
492.189	302.51
492.624	328.26
493.058	344.64
493.492	311.88
493.927	337.62
494.361	297.83
494.795	323.58
495.229	370.39
495.663	293.15
496.097	304.85
496.531	267.41
496.965	363.37
497.399	302.51
497.833	325.92
498.266	339.96
498.7	307.2
499.134	262.73
499.567	325.92
500.001	314.22
500.434	307.2
500.868	290.81
501.301	253.36
501.734	318.9
502.168	274.43
502.601	318.9
503.034	328.26
503.467	300.17
503.9	300.17
504.333	325.92
504.766	389.11
505.199	332.94
505.632	328.26
506.064	290.81
506.497	314.22
506.93	288.47
507.362	339.96
507.795	370.39
508.227	314.22
508.66	335.28
509.092	351.67
509.524	339.96
509.956	297.83
510.389	297.83
510.821	323.58
511.253	335.28
511.685	330.6
512.117	309.54
512.549	300.17
512.981	339.96
513.412	309.54
513.844	297.83
514.276	295.49
514.707	332.94
515.139	316.56
515.571	258.04
516.002	318.9
516.433	354.01
516.865	274.43
517.296	328.26
517.727	377.41
518.159	323.58
518.59	337.62
519.021	269.75
519.452	318.9
519.883	302.51
520.314	288.47
520.744	337.62
521.175	323.58
521.606	370.39
522.037	344.64
522.467	328.26
522.898	262.73
523.328	288.47
523.759	307.2
524.189	314.22
524.62	421.88
525.05	253.36
525.48	258.04
525.91	290.81
526.341	279.11
526.771	281.45
527.201	276.77
527.631	279.11
528.061	346.98
528.49	361.03
528.92	295.49
529.35	311.88
529.78	300.17
530.209	290.81
530.639	316.56
531.068	293.15
531.498	344.64
531.927	267.41
532.357	379.75
532.786	253.36
533.215	316.56
533.644	239.32
534.074	316.56
534.503	307.2
534.932	281.45
535.361	393.8
535.79	335.28
536.218	295.49
536.647	258.04
537.076	300.17
537.505	318.9
537.933	328.26
538.362	255.7
538.79	302.51
539.219	314.22
539.647	332.94
540.076	276.77
540.504	302.51
540.932	251.02
541.36	302.51
541.788	297.83
542.217	307.2
542.645	283.79
543.073	328.26
543.5	260.38
543.928	244
544.356	314.22
544.784	382.09
545.211	318.9
545.639	370.39
546.067	314.22
546.494	325.92
546.922	267.41
547.349	276.77
547.776	330.6
548.204	377.41
548.631	248.68
549.058	260.38
549.485	372.73
549.912	251.02
550.339	358.69
550.766	297.83
551.193	295.49
551.62	337.62
552.047	356.35
552.474	316.56
552.9	393.8
553.327	283.79
553.754	314.22
554.18	281.45
554.607	412.52
555.033	309.54
555.459	311.88
555.886	269.75
556.312	262.73
556.738	272.09
557.164	220.6
557.59	307.2
558.016	281.45
558.442	258.04
558.868	332.94
559.294	293.15
559.72	258.04
560.145	309.54
560.571	321.24
560.997	302.51
561.422	288.47
561.848	255.7
562.273	318.9
562.699	311.88
563.124	274.43
563.549	365.71
563.974	255.7
564.4	342.3
564.825	311.88
565.25	400.82
565.675	272.09
566.1	339.96
566.525	283.79
566.95	279.11
567.374	318.9
567.799	300.17
568.224	265.07
568.648	302.51
569.073	234.64
569.497	286.13
569.922	328.26
570.346	251.02
570.771	335.28
571.195	281.45
571.619	283.79
572.043	258.04
572.467	290.81
572.891	309.54
573.315	337.62
573.739	279.11
574.163	274.43
574.587	332.94
575.011	351.67
575.435	253.36
575.858	304.85
576.282	316.56
576.705	293.15
577.129	339.96
577.552	332.94
577.976	293.15
578.399	309.54
578.822	288.47
579.245	274.43
579.669	335.28
580.092	302.51
580.515	365.71
580.938	379.75
581.361	302.51
581.784	356.35
582.206	302.51
582.629	295.49
583.052	344.64
583.474	283.79
583.897	304.85
584.32	368.05
584.742	321.24
585.165	290.81
585.587	321.24
586.009	339.96
586.431	288.47
586.854	349.32
587.276	346.98
587.698	302.51
588.12	283.79
588.542	309.54
588.964	382.09
589.386	286.13
589.807	293.15
590.229	293.15
590.651	272.09
591.073	262.73
591.494	335.28
591.916	316.56
592.337	297.83
592.759	281.45
593.18	328.26
593.601	295.49
594.022	328.26
594.444	351.67
594.865	253.36
595.286	244
595.707	307.2
596.128	290.81
596.549	293.15
596.97	276.77
597.39	328.26
597.811	281.45
598.232	211.23
598.652	288.47
599.073	349.32
599.494	314.22
599.914	323.58
600.334	265.07
600.755	342.3
601.175	297.83
601.595	307.2
602.015	307.2
602.436	307.2
602.856	414.86
603.276	290.81
603.696	314.22
604.115	286.13
604.535	234.64
604.955	265.07
605.375	346.98
605.794	293.15
606.214	274.43
606.634	272.09
607.053	293.15
607.473	318.9
607.892	232.3
608.311	311.88
608.731	356.35
609.15	302.51
609.569	300.17
609.988	272.09
610.407	339.96
610.826	332.94
611.245	302.51
611.664	300.17
612.083	314.22
612.501	316.56
612.92	321.24
613.339	297.83
613.757	318.9
614.176	288.47
614.594	258.04
615.013	330.6
615.431	262.73
615.85	253.36
616.268	244
616.686	274.43
617.104	297.83
617.522	300.17
617.94	309.54
618.358	295.49
618.776	274.43
619.194	300.17
619.612	346.98
620.03	314.22
620.447	321.24
620.865	302.51
621.282	365.71
621.7	323.58
622.117	302.51
622.535	349.32
622.952	354.01
623.369	314.22
623.787	283.79
624.204	190.17
624.621	335.28
625.038	295.49
625.455	311.88
625.872	349.32
626.289	297.83
626.706	337.62
627.123	283.79
627.539	236.98
627.956	339.96
628.373	337.62
628.789	323.58
629.206	354.01
629.622	293.15
630.038	321.24
630.455	304.85
630.871	307.2
631.287	309.54
631.703	368.05
632.12	321.24
632.536	297.83
632.952	281.45
633.368	361.03
633.783	227.62
634.199	316.56
634.615	300.17
635.031	361.03
635.446	236.98
635.862	293.15
636.277	403.16
636.693	276.77
637.108	302.51
637.524	274.43
637.939	325.92
638.354	276.77
638.77	311.88
639.185	297.83
639.6	283.79
640.015	314.22
640.43	283.79
640.845	288.47
641.259	276.77
641.674	288.47
642.089	321.24
642.504	251.02
642.918	286.13
643.333	335.28
643.747	379.75
644.162	260.38
644.576	304.85
644.991	293.15
645.405	342.3
645.819	316.56
646.233	328.26
646.647	339.96
647.061	283.79
647.475	297.83
647.889	300.17
648.303	346.98
648.717	279.11
649.131	307.2
649.545	314.22
649.958	304.85
650.372	337.62
650.785	286.13
651.199	361.03
651.612	349.32
652.026	349.32
652.439	314.22
652.852	339.96
653.266	255.7
653.679	321.24
654.092	297.83
654.505	330.6
654.918	283.79
655.331	293.15
655.744	288.47
656.156	361.03
656.569	316.56
656.982	358.69
657.394	321.24
657.807	328.26
658.22	269.75
658.632	304.85
659.044	321.24
659.457	251.02
659.869	337.62
660.281	300.17
660.693	293.15
661.106	316.56
661.518	272.09
661.93	290.81
662.342	300.17
662.754	307.2
663.165	332.94
663.577	281.45
663.989	346.98
664.401	295.49
664.812	351.67
665.224	316.56
665.635	276.77
666.047	276.77
666.458	288.47
666.869	335.28
667.281	295.49
667.692	269.75
668.103	283.79
668.514	272.09
668.925	351.67
669.336	321.24
669.747	332.94
670.158	400.82
670.569	309.54
670.979	293.15
671.39	297.83
671.801	344.64
672.211	323.58
672.622	244
673.032	297.83
673.443	346.98
673.853	295.49
674.263	344.64
674.674	253.36
675.084	262.73
675.494	346.98
675.904	330.6
676.314	346.98
676.724	337.62
677.134	258.04
677.544	248.68
677.953	339.96
678.363	337.62
678.773	407.84
679.182	311.88
679.592	283.79
680.001	354.01
680.411	309.54
680.82	363.37
681.23	288.47
681.639	307.2
682.048	272.09
682.457	314.22
682.866	304.85
683.275	309.54
683.684	309.54
684.093	295.49
684.502	316.56
684.911	255.7
685.32	309.54
685.728	337.62
686.137	325.92
686.546	342.3
686.954	368.05
687.363	323.58
687.771	290.81
688.179	244
688.588	302.51
688.996	302.51
689.404	330.6
689.812	286.13
690.22	346.98
690.628	344.64
691.036	279.11
691.444	339.96
691.852	330.6
692.26	318.9
692.667	342.3
693.075	318.9
693.483	269.75
693.89	358.69
694.298	304.85
694.705	297.83
695.112	370.39
695.52	370.39
695.927	302.51
696.334	368.05
696.741	267.41
697.148	302.51
697.555	288.47
697.962	293.15
698.369	274.43
698.776	288.47
699.183	311.88
699.59	267.41
699.996	330.6
700.403	330.6
700.81	342.3
701.216	269.75
701.623	316.56
702.029	339.96
702.435	372.73
702.842	316.56
703.248	351.67
703.654	328.26
704.06	297.83
704.466	309.54
704.872	342.3
705.278	316.56
705.684	337.62
706.09	272.09
706.496	370.39
706.901	316.56
707.307	365.71
707.712	262.73
708.118	356.35
708.523	288.47
708.929	323.58
709.334	290.81
709.74	290.81
710.145	332.94
710.55	286.13
710.955	335.28
711.36	281.45
711.765	318.9
712.17	297.83
712.575	288.47
712.98	861.9
713.385	323.58
713.789	276.77
714.194	262.73
714.599	328.26
715.003	267.41
715.408	283.79
715.812	307.2
716.217	300.17
716.621	332.94
717.025	307.2
717.429	316.56
717.833	361.03
718.238	365.71
718.642	335.28
719.046	234.64
719.449	276.77
719.853	335.28
720.257	314.22
720.661	361.03
721.065	318.9
721.468	335.28
721.872	328.26
722.275	302.51
722.679	293.15
723.082	346.98
723.485	295.49
723.889	290.81
724.292	218.25
724.695	335.28
725.098	295.49
725.501	372.73
725.904	215.91
726.307	279.11
726.71	346.98
727.113	297.83
727.516	262.73
727.918	276.77
728.321	286.13
728.724	365.71
729.126	286.13
729.529	318.9
729.931	325.92
730.333	283.79
730.736	351.67
731.138	283.79
731.54	351.67
731.942	290.81
732.344	335.28
732.746	321.24
733.148	330.6
733.55	236.98
733.952	286.13
734.354	276.77
734.756	335.28
735.157	321.24
735.559	279.11
735.96	297.83
736.362	335.28
736.763	332.94
737.165	330.6
737.566	346.98
737.967	328.26
738.368	342.3
738.77	307.2
739.171	307.2
739.572	323.58
739.973	351.67
740.374	344.64
740.774	314.22
741.175	258.04
741.576	316.56
741.977	368.05
742.377	342.3
742.778	260.38
743.178	297.83
743.579	314.22
743.979	363.37
744.379	236.98
744.78	272.09
745.18	295.49
745.58	293.15
745.98	314.22
746.38	344.64
746.78	304.85
747.18	260.38
747.58	325.92
747.98	316.56
748.38	318.9
748.779	311.88
749.179	328.26
749.578	300.17
749.978	262.73
750.377	290.81
750.777	382.09
751.176	328.26
751.575	328.26
751.975	323.58
752.374	244
752.773	346.98
753.172	323.58
753.571	258.04
753.97	302.51
754.369	300.17
754.768	286.13
755.166	293.15
755.565	307.2
755.964	283.79
756.362	272.09
756.761	302.51
757.159	335.28
757.558	314.22
757.956	260.38
758.354	281.45
758.753	265.07
759.151	253.36
759.549	344.64
759.947	337.62
760.345	384.43
760.743	330.6
761.141	272.09
761.539	309.54
761.936	365.71
762.334	323.58
762.732	293.15
763.129	314.22
763.527	262.73
763.924	328.26
764.322	279.11
764.719	325.92
765.117	349.32
765.514	295.49
765.911	314.22
766.308	304.85
