Data from Al_FLMS009871__1102__16-31-46-600.txt Node

Date: Fri Mar 08 16:31:46 CST 2024
User: pe5414po
Spectrometer: FLMS00987
Trigger mode: 0
Integration Time (sec): 1.000000E-1
Scans to average: 1
Electric dark correction enabled: true
Nonlinearity correction enabled: false
Boxcar width: 0
XAxis mode: Wavelengths
Number of Pixels in Spectrum: 2048
>>>>>Begin Spectral Data<<<<<
188.938	-110.01
189.409	-110.01
189.879	-110.01
190.349	-70.22
190.819	-88.94
191.29	-77.24
191.76	-107.66
192.23	-81.92
192.7	-114.69
193.17	-44.47
193.64	-0
194.109	-72.56
194.579	-16.38
195.049	-42.13
195.519	-25.75
195.988	14.04
196.458	91.28
196.927	67.88
197.397	77.24
197.866	161.5
198.336	170.86
198.805	159.16
199.274	194.26
199.744	184.9
200.213	236.39
200.682	166.18
201.151	163.84
201.62	229.37
202.089	299.59
202.558	231.71
203.027	299.59
203.495	306.61
203.964	330.02
204.433	322.99
204.902	327.67
205.37	369.8
205.839	299.59
206.307	315.97
206.776	283.2
207.244	290.23
207.712	315.97
208.181	351.08
208.649	365.12
209.117	348.74
209.585	266.82
210.053	341.72
210.521	367.46
210.989	421.3
211.457	292.57
211.925	297.25
212.393	306.61
212.861	273.84
213.328	304.27
213.796	259.8
214.264	248.1
214.731	313.63
215.199	325.33
215.666	259.8
216.133	276.18
216.601	241.08
217.068	269.16
217.535	243.42
218.003	271.5
218.47	315.97
218.937	318.31
219.404	285.55
219.871	252.78
220.338	266.82
220.805	252.78
221.271	266.82
221.738	287.89
222.205	276.18
222.671	250.44
223.138	243.42
223.605	255.12
224.071	205.97
224.538	287.89
225.004	215.33
225.47	327.67
225.937	245.76
226.403	308.95
226.869	262.14
227.335	280.86
227.801	220.01
228.267	306.61
228.733	327.67
229.199	280.86
229.665	369.8
230.131	297.25
230.597	238.73
231.062	276.18
231.528	304.27
231.994	320.65
232.459	313.63
232.925	273.84
233.39	297.25
233.856	250.44
234.321	306.61
234.786	287.89
235.252	339.38
235.717	308.95
236.182	238.73
236.647	327.67
237.112	280.86
237.577	330.02
238.042	257.46
238.507	325.33
238.972	215.33
239.436	351.08
239.901	330.02
240.366	269.16
240.83	276.18
241.295	262.14
241.76	301.93
242.224	250.44
242.688	299.59
243.153	315.97
243.617	229.37
244.081	320.65
244.545	276.18
245.01	365.12
245.474	294.91
245.938	334.7
246.402	273.84
246.866	320.65
247.33	308.95
247.793	278.52
248.257	285.55
248.721	344.06
249.185	348.74
249.648	299.59
250.112	313.63
250.575	306.61
251.039	290.23
251.502	255.12
251.965	257.46
252.429	358.1
252.892	308.95
253.355	322.99
253.818	301.93
254.281	292.57
254.744	330.02
255.207	266.82
255.67	269.16
256.133	320.65
256.596	245.76
257.059	297.25
257.522	278.52
257.984	276.18
258.447	287.89
258.909	278.52
259.372	304.27
259.834	332.36
260.297	311.29
260.759	341.72
261.221	290.23
261.684	334.7
262.146	292.57
262.608	339.38
263.07	283.2
263.532	262.14
263.994	262.14
264.456	330.02
264.918	278.52
265.38	203.63
265.842	285.55
266.303	299.59
266.765	278.52
267.227	234.05
267.688	294.91
268.15	287.89
268.611	271.5
269.072	290.23
269.534	271.5
269.995	301.93
270.456	360.44
270.918	337.04
271.379	360.44
271.84	332.36
272.301	306.61
272.762	283.2
273.223	285.55
273.684	301.93
274.144	367.46
274.605	337.04
275.066	278.52
275.527	306.61
275.987	297.25
276.448	297.25
276.908	337.04
277.369	276.18
277.829	332.36
278.289	252.78
278.75	252.78
279.21	304.27
279.67	353.42
280.13	292.57
280.59	276.18
281.05	280.86
281.51	297.25
281.97	299.59
282.43	325.33
282.89	362.78
283.35	327.67
283.809	294.91
284.269	290.23
284.729	285.55
285.188	351.08
285.648	276.18
286.107	390.87
286.567	262.14
287.026	315.97
287.485	348.74
287.944	273.84
288.404	318.31
288.863	332.36
289.322	262.14
289.781	390.87
290.24	301.93
290.699	355.76
291.158	315.97
291.616	332.36
292.075	332.36
292.534	297.25
292.992	271.5
293.451	365.12
293.91	264.48
294.368	287.89
294.827	276.18
295.285	318.31
295.743	304.27
296.202	273.84
296.66	332.36
297.118	348.74
297.576	294.91
298.034	330.02
298.492	278.52
298.95	269.16
299.408	320.65
299.866	353.42
300.324	325.33
300.781	290.23
301.239	290.23
301.697	306.61
302.154	294.91
302.612	271.5
303.069	341.72
303.527	322.99
303.984	304.27
304.441	344.06
304.899	341.72
305.356	283.2
305.813	301.93
306.27	315.97
306.727	332.36
307.184	325.33
307.641	315.97
308.098	381.51
308.555	313.63
309.012	311.29
309.468	299.59
309.925	308.95
310.382	365.12
310.838	283.2
311.295	306.61
311.751	365.12
312.208	369.8
312.664	262.14
313.12	311.29
313.577	327.67
314.033	341.72
314.489	320.65
314.945	280.86
315.401	334.7
315.857	238.73
316.313	339.38
316.769	259.8
317.225	322.99
317.681	290.23
318.136	348.74
318.592	348.74
319.048	388.53
319.503	334.7
319.959	313.63
320.414	339.38
320.869	330.02
321.325	353.42
321.78	346.4
322.235	325.33
322.691	325.33
323.146	367.46
323.601	351.08
324.056	322.99
324.511	355.76
324.966	355.76
325.421	330.02
325.875	334.7
326.33	320.65
326.785	327.67
327.24	308.95
327.694	358.1
328.149	294.91
328.603	325.33
329.058	332.36
329.512	397.89
329.966	315.97
330.421	287.89
330.875	332.36
331.329	376.83
331.783	311.29
332.237	332.36
332.691	290.23
333.145	330.02
333.599	330.02
334.053	320.65
334.507	395.55
334.96	322.99
335.414	297.25
335.868	315.97
336.321	236.39
336.775	339.38
337.228	315.97
337.682	383.85
338.135	276.18
338.588	334.7
339.042	334.7
339.495	355.76
339.948	365.12
340.401	320.65
340.854	290.23
341.307	285.55
341.76	351.08
342.213	299.59
342.666	301.93
343.119	308.95
343.571	390.87
344.024	339.38
344.477	318.31
344.929	325.33
345.382	313.63
345.834	360.44
346.287	297.25
346.739	285.55
347.191	262.14
347.644	330.02
348.096	353.42
348.548	355.76
349	353.42
349.452	379.17
349.904	390.87
350.356	266.82
350.808	299.59
351.26	341.72
351.711	381.51
352.163	337.04
352.615	372.15
353.066	351.08
353.518	372.15
353.969	318.31
354.421	271.5
354.872	299.59
355.324	353.42
355.775	388.53
356.226	308.95
356.677	346.4
357.128	351.08
357.579	276.18
358.03	301.93
358.481	355.76
358.932	360.44
359.383	292.57
359.834	287.89
360.285	301.93
360.735	313.63
361.186	292.57
361.637	301.93
362.087	318.31
362.538	320.65
362.988	320.65
363.438	297.25
363.889	344.06
364.339	276.18
364.789	344.06
365.239	372.15
365.689	341.72
366.139	346.4
366.589	400.23
367.039	365.12
367.489	341.72
367.939	311.29
368.389	332.36
368.839	318.31
369.288	337.04
369.738	297.25
370.187	315.97
370.637	325.33
371.086	322.99
371.536	280.86
371.985	379.17
372.434	355.76
372.884	337.04
373.333	344.06
373.782	276.18
374.231	325.33
374.68	290.23
375.129	355.76
375.578	308.95
376.027	297.25
376.475	355.76
376.924	351.08
377.373	360.44
377.822	341.72
378.27	304.27
378.719	313.63
379.167	358.1
379.616	330.02
380.064	222.35
380.512	372.15
380.961	301.93
381.409	372.15
381.857	386.19
382.305	322.99
382.753	383.85
383.201	339.38
383.649	304.27
384.097	315.97
384.545	344.06
384.992	379.17
385.44	344.06
385.888	334.7
386.335	393.21
386.783	322.99
387.231	320.65
387.678	341.72
388.125	365.12
388.573	327.67
389.02	372.15
389.467	334.7
389.914	292.57
390.362	360.44
390.809	299.59
391.256	346.4
391.703	351.08
392.15	259.8
392.596	297.25
393.043	374.49
393.49	365.12
393.937	325.33
394.383	313.63
394.83	346.4
395.276	290.23
395.723	299.59
396.169	313.63
396.616	320.65
397.062	351.08
397.508	369.8
397.954	332.36
398.401	330.02
398.847	301.93
399.293	297.25
399.739	348.74
400.185	339.38
400.631	344.06
401.076	283.2
401.522	337.04
401.968	362.78
402.414	344.06
402.859	341.72
403.305	315.97
403.75	327.67
404.196	322.99
404.641	402.57
405.086	353.42
405.532	285.55
405.977	351.08
406.422	358.1
406.867	304.27
407.312	337.04
407.757	372.15
408.202	372.15
408.647	334.7
409.092	386.19
409.537	308.95
409.982	411.93
410.426	365.12
410.871	346.4
411.316	376.83
411.76	355.76
412.205	351.08
412.649	379.17
413.093	327.67
413.538	306.61
413.982	337.04
414.426	325.33
414.87	344.06
415.314	271.5
415.758	304.27
416.202	369.8
416.646	346.4
417.09	360.44
417.534	304.27
417.978	386.19
418.421	334.7
418.865	351.08
419.309	344.06
419.752	334.7
420.196	311.29
420.639	346.4
421.083	376.83
421.526	346.4
421.969	369.8
422.412	334.7
422.856	318.31
423.299	348.74
423.742	304.27
424.185	306.61
424.628	271.5
425.071	346.4
425.513	376.83
425.956	339.38
426.399	383.85
426.842	318.31
427.284	327.67
427.727	348.74
428.169	339.38
428.612	327.67
429.054	332.36
429.497	383.85
429.939	353.42
430.381	334.7
430.823	369.8
431.265	330.02
431.707	266.82
432.149	341.72
432.591	299.59
433.033	278.52
433.475	330.02
433.917	362.78
434.359	358.1
434.8	397.89
435.242	332.36
435.684	367.46
436.125	262.14
436.567	301.93
437.008	348.74
437.449	320.65
437.891	330.02
438.332	318.31
438.773	297.25
439.214	358.1
439.656	362.78
440.097	358.1
440.538	379.17
440.978	388.53
441.419	330.02
441.86	355.76
442.301	348.74
442.742	348.74
443.182	409.59
443.623	344.06
444.063	351.08
444.504	334.7
444.944	311.29
445.385	318.31
445.825	266.82
446.265	372.15
446.706	402.57
447.146	283.2
447.586	327.67
448.026	348.74
448.466	397.89
448.906	327.67
449.346	409.59
449.786	397.89
450.225	334.7
450.665	376.83
451.105	318.31
451.544	369.8
451.984	325.33
452.424	383.85
452.863	315.97
453.302	332.36
453.742	325.33
454.181	355.76
454.62	238.73
455.059	341.72
455.499	339.38
455.938	341.72
456.377	346.4
456.816	344.06
457.254	325.33
457.693	395.55
458.132	353.42
458.571	318.31
459.01	332.36
459.448	393.21
459.887	325.33
460.325	304.27
460.764	397.89
461.202	283.2
461.641	313.63
462.079	402.57
462.517	330.02
462.955	311.29
463.393	344.06
463.832	278.52
464.27	355.76
464.708	358.1
465.145	358.1
465.583	290.23
466.021	294.91
466.459	304.27
466.897	330.02
467.334	348.74
467.772	337.04
468.209	315.97
468.647	325.33
469.084	362.78
469.522	306.61
469.959	402.57
470.396	322.99
470.833	369.8
471.271	290.23
471.708	304.27
472.145	308.95
472.582	325.33
473.019	334.7
473.456	351.08
473.892	367.46
474.329	341.72
474.766	341.72
475.202	337.04
475.639	325.33
476.076	306.61
476.512	339.38
476.949	362.78
477.385	341.72
477.821	313.63
478.258	332.36
478.694	297.25
479.13	393.21
479.566	372.15
480.002	292.57
480.438	320.65
480.874	383.85
481.31	346.4
481.746	397.89
482.181	306.61
482.617	339.38
483.053	322.99
483.488	351.08
483.924	414.27
484.36	308.95
484.795	330.02
485.23	376.83
485.666	348.74
486.101	404.91
486.536	355.76
486.971	320.65
487.407	344.06
487.842	311.29
488.277	320.65
488.712	360.44
489.146	358.1
489.581	313.63
490.016	348.74
490.451	372.15
490.885	367.46
491.32	325.33
491.755	409.59
492.189	301.93
492.624	299.59
493.058	320.65
493.492	299.59
493.927	322.99
494.361	344.06
494.795	327.67
495.229	386.19
495.663	346.4
496.097	339.38
496.531	411.93
496.965	322.99
497.399	292.57
497.833	402.57
498.266	395.55
498.7	346.4
499.134	297.25
499.567	344.06
500.001	425.98
500.434	325.33
500.868	369.8
501.301	299.59
501.734	327.67
502.168	325.33
502.601	351.08
503.034	301.93
503.467	313.63
503.9	341.72
504.333	337.04
504.766	297.25
505.199	362.78
505.632	348.74
506.064	358.1
506.497	322.99
506.93	346.4
507.362	355.76
507.795	362.78
508.227	386.19
508.66	372.15
509.092	332.36
509.524	351.08
509.956	318.31
510.389	376.83
510.821	379.17
511.253	344.06
511.685	339.38
512.117	379.17
512.549	301.93
512.981	311.29
513.412	393.21
513.844	358.1
514.276	386.19
514.707	376.83
515.139	348.74
515.571	248.1
516.002	273.84
516.433	283.2
516.865	301.93
517.296	283.2
517.727	376.83
518.159	344.06
518.59	348.74
519.021	372.15
519.452	400.23
519.883	362.78
520.314	290.23
520.744	390.87
521.175	337.04
521.606	327.67
522.037	285.55
522.467	337.04
522.898	351.08
523.328	280.86
523.759	355.76
524.189	339.38
524.62	280.86
525.05	353.42
525.48	374.49
525.91	308.95
526.341	222.35
526.771	308.95
527.201	308.95
527.631	369.8
528.061	337.04
528.49	360.44
528.92	308.95
529.35	341.72
529.78	287.89
530.209	308.95
530.639	325.33
531.068	318.31
531.498	320.65
531.927	308.95
532.357	332.36
532.786	322.99
533.215	327.67
533.644	353.42
534.074	346.4
534.503	372.15
534.932	367.46
535.361	346.4
535.79	355.76
536.218	355.76
536.647	308.95
537.076	386.19
537.505	337.04
537.933	425.98
538.362	360.44
538.79	266.82
539.219	348.74
539.647	355.76
540.076	330.02
540.504	362.78
540.932	330.02
541.36	278.52
541.788	369.8
542.217	353.42
542.645	346.4
543.073	301.93
543.5	304.27
543.928	353.42
544.356	360.44
544.784	337.04
545.211	353.42
545.639	311.29
546.067	290.23
546.494	330.02
546.922	402.57
547.349	304.27
547.776	306.61
548.204	341.72
548.631	325.33
549.058	322.99
549.485	409.59
549.912	369.8
550.339	358.1
550.766	351.08
551.193	348.74
551.62	322.99
552.047	315.97
552.474	306.61
552.9	264.48
553.327	353.42
553.754	362.78
554.18	369.8
554.607	318.31
555.033	428.32
555.459	308.95
555.886	304.27
556.312	367.46
556.738	294.91
557.164	341.72
557.59	332.36
558.016	283.2
558.442	358.1
558.868	330.02
559.294	292.57
559.72	344.06
560.145	330.02
560.571	418.96
560.997	315.97
561.422	339.38
561.848	341.72
562.273	381.51
562.699	365.12
563.124	383.85
563.549	362.78
563.974	381.51
564.4	346.4
564.825	369.8
565.25	248.1
565.675	351.08
566.1	304.27
566.525	327.67
566.95	372.15
567.374	344.06
567.799	306.61
568.224	306.61
568.648	327.67
569.073	369.8
569.497	308.95
569.922	351.08
570.346	327.67
570.771	280.86
571.195	320.65
571.619	383.85
572.043	339.38
572.467	304.27
572.891	308.95
573.315	297.25
573.739	337.04
574.163	339.38
574.587	348.74
575.011	369.8
575.435	374.49
575.858	322.99
576.282	348.74
576.705	301.93
577.129	353.42
577.552	355.76
577.976	353.42
578.399	376.83
578.822	353.42
579.245	285.55
579.669	294.91
580.092	374.49
580.515	315.97
580.938	411.93
581.361	264.48
581.784	334.7
582.206	355.76
582.629	313.63
583.052	332.36
583.474	348.74
583.897	294.91
584.32	341.72
584.742	330.02
585.165	334.7
585.587	297.25
586.009	339.38
586.431	311.29
586.854	386.19
587.276	332.36
587.698	379.17
588.12	315.97
588.542	330.02
588.964	390.87
589.386	400.23
589.807	348.74
590.229	360.44
590.651	320.65
591.073	355.76
591.494	308.95
591.916	306.61
592.337	376.83
592.759	348.74
593.18	318.31
593.601	243.42
594.022	355.76
594.444	301.93
594.865	311.29
595.286	318.31
595.707	332.36
596.128	322.99
596.549	390.87
596.97	344.06
597.39	313.63
597.811	325.33
598.232	339.38
598.652	346.4
599.073	355.76
599.494	311.29
599.914	313.63
600.334	348.74
600.755	322.99
601.175	369.8
601.595	330.02
602.015	404.91
602.436	334.7
602.856	489.17
603.276	367.46
603.696	395.55
604.115	311.29
604.535	421.3
604.955	390.87
605.375	353.42
605.794	353.42
606.214	386.19
606.634	365.12
607.053	290.23
607.473	276.18
607.892	332.36
608.311	334.7
608.731	308.95
609.15	322.99
609.569	367.46
609.988	325.33
610.407	337.04
610.826	290.23
611.245	344.06
611.664	273.84
612.083	318.31
612.501	374.49
612.92	360.44
613.339	308.95
613.757	348.74
614.176	313.63
614.594	285.55
615.013	306.61
615.431	397.89
615.85	344.06
616.268	325.33
616.686	306.61
617.104	407.25
617.522	381.51
617.94	341.72
618.358	365.12
618.776	294.91
619.194	344.06
619.612	397.89
620.03	339.38
620.447	337.04
620.865	330.02
621.282	327.67
621.7	400.23
622.117	297.25
622.535	337.04
622.952	330.02
623.369	355.76
623.787	322.99
624.204	332.36
624.621	337.04
625.038	339.38
625.455	383.85
625.872	358.1
626.289	320.65
626.706	308.95
627.123	348.74
627.539	304.27
627.956	301.93
628.373	330.02
628.789	322.99
629.206	372.15
629.622	306.61
630.038	269.16
630.455	404.91
630.871	287.89
631.287	369.8
631.703	299.59
632.12	360.44
632.536	372.15
632.952	407.25
633.368	315.97
633.783	337.04
634.199	344.06
634.615	341.72
635.031	339.38
635.446	355.76
635.862	280.86
636.277	299.59
636.693	315.97
637.108	292.57
637.524	355.76
637.939	327.67
638.354	388.53
638.77	332.36
639.185	376.83
639.6	304.27
640.015	402.57
640.43	301.93
640.845	292.57
641.259	301.93
641.674	358.1
642.089	304.27
642.504	330.02
642.918	390.87
643.333	311.29
643.747	301.93
644.162	348.74
644.576	362.78
644.991	304.27
645.405	367.46
645.819	297.25
646.233	301.93
646.647	355.76
647.061	372.15
647.475	390.87
647.889	360.44
648.303	283.2
648.717	365.12
649.131	294.91
649.545	327.67
649.958	390.87
650.372	320.65
650.785	308.95
651.199	344.06
651.612	337.04
652.026	304.27
652.439	344.06
652.852	337.04
653.266	313.63
653.679	360.44
654.092	372.15
654.505	318.31
654.918	337.04
655.331	362.78
655.744	348.74
656.156	280.86
656.569	322.99
656.982	379.17
657.394	276.18
657.807	287.89
658.22	327.67
658.632	348.74
659.044	315.97
659.457	353.42
659.869	308.95
660.281	262.14
660.693	320.65
661.106	360.44
661.518	299.59
661.93	299.59
662.342	318.31
662.754	348.74
663.165	315.97
663.577	313.63
663.989	332.36
664.401	290.23
664.812	311.29
665.224	290.23
665.635	348.74
666.047	269.16
666.458	369.8
666.869	311.29
667.281	351.08
667.692	344.06
668.103	355.76
668.514	372.15
668.925	395.55
669.336	334.7
669.747	369.8
670.158	341.72
670.569	393.21
670.979	311.29
671.39	332.36
671.801	358.1
672.211	344.06
672.622	294.91
673.032	325.33
673.443	334.7
673.853	334.7
674.263	294.91
674.674	339.38
675.084	351.08
675.494	388.53
675.904	262.14
676.314	301.93
676.724	367.46
677.134	245.76
677.544	348.74
677.953	322.99
678.363	315.97
678.773	348.74
679.182	372.15
679.592	315.97
680.001	353.42
680.411	365.12
680.82	330.02
681.23	379.17
681.639	365.12
682.048	332.36
682.457	243.42
682.866	376.83
683.275	283.2
683.684	351.08
684.093	330.02
684.502	337.04
684.911	301.93
685.32	278.52
685.728	334.7
686.137	386.19
686.546	299.59
686.954	353.42
687.363	369.8
687.771	374.49
688.179	386.19
688.588	252.78
688.996	360.44
689.404	297.25
689.812	285.55
690.22	330.02
690.628	299.59
691.036	325.33
691.444	351.08
691.852	320.65
692.26	278.52
692.667	341.72
693.075	346.4
693.483	283.2
693.89	372.15
694.298	304.27
694.705	334.7
695.112	271.5
695.52	344.06
695.927	337.04
696.334	325.33
696.741	383.85
697.148	322.99
697.555	332.36
697.962	332.36
698.369	397.89
698.776	332.36
699.183	334.7
699.59	353.42
699.996	301.93
700.403	287.89
700.81	367.46
701.216	327.67
701.623	327.67
702.029	264.48
702.435	341.72
702.842	395.55
703.248	322.99
703.654	285.55
704.06	362.78
704.466	358.1
704.872	287.89
705.278	315.97
705.684	362.78
706.09	379.17
706.496	358.1
706.901	322.99
707.307	337.04
707.712	299.59
708.118	320.65
708.523	320.65
708.929	334.7
709.334	327.67
709.74	360.44
710.145	339.38
710.55	287.89
710.955	383.85
711.36	351.08
711.765	283.2
712.17	353.42
712.575	271.5
712.98	828.55
713.385	344.06
713.789	283.2
714.194	355.76
714.599	379.17
715.003	320.65
715.408	332.36
715.812	348.74
716.217	322.99
716.621	339.38
717.025	353.42
717.429	339.38
717.833	344.06
718.238	320.65
718.642	297.25
719.046	332.36
719.449	344.06
719.853	397.89
720.257	315.97
720.661	332.36
721.065	344.06
721.468	294.91
721.872	297.25
722.275	365.12
722.679	339.38
723.082	341.72
723.485	301.93
723.889	327.67
724.292	313.63
724.695	325.33
725.098	297.25
725.501	362.78
725.904	351.08
726.307	344.06
726.71	285.55
727.113	294.91
727.516	220.01
727.918	311.29
728.321	360.44
728.724	404.91
729.126	330.02
729.529	348.74
729.931	358.1
730.333	311.29
730.736	376.83
731.138	344.06
731.54	381.51
731.942	320.65
732.344	301.93
732.746	292.57
733.148	337.04
733.55	341.72
733.952	344.06
734.354	311.29
734.756	301.93
735.157	308.95
735.559	283.2
735.96	327.67
736.362	348.74
736.763	362.78
737.165	308.95
737.566	381.51
737.967	393.21
738.368	381.51
738.77	318.31
739.171	365.12
739.572	337.04
739.973	332.36
740.374	332.36
740.774	318.31
741.175	369.8
741.576	276.18
741.977	311.29
742.377	390.87
742.778	304.27
743.178	283.2
743.579	297.25
743.979	334.7
744.379	355.76
744.78	348.74
745.18	320.65
745.58	351.08
745.98	280.86
746.38	285.55
746.78	315.97
747.18	362.78
747.58	353.42
747.98	318.31
748.38	334.7
748.779	304.27
749.179	313.63
749.578	299.59
749.978	346.4
750.377	290.23
750.777	292.57
751.176	311.29
751.575	327.67
751.975	355.76
752.374	337.04
752.773	348.74
753.172	311.29
753.571	313.63
753.97	341.72
754.369	332.36
754.768	320.65
755.166	344.06
755.565	339.38
755.964	297.25
756.362	348.74
756.761	372.15
757.159	327.67
757.558	320.65
757.956	304.27
758.354	390.87
758.753	332.36
759.151	341.72
759.549	330.02
759.947	330.02
760.345	337.04
760.743	311.29
761.141	264.48
761.539	301.93
761.936	311.29
762.334	341.72
762.732	297.25
763.129	259.8
763.527	325.33
763.924	330.02
764.322	334.7
764.719	257.46
765.117	351.08
