Data from Al_FLMS009871__1110__16-31-47-401.txt Node

Date: Fri Mar 08 16:31:47 CST 2024
User: pe5414po
Spectrometer: FLMS00987
Trigger mode: 0
Integration Time (sec): 1.000000E-1
Scans to average: 1
Electric dark correction enabled: true
Nonlinearity correction enabled: false
Boxcar width: 0
XAxis mode: Wavelengths
Number of Pixels in Spectrum: 2048
>>>>>Begin Spectral Data<<<<<
188.938	-44.47
189.409	-44.47
189.879	-44.47
190.349	-102.98
190.819	-124.05
191.29	-88.94
191.76	-149.79
192.23	-100.64
192.7	-102.98
193.17	-95.96
193.64	25.75
194.109	-42.13
194.579	-4.68
195.049	-14.04
195.519	63.19
195.988	53.83
196.458	35.11
196.927	77.24
197.397	100.64
197.866	110.01
198.336	133.41
198.805	184.9
199.274	163.84
199.744	212.99
200.213	184.9
200.682	248.1
201.151	227.03
201.62	212.99
202.089	269.16
202.558	273.84
203.027	227.03
203.495	290.23
203.964	255.12
204.433	283.2
204.902	294.91
205.37	266.82
205.839	257.46
206.307	313.63
206.776	322.99
207.244	339.38
207.712	344.06
208.181	344.06
208.649	306.61
209.117	278.52
209.585	341.72
210.053	273.84
210.521	325.33
210.989	372.15
211.457	301.93
211.925	278.52
212.393	248.1
212.861	325.33
213.328	311.29
213.796	346.4
214.264	269.16
214.731	353.42
215.199	255.12
215.666	318.31
216.133	252.78
216.601	315.97
217.068	269.16
217.535	308.95
218.003	294.91
218.47	248.1
218.937	264.48
219.404	344.06
219.871	313.63
220.338	236.39
220.805	334.7
221.271	257.46
221.738	325.33
222.205	231.71
222.671	210.65
223.138	292.57
223.605	273.84
224.071	301.93
224.538	269.16
225.004	227.03
225.47	313.63
225.937	290.23
226.403	243.42
226.869	245.76
227.335	205.97
227.801	278.52
228.267	322.99
228.733	285.55
229.199	285.55
229.665	248.1
230.131	297.25
230.597	222.35
231.062	269.16
231.528	325.33
231.994	301.93
232.459	259.8
232.925	259.8
233.39	264.48
233.856	283.2
234.321	271.5
234.786	301.93
235.252	278.52
235.717	290.23
236.182	299.59
236.647	313.63
237.112	290.23
237.577	287.89
238.042	308.95
238.507	299.59
238.972	255.12
239.436	257.46
239.901	259.8
240.366	294.91
240.83	266.82
241.295	276.18
241.76	278.52
242.224	217.67
242.688	315.97
243.153	278.52
243.617	287.89
244.081	283.2
244.545	243.42
245.01	222.35
245.474	339.38
245.938	297.25
246.402	266.82
246.866	276.18
247.33	278.52
247.793	224.69
248.257	320.65
248.721	362.78
249.185	311.29
249.648	245.76
250.112	299.59
250.575	252.78
251.039	297.25
251.502	285.55
251.965	304.27
252.429	271.5
252.892	294.91
253.355	325.33
253.818	255.12
254.281	339.38
254.744	280.86
255.207	259.8
255.67	344.06
256.133	308.95
256.596	266.82
257.059	205.97
257.522	325.33
257.984	339.38
258.447	318.31
258.909	334.7
259.372	304.27
259.834	259.8
260.297	290.23
260.759	285.55
261.221	283.2
261.684	217.67
262.146	320.65
262.608	252.78
263.07	334.7
263.532	285.55
263.994	257.46
264.456	252.78
264.918	215.33
265.38	283.2
265.842	198.95
266.303	269.16
266.765	285.55
267.227	224.69
267.688	308.95
268.15	262.14
268.611	278.52
269.072	315.97
269.534	196.61
269.995	290.23
270.456	243.42
270.918	269.16
271.379	311.29
271.84	238.73
272.301	346.4
272.762	304.27
273.223	339.38
273.684	318.31
274.144	301.93
274.605	280.86
275.066	311.29
275.527	290.23
275.987	332.36
276.448	327.67
276.908	337.04
277.369	322.99
277.829	337.04
278.289	273.84
278.75	308.95
279.21	355.76
279.67	194.26
280.13	337.04
280.59	271.5
281.05	280.86
281.51	313.63
281.97	273.84
282.43	318.31
282.89	318.31
283.35	271.5
283.809	315.97
284.269	299.59
284.729	322.99
285.188	294.91
285.648	313.63
286.107	301.93
286.567	304.27
287.026	306.61
287.485	353.42
287.944	259.8
288.404	341.72
288.863	348.74
289.322	287.89
289.781	292.57
290.24	325.33
290.699	269.16
291.158	290.23
291.616	358.1
292.075	313.63
292.534	287.89
292.992	255.12
293.451	388.53
293.91	299.59
294.368	315.97
294.827	339.38
295.285	322.99
295.743	292.57
296.202	327.67
296.66	306.61
297.118	248.1
297.576	339.38
298.034	201.29
298.492	257.46
298.95	320.65
299.408	315.97
299.866	327.67
300.324	273.84
300.781	353.42
301.239	266.82
301.697	358.1
302.154	285.55
302.612	290.23
303.069	287.89
303.527	287.89
303.984	346.4
304.441	320.65
304.899	355.76
305.356	283.2
305.813	292.57
306.27	360.44
306.727	248.1
307.184	327.67
307.641	257.46
308.098	369.8
308.555	306.61
309.012	241.08
309.468	341.72
309.925	330.02
310.382	372.15
310.838	287.89
311.295	245.76
311.751	315.97
312.208	379.17
312.664	264.48
313.12	348.74
313.577	341.72
314.033	344.06
314.489	283.2
314.945	327.67
315.401	304.27
315.857	306.61
316.313	292.57
316.769	383.85
317.225	313.63
317.681	306.61
318.136	269.16
318.592	271.5
319.048	313.63
319.503	250.44
319.959	320.65
320.414	315.97
320.869	379.17
321.325	353.42
321.78	222.35
322.235	351.08
322.691	353.42
323.146	301.93
323.601	287.89
324.056	283.2
324.511	344.06
324.966	311.29
325.421	322.99
325.875	320.65
326.33	332.36
326.785	330.02
327.24	388.53
327.694	358.1
328.149	308.95
328.603	330.02
329.058	322.99
329.512	278.52
329.966	360.44
330.421	313.63
330.875	313.63
331.329	330.02
331.783	334.7
332.237	241.08
332.691	372.15
333.145	273.84
333.599	360.44
334.053	367.46
334.507	264.48
334.96	283.2
335.414	290.23
335.868	348.74
336.321	365.12
336.775	280.86
337.228	365.12
337.682	337.04
338.135	266.82
338.588	252.78
339.042	290.23
339.495	271.5
339.948	299.59
340.401	325.33
340.854	313.63
341.307	308.95
341.76	266.82
342.213	294.91
342.666	283.2
343.119	311.29
343.571	322.99
344.024	320.65
344.477	297.25
344.929	280.86
345.382	341.72
345.834	297.25
346.287	276.18
346.739	306.61
347.191	313.63
347.644	362.78
348.096	273.84
348.548	372.15
349	306.61
349.452	292.57
349.904	325.33
350.356	365.12
350.808	367.46
351.26	334.7
351.711	322.99
352.163	297.25
352.615	304.27
353.066	327.67
353.518	287.89
353.969	353.42
354.421	301.93
354.872	376.83
355.324	327.67
355.775	353.42
356.226	339.38
356.677	351.08
357.128	341.72
357.579	369.8
358.03	264.48
358.481	248.1
358.932	334.7
359.383	325.33
359.834	325.33
360.285	374.49
360.735	306.61
361.186	334.7
361.637	245.76
362.087	301.93
362.538	341.72
362.988	339.38
363.438	315.97
363.889	322.99
364.339	369.8
364.789	320.65
365.239	346.4
365.689	292.57
366.139	325.33
366.589	330.02
367.039	341.72
367.489	374.49
367.939	308.95
368.389	372.15
368.839	351.08
369.288	292.57
369.738	341.72
370.187	318.31
370.637	344.06
371.086	344.06
371.536	379.17
371.985	330.02
372.434	304.27
372.884	372.15
373.333	320.65
373.782	315.97
374.231	290.23
374.68	311.29
375.129	292.57
375.578	290.23
376.027	358.1
376.475	322.99
376.924	318.31
377.373	337.04
377.822	332.36
378.27	294.91
378.719	292.57
379.167	313.63
379.616	332.36
380.064	320.65
380.512	320.65
380.961	360.44
381.409	311.29
381.857	301.93
382.305	341.72
382.753	313.63
383.201	362.78
383.649	313.63
384.097	299.59
384.545	259.8
384.992	292.57
385.44	287.89
385.888	287.89
386.335	393.21
386.783	362.78
387.231	351.08
387.678	306.61
388.125	330.02
388.573	276.18
389.02	381.51
389.467	315.97
389.914	259.8
390.362	271.5
390.809	325.33
391.256	334.7
391.703	306.61
392.15	334.7
392.596	290.23
393.043	348.74
393.49	315.97
393.937	311.29
394.383	334.7
394.83	346.4
395.276	271.5
395.723	269.16
396.169	322.99
396.616	362.78
397.062	266.82
397.508	299.59
397.954	311.29
398.401	334.7
398.847	334.7
399.293	367.46
399.739	322.99
400.185	290.23
400.631	334.7
401.076	344.06
401.522	337.04
401.968	306.61
402.414	290.23
402.859	311.29
403.305	269.16
403.75	313.63
404.196	273.84
404.641	299.59
405.086	257.46
405.532	306.61
405.977	320.65
406.422	308.95
406.867	294.91
407.312	348.74
407.757	330.02
408.202	369.8
408.647	365.12
409.092	353.42
409.537	276.18
409.982	318.31
410.426	330.02
410.871	341.72
411.316	334.7
411.76	353.42
412.205	327.67
412.649	304.27
413.093	353.42
413.538	292.57
413.982	315.97
414.426	290.23
414.87	306.61
415.314	348.74
415.758	304.27
416.202	330.02
416.646	341.72
417.09	325.33
417.534	360.44
417.978	362.78
418.421	313.63
418.865	376.83
419.309	306.61
419.752	372.15
420.196	348.74
420.639	334.7
421.083	308.95
421.526	367.46
421.969	339.38
422.412	313.63
422.856	334.7
423.299	266.82
423.742	304.27
424.185	355.76
424.628	320.65
425.071	367.46
425.513	348.74
425.956	264.48
426.399	327.67
426.842	332.36
427.284	308.95
427.727	322.99
428.169	351.08
428.612	337.04
429.054	353.42
429.497	341.72
429.939	269.16
430.381	372.15
430.823	337.04
431.265	344.06
431.707	414.27
432.149	283.2
432.591	367.46
433.033	337.04
433.475	381.51
433.917	355.76
434.359	355.76
434.8	318.31
435.242	266.82
435.684	334.7
436.125	360.44
436.567	327.67
437.008	285.55
437.449	348.74
437.891	362.78
438.332	344.06
438.773	322.99
439.214	362.78
439.656	337.04
440.097	353.42
440.538	348.74
440.978	269.16
441.419	320.65
441.86	322.99
442.301	404.91
442.742	351.08
443.182	330.02
443.623	360.44
444.063	372.15
444.504	308.95
444.944	404.91
445.385	308.95
445.825	301.93
446.265	264.48
446.706	322.99
447.146	318.31
447.586	318.31
448.026	285.55
448.466	393.21
448.906	381.51
449.346	318.31
449.786	313.63
450.225	320.65
450.665	355.76
451.105	330.02
451.544	337.04
451.984	311.29
452.424	346.4
452.863	290.23
453.302	299.59
453.742	285.55
454.181	304.27
454.62	290.23
455.059	346.4
455.499	285.55
455.938	306.61
456.377	283.2
456.816	332.36
457.254	341.72
457.693	287.89
458.132	353.42
458.571	355.76
459.01	320.65
459.448	264.48
459.887	330.02
460.325	344.06
460.764	337.04
461.202	351.08
461.641	351.08
462.079	360.44
462.517	315.97
462.955	294.91
463.393	339.38
463.832	348.74
464.27	362.78
464.708	311.29
465.145	353.42
465.583	337.04
466.021	388.53
466.459	362.78
466.897	285.55
467.334	292.57
467.772	313.63
468.209	311.29
468.647	367.46
469.084	320.65
469.522	322.99
469.959	301.93
470.396	294.91
470.833	383.85
471.271	332.36
471.708	311.29
472.145	351.08
472.582	353.42
473.019	290.23
473.456	348.74
473.892	294.91
474.329	315.97
474.766	320.65
475.202	337.04
475.639	383.85
476.076	344.06
476.512	283.2
476.949	327.67
477.385	313.63
477.821	280.86
478.258	409.59
478.694	318.31
479.13	374.49
479.566	334.7
480.002	290.23
480.438	273.84
480.874	280.86
481.31	308.95
481.746	292.57
482.181	313.63
482.617	276.18
483.053	318.31
483.488	332.36
483.924	355.76
484.36	353.42
484.795	283.2
485.23	299.59
485.666	311.29
486.101	360.44
486.536	362.78
486.971	304.27
487.407	322.99
487.842	280.86
488.277	339.38
488.712	306.61
489.146	353.42
489.581	381.51
490.016	238.73
490.451	280.86
490.885	344.06
491.32	259.8
491.755	330.02
492.189	367.46
492.624	322.99
493.058	334.7
493.492	292.57
493.927	252.78
494.361	318.31
494.795	325.33
495.229	386.19
495.663	411.93
496.097	318.31
496.531	346.4
496.965	278.52
497.399	346.4
497.833	383.85
498.266	407.25
498.7	318.31
499.134	292.57
499.567	332.36
500.001	327.67
500.434	344.06
500.868	351.08
501.301	285.55
501.734	339.38
502.168	351.08
502.601	311.29
503.034	269.16
503.467	311.29
503.9	327.67
504.333	320.65
504.766	304.27
505.199	344.06
505.632	337.04
506.064	276.18
506.497	318.31
506.93	306.61
507.362	306.61
507.795	360.44
508.227	315.97
508.66	304.27
509.092	344.06
509.524	344.06
509.956	330.02
510.389	344.06
510.821	330.02
511.253	320.65
511.685	269.16
512.117	374.49
512.549	311.29
512.981	290.23
513.412	425.98
513.844	255.12
514.276	365.12
514.707	383.85
515.139	332.36
515.571	381.51
516.002	346.4
516.433	271.5
516.865	351.08
517.296	301.93
517.727	344.06
518.159	322.99
518.59	397.89
519.021	344.06
519.452	280.86
519.883	334.7
520.314	273.84
520.744	306.61
521.175	315.97
521.606	313.63
522.037	315.97
522.467	299.59
522.898	320.65
523.328	390.87
523.759	315.97
524.189	376.83
524.62	355.76
525.05	299.59
525.48	334.7
525.91	339.38
526.341	341.72
526.771	369.8
527.201	271.5
527.631	409.59
528.061	374.49
528.49	334.7
528.92	367.46
529.35	332.36
529.78	367.46
530.209	383.85
530.639	390.87
531.068	308.95
531.498	428.32
531.927	290.23
532.357	337.04
532.786	287.89
533.215	271.5
533.644	297.25
534.074	271.5
534.503	374.49
534.932	320.65
535.361	332.36
535.79	292.57
536.218	341.72
536.647	369.8
537.076	351.08
537.505	301.93
537.933	337.04
538.362	236.39
538.79	301.93
539.219	292.57
539.647	304.27
540.076	341.72
540.504	276.18
540.932	308.95
541.36	355.76
541.788	241.08
542.217	325.33
542.645	334.7
543.073	383.85
543.5	374.49
543.928	297.25
544.356	273.84
544.784	358.1
545.211	313.63
545.639	383.85
546.067	325.33
546.494	355.76
546.922	299.59
547.349	339.38
547.776	318.31
548.204	269.16
548.631	313.63
549.058	337.04
549.485	337.04
549.912	308.95
550.339	367.46
550.766	320.65
551.193	304.27
551.62	374.49
552.047	318.31
552.474	243.42
552.9	365.12
553.327	353.42
553.754	313.63
554.18	332.36
554.607	294.91
555.033	322.99
555.459	311.29
555.886	301.93
556.312	306.61
556.738	292.57
557.164	315.97
557.59	299.59
558.016	327.67
558.442	259.8
558.868	411.93
559.294	376.83
559.72	322.99
560.145	332.36
560.571	367.46
560.997	285.55
561.422	313.63
561.848	348.74
562.273	259.8
562.699	318.31
563.124	330.02
563.549	311.29
563.974	313.63
564.4	353.42
564.825	327.67
565.25	355.76
565.675	322.99
566.1	334.7
566.525	367.46
566.95	234.05
567.374	304.27
567.799	334.7
568.224	325.33
568.648	388.53
569.073	294.91
569.497	358.1
569.922	344.06
570.346	287.89
570.771	297.25
571.195	334.7
571.619	304.27
572.043	320.65
572.467	344.06
572.891	367.46
573.315	264.48
573.739	376.83
574.163	341.72
574.587	283.2
575.011	322.99
575.435	337.04
575.858	294.91
576.282	283.2
576.705	332.36
577.129	348.74
577.552	318.31
577.976	334.7
578.399	313.63
578.822	292.57
579.245	304.27
579.669	322.99
580.092	311.29
580.515	353.42
580.938	369.8
581.361	367.46
581.784	334.7
582.206	327.67
582.629	344.06
583.052	367.46
583.474	346.4
583.897	315.97
584.32	327.67
584.742	292.57
585.165	290.23
585.587	383.85
586.009	320.65
586.431	355.76
586.854	341.72
587.276	322.99
587.698	337.04
588.12	294.91
588.542	304.27
588.964	334.7
589.386	334.7
589.807	285.55
590.229	325.33
590.651	344.06
591.073	325.33
591.494	301.93
591.916	330.02
592.337	236.39
592.759	315.97
593.18	269.16
593.601	369.8
594.022	351.08
594.444	337.04
594.865	306.61
595.286	362.78
595.707	278.52
596.128	301.93
596.549	337.04
596.97	269.16
597.39	372.15
597.811	287.89
598.232	365.12
598.652	313.63
599.073	362.78
599.494	362.78
599.914	353.42
600.334	313.63
600.755	311.29
601.175	358.1
601.595	320.65
602.015	367.46
602.436	339.38
602.856	449.38
603.276	351.08
603.696	346.4
604.115	379.17
604.535	341.72
604.955	308.95
605.375	330.02
605.794	299.59
606.214	334.7
606.634	339.38
607.053	355.76
607.473	355.76
607.892	388.53
608.311	400.23
608.731	355.76
609.15	294.91
609.569	351.08
609.988	283.2
610.407	301.93
610.826	355.76
611.245	362.78
611.664	390.87
612.083	285.55
612.501	337.04
612.92	379.17
613.339	339.38
613.757	315.97
614.176	344.06
614.594	346.4
615.013	367.46
615.431	355.76
615.85	334.7
616.268	325.33
616.686	355.76
617.104	299.59
617.522	271.5
617.94	315.97
618.358	315.97
618.776	285.55
619.194	313.63
619.612	299.59
620.03	320.65
620.447	339.38
620.865	339.38
621.282	339.38
621.7	318.31
622.117	322.99
622.535	337.04
622.952	318.31
623.369	313.63
623.787	304.27
624.204	330.02
624.621	346.4
625.038	318.31
625.455	386.19
625.872	362.78
626.289	308.95
626.706	402.57
627.123	327.67
627.539	280.86
627.956	367.46
628.373	351.08
628.789	327.67
629.206	355.76
629.622	262.14
630.038	322.99
630.455	297.25
630.871	322.99
631.287	346.4
631.703	304.27
632.12	287.89
632.536	325.33
632.952	395.55
633.368	351.08
633.783	330.02
634.199	311.29
634.615	269.16
635.031	318.31
635.446	344.06
635.862	369.8
636.277	280.86
636.693	334.7
637.108	294.91
637.524	358.1
637.939	344.06
638.354	276.18
638.77	292.57
639.185	301.93
639.6	290.23
640.015	301.93
640.43	301.93
640.845	351.08
641.259	341.72
641.674	252.78
642.089	327.67
642.504	313.63
642.918	311.29
643.333	353.42
643.747	276.18
644.162	360.44
644.576	358.1
644.991	248.1
645.405	297.25
645.819	353.42
646.233	315.97
646.647	332.36
647.061	381.51
647.475	325.33
647.889	287.89
648.303	292.57
648.717	320.65
649.131	334.7
649.545	325.33
649.958	339.38
650.372	299.59
650.785	332.36
651.199	358.1
651.612	334.7
652.026	379.17
652.439	374.49
652.852	362.78
653.266	308.95
653.679	320.65
654.092	344.06
654.505	360.44
654.918	339.38
655.331	313.63
655.744	322.99
656.156	344.06
656.569	362.78
656.982	341.72
657.394	330.02
657.807	311.29
658.22	269.16
658.632	367.46
659.044	334.7
659.457	252.78
659.869	425.98
660.281	269.16
660.693	271.5
661.106	362.78
661.518	341.72
661.93	344.06
662.342	330.02
662.754	313.63
663.165	353.42
663.577	339.38
663.989	297.25
664.401	369.8
664.812	278.52
665.224	301.93
665.635	276.18
666.047	362.78
666.458	283.2
666.869	367.46
667.281	332.36
667.692	306.61
668.103	348.74
668.514	318.31
668.925	337.04
669.336	278.52
669.747	344.06
670.158	322.99
670.569	238.73
670.979	299.59
671.39	320.65
671.801	334.7
672.211	259.8
672.622	325.33
673.032	341.72
673.443	332.36
673.853	386.19
674.263	386.19
674.674	362.78
675.084	259.8
675.494	325.33
675.904	327.67
676.314	285.55
676.724	273.84
677.134	362.78
677.544	367.46
677.953	280.86
678.363	273.84
678.773	355.76
679.182	339.38
679.592	322.99
680.001	346.4
680.411	318.31
680.82	341.72
681.23	308.95
681.639	292.57
682.048	285.55
682.457	332.36
682.866	339.38
683.275	393.21
683.684	322.99
684.093	311.29
684.502	330.02
684.911	290.23
685.32	341.72
685.728	320.65
686.137	346.4
686.546	299.59
686.954	351.08
687.363	301.93
687.771	304.27
688.179	369.8
688.588	318.31
688.996	353.42
689.404	322.99
689.812	334.7
690.22	344.06
690.628	313.63
691.036	325.33
691.444	264.48
691.852	287.89
692.26	330.02
692.667	297.25
693.075	259.8
693.483	304.27
693.89	301.93
694.298	318.31
694.705	278.52
695.112	315.97
695.52	367.46
695.927	337.04
696.334	360.44
696.741	311.29
697.148	353.42
697.555	322.99
697.962	266.82
698.369	306.61
698.776	327.67
699.183	315.97
699.59	297.25
699.996	269.16
700.403	292.57
700.81	285.55
701.216	339.38
701.623	311.29
702.029	278.52
702.435	327.67
702.842	330.02
703.248	346.4
703.654	388.53
704.06	311.29
704.466	351.08
704.872	346.4
705.278	397.89
705.684	334.7
706.09	299.59
706.496	334.7
706.901	299.59
707.307	231.71
707.712	311.29
708.118	322.99
708.523	372.15
708.929	337.04
709.334	376.83
709.74	304.27
710.145	320.65
710.55	306.61
710.955	360.44
711.36	322.99
711.765	390.87
712.17	308.95
712.575	320.65
712.98	896.43
713.385	358.1
713.789	339.38
714.194	299.59
714.599	369.8
715.003	325.33
715.408	304.27
715.812	299.59
716.217	308.95
716.621	367.46
717.025	283.2
717.429	315.97
717.833	294.91
718.238	318.31
718.642	341.72
719.046	351.08
719.449	283.2
719.853	287.89
720.257	308.95
720.661	344.06
721.065	292.57
721.468	327.67
721.872	334.7
722.275	379.17
722.679	306.61
723.082	327.67
723.485	234.05
723.889	311.29
724.292	301.93
724.695	301.93
725.098	393.21
725.501	337.04
725.904	332.36
726.307	318.31
726.71	346.4
727.113	285.55
727.516	322.99
727.918	315.97
728.321	257.46
728.724	304.27
729.126	330.02
729.529	320.65
729.931	311.29
730.333	353.42
730.736	362.78
731.138	290.23
731.54	280.86
731.942	280.86
732.344	358.1
732.746	264.48
733.148	369.8
733.55	332.36
733.952	332.36
734.354	257.46
734.756	346.4
735.157	344.06
735.559	306.61
735.96	315.97
736.362	348.74
736.763	346.4
737.165	269.16
737.566	334.7
737.967	301.93
738.368	337.04
738.77	318.31
739.171	339.38
739.572	339.38
739.973	304.27
740.374	262.14
740.774	299.59
741.175	351.08
741.576	322.99
741.977	283.2
742.377	346.4
742.778	262.14
743.178	325.33
743.579	320.65
743.979	304.27
744.379	341.72
744.78	327.67
745.18	367.46
745.58	337.04
745.98	287.89
746.38	348.74
746.78	397.89
747.18	318.31
747.58	355.76
747.98	334.7
748.38	313.63
748.779	311.29
749.179	313.63
749.578	360.44
749.978	325.33
750.377	348.74
750.777	313.63
751.176	301.93
751.575	292.57
751.975	292.57
752.374	294.91
752.773	292.57
753.172	294.91
753.571	351.08
753.97	308.95
754.369	358.1
754.768	280.86
755.166	306.61
755.565	320.65
755.964	318.31
756.362	266.82
756.761	313.63
757.159	311.29
757.558	304.27
757.956	285.55
758.354	353.42
758.753	320.65
759.151	383.85
759.549	287.89
759.947	358.1
760.345	362.78
760.743	318.31
761.141	346.4
761.539	287.89
761.936	290.23
762.334	325.33
762.732	276.18
763.129	252.78
763.527	330.02
763.924	393.21
764.322	315.97
764.719	269.16
765.117	341.72
765.514	365.12
