Data from Al_FLMS009871__1101__16-31-46-500.txt Node

Date: Fri Mar 08 16:31:46 CST 2024
User: pe5414po
Spectrometer: FLMS00987
Trigger mode: 0
Integration Time (sec): 1.000000E-1
Scans to average: 1
Electric dark correction enabled: true
Nonlinearity correction enabled: false
Boxcar width: 0
XAxis mode: Wavelengths
Number of Pixels in Spectrum: 2048
>>>>>Begin Spectral Data<<<<<
188.938	-98.01
189.409	-98.01
189.879	-98.01
190.349	-107.37
190.819	-161.2
191.29	-60.56
191.76	-126.1
192.23	-105.03
192.7	-18.43
193.17	-48.86
193.64	-46.52
194.109	-65.24
194.579	-25.45
195.049	16.68
195.519	105.62
195.988	30.72
196.458	-2.05
196.927	93.91
197.397	82.21
197.866	89.23
198.336	79.87
198.805	194.56
199.274	91.57
199.744	161.79
200.213	210.94
200.682	154.77
201.151	241.37
201.62	269.45
202.089	154.77
202.558	229.67
203.027	271.79
203.495	278.82
203.964	264.77
204.433	285.84
204.902	318.61
205.37	283.5
205.839	325.63
206.307	295.2
206.776	295.2
207.244	334.99
207.712	327.97
208.181	334.99
208.649	318.61
209.117	295.2
209.585	334.99
210.053	367.76
210.521	288.18
210.989	269.45
211.457	271.79
211.925	306.9
212.393	248.39
212.861	325.63
213.328	283.5
213.796	288.18
214.264	339.67
214.731	281.16
215.199	246.05
215.666	267.11
216.133	269.45
216.601	234.35
217.068	217.96
217.535	304.56
218.003	262.43
218.47	278.82
218.937	208.6
219.404	206.26
219.871	295.2
220.338	185.19
220.805	288.18
221.271	267.11
221.738	260.09
222.205	313.92
222.671	241.37
223.138	330.31
223.605	243.71
224.071	288.18
224.538	234.35
225.004	288.18
225.47	262.43
225.937	302.22
226.403	236.69
226.869	213.28
227.335	246.05
227.801	325.63
228.267	239.03
228.733	299.88
229.199	311.58
229.665	257.75
230.131	306.9
230.597	290.52
231.062	274.14
231.528	313.92
231.994	267.11
232.459	260.09
232.925	288.18
233.39	224.98
233.856	271.79
234.321	267.11
234.786	269.45
235.252	227.32
235.717	255.41
236.182	269.45
236.647	253.07
237.112	330.31
237.577	304.56
238.042	253.07
238.507	241.37
238.972	250.73
239.436	271.79
239.901	257.75
240.366	274.14
240.83	325.63
241.295	302.22
241.76	316.26
242.224	290.52
242.688	234.35
243.153	316.26
243.617	299.88
244.081	246.05
244.545	334.99
245.01	264.77
245.474	297.54
245.938	311.58
246.402	295.2
246.866	306.9
247.33	267.11
247.793	306.9
248.257	285.84
248.721	299.88
249.185	241.37
249.648	295.2
250.112	241.37
250.575	290.52
251.039	311.58
251.502	283.5
251.965	346.69
252.429	320.95
252.892	269.45
253.355	267.11
253.818	210.94
254.281	288.18
254.744	229.67
255.207	306.9
255.67	290.52
256.133	253.07
256.596	208.6
257.059	267.11
257.522	274.14
257.984	288.18
258.447	297.54
258.909	234.35
259.372	220.3
259.834	257.75
260.297	311.58
260.759	330.31
261.221	283.5
261.684	271.79
262.146	257.75
262.608	295.2
263.07	290.52
263.532	224.98
263.994	292.86
264.456	332.65
264.918	257.75
265.38	344.35
265.842	377.12
266.303	281.16
266.765	281.16
267.227	299.88
267.688	260.09
268.15	309.24
268.611	241.37
269.072	288.18
269.534	353.71
269.995	306.9
270.456	297.54
270.918	283.5
271.379	311.58
271.84	288.18
272.301	274.14
272.762	274.14
273.223	351.37
273.684	262.43
274.144	292.86
274.605	365.42
275.066	271.79
275.527	356.05
275.987	302.22
276.448	290.52
276.908	395.84
277.369	269.45
277.829	377.12
278.289	332.65
278.75	302.22
279.21	248.39
279.67	255.41
280.13	267.11
280.59	276.48
281.05	253.07
281.51	346.69
281.97	342.01
282.43	285.84
282.89	239.03
283.35	269.45
283.809	363.08
284.269	332.65
284.729	290.52
285.188	313.92
285.648	363.08
286.107	297.54
286.567	323.29
287.026	250.73
287.485	234.35
287.944	325.63
288.404	339.67
288.863	281.16
289.322	217.96
289.781	320.95
290.24	311.58
290.699	323.29
291.158	288.18
291.616	262.43
292.075	285.84
292.534	271.79
292.992	299.88
293.451	288.18
293.91	344.35
294.368	295.2
294.827	274.14
295.285	334.99
295.743	344.35
296.202	274.14
296.66	304.56
297.118	248.39
297.576	330.31
298.034	241.37
298.492	309.24
298.95	276.48
299.408	309.24
299.866	285.84
300.324	288.18
300.781	330.31
301.239	281.16
301.697	232.01
302.154	276.48
302.612	246.05
303.069	295.2
303.527	288.18
303.984	386.48
304.441	309.24
304.899	327.97
305.356	351.37
305.813	269.45
306.27	285.84
306.727	269.45
307.184	232.01
307.641	323.29
308.098	278.82
308.555	318.61
309.012	274.14
309.468	274.14
309.925	281.16
310.382	306.9
310.838	269.45
311.295	337.33
311.751	313.92
312.208	349.03
312.664	344.35
313.12	288.18
313.577	306.9
314.033	267.11
314.489	365.42
314.945	311.58
315.401	330.31
315.857	330.31
316.313	281.16
316.769	288.18
317.225	332.65
317.681	388.82
318.136	323.29
318.592	283.5
319.048	311.58
319.503	271.79
319.959	313.92
320.414	365.42
320.869	299.88
321.325	379.46
321.78	278.82
322.235	262.43
322.691	302.22
323.146	278.82
323.601	271.79
324.056	334.99
324.511	358.39
324.966	346.69
325.421	283.5
325.875	344.35
326.33	306.9
326.785	281.16
327.24	330.31
327.694	281.16
328.149	288.18
328.603	330.31
329.058	330.31
329.512	290.52
329.966	311.58
330.421	278.82
330.875	257.75
331.329	285.84
331.783	339.67
332.237	332.65
332.691	386.48
333.145	342.01
333.599	370.1
334.053	262.43
334.507	309.24
334.96	360.74
335.414	318.61
335.868	346.69
336.321	358.39
336.775	278.82
337.228	337.33
337.682	292.86
338.135	302.22
338.588	285.84
339.042	325.63
339.495	292.86
339.948	370.1
340.401	271.79
340.854	299.88
341.307	302.22
341.76	299.88
342.213	332.65
342.666	339.67
343.119	367.76
343.571	360.74
344.024	363.08
344.477	337.33
344.929	351.37
345.382	304.56
345.834	304.56
346.287	320.95
346.739	320.95
347.191	323.29
347.644	295.2
348.096	337.33
348.548	281.16
349	299.88
349.452	342.01
349.904	285.84
350.356	292.86
350.808	344.35
351.26	302.22
351.711	342.01
352.163	253.07
352.615	295.2
353.066	288.18
353.518	370.1
353.969	337.33
354.421	372.44
354.872	351.37
355.324	344.35
355.775	281.16
356.226	264.77
356.677	339.67
357.128	332.65
357.579	274.14
358.03	353.71
358.481	299.88
358.932	262.43
359.383	271.79
359.834	290.52
360.285	316.26
360.735	391.16
361.186	339.67
361.637	339.67
362.087	274.14
362.538	292.86
362.988	363.08
363.438	318.61
363.889	327.97
364.339	276.48
364.789	313.92
365.239	349.03
365.689	320.95
366.139	302.22
366.589	327.97
367.039	262.43
367.489	332.65
367.939	318.61
368.389	356.05
368.839	288.18
369.288	292.86
369.738	332.65
370.187	302.22
370.637	283.5
371.086	269.45
371.536	299.88
371.985	299.88
372.434	304.56
372.884	290.52
373.333	316.26
373.782	297.54
374.231	334.99
374.68	309.24
375.129	306.9
375.578	311.58
376.027	274.14
376.475	297.54
376.924	344.35
377.373	283.5
377.822	285.84
378.27	285.84
378.719	288.18
379.167	288.18
379.616	327.97
380.064	262.43
380.512	295.2
380.961	297.54
381.409	325.63
381.857	306.9
382.305	269.45
382.753	332.65
383.201	405.21
383.649	334.99
384.097	283.5
384.545	349.03
384.992	276.48
385.44	309.24
385.888	306.9
386.335	295.2
386.783	356.05
387.231	332.65
387.678	381.8
388.125	344.35
388.573	327.97
389.02	325.63
389.467	337.33
389.914	320.95
390.362	306.9
390.809	283.5
391.256	395.84
391.703	269.45
392.15	370.1
392.596	306.9
393.043	346.69
393.49	313.92
393.937	311.58
394.383	342.01
394.83	316.26
395.276	325.63
395.723	346.69
396.169	295.2
396.616	342.01
397.062	316.26
397.508	344.35
397.954	255.41
398.401	299.88
398.847	332.65
399.293	358.39
399.739	353.71
400.185	304.56
400.631	363.08
401.076	342.01
401.522	248.39
401.968	320.95
402.414	309.24
402.859	349.03
403.305	295.2
403.75	337.33
404.196	327.97
404.641	325.63
405.086	337.33
405.532	327.97
405.977	316.26
406.422	269.45
406.867	311.58
407.312	391.16
407.757	292.86
408.202	339.67
408.647	325.63
409.092	342.01
409.537	320.95
409.982	295.2
410.426	271.79
410.871	316.26
411.316	342.01
411.76	309.24
412.205	346.69
412.649	283.5
413.093	349.03
413.538	304.56
413.982	316.26
414.426	306.9
414.87	304.56
415.314	323.29
415.758	323.29
416.202	320.95
416.646	269.45
417.09	379.46
417.534	309.24
417.978	304.56
418.421	276.48
418.865	330.31
419.309	379.46
419.752	269.45
420.196	318.61
420.639	299.88
421.083	267.11
421.526	313.92
421.969	320.95
422.412	320.95
422.856	297.54
423.299	290.52
423.742	271.79
424.185	327.97
424.628	323.29
425.071	306.9
425.513	241.37
425.956	292.86
426.399	391.16
426.842	313.92
427.284	325.63
427.727	381.8
428.169	323.29
428.612	353.71
429.054	323.29
429.497	306.9
429.939	316.26
430.381	299.88
430.823	372.44
431.265	337.33
431.707	363.08
432.149	386.48
432.591	306.9
433.033	334.99
433.475	269.45
433.917	349.03
434.359	318.61
434.8	358.39
435.242	339.67
435.684	367.76
436.125	313.92
436.567	325.63
437.008	299.88
437.449	304.56
437.891	285.84
438.332	295.2
438.773	372.44
439.214	316.26
439.656	370.1
440.097	318.61
440.538	332.65
440.978	283.5
441.419	349.03
441.86	271.79
442.301	283.5
442.742	388.82
443.182	346.69
443.623	365.42
444.063	349.03
444.504	318.61
444.944	351.37
445.385	316.26
445.825	274.14
446.265	318.61
446.706	306.9
447.146	285.84
447.586	297.54
448.026	327.97
448.466	353.71
448.906	334.99
449.346	295.2
449.786	292.86
450.225	288.18
450.665	302.22
451.105	353.71
451.544	346.69
451.984	342.01
452.424	302.22
452.863	248.39
453.302	297.54
453.742	302.22
454.181	295.2
454.62	327.97
455.059	346.69
455.499	325.63
455.938	318.61
456.377	313.92
456.816	349.03
457.254	320.95
457.693	283.5
458.132	288.18
458.571	267.11
459.01	262.43
459.448	253.07
459.887	304.56
460.325	302.22
460.764	346.69
461.202	302.22
461.641	349.03
462.079	337.33
462.517	290.52
462.955	353.71
463.393	388.82
463.832	295.2
464.27	349.03
464.708	334.99
465.145	344.35
465.583	407.55
466.021	337.33
466.459	327.97
466.897	353.71
467.334	339.67
467.772	337.33
468.209	377.12
468.647	344.35
469.084	283.5
469.522	379.46
469.959	334.99
470.396	351.37
470.833	311.58
471.271	304.56
471.708	332.65
472.145	278.82
472.582	337.33
473.019	384.14
473.456	356.05
473.892	318.61
474.329	353.71
474.766	381.8
475.202	320.95
475.639	330.31
476.076	330.31
476.512	353.71
476.949	325.63
477.385	257.75
477.821	365.42
478.258	290.52
478.694	334.99
479.13	302.22
479.566	351.37
480.002	358.39
480.438	311.58
480.874	325.63
481.31	304.56
481.746	337.33
482.181	318.61
482.617	253.07
483.053	292.86
483.488	360.74
483.924	349.03
484.36	311.58
484.795	353.71
485.23	346.69
485.666	299.88
486.101	337.33
486.536	262.43
486.971	274.14
487.407	292.86
487.842	367.76
488.277	306.9
488.712	325.63
489.146	271.79
489.581	346.69
490.016	351.37
490.451	232.01
490.885	339.67
491.32	344.35
491.755	377.12
492.189	290.52
492.624	334.99
493.058	384.14
493.492	316.26
493.927	304.56
494.361	381.8
494.795	288.18
495.229	297.54
495.663	386.48
496.097	351.37
496.531	306.9
496.965	260.09
497.399	316.26
497.833	318.61
498.266	356.05
498.7	278.82
499.134	283.5
499.567	306.9
500.001	311.58
500.434	363.08
500.868	372.44
501.301	299.88
501.734	260.09
502.168	248.39
502.601	306.9
503.034	311.58
503.467	363.08
503.9	283.5
504.333	313.92
504.766	269.45
505.199	271.79
505.632	288.18
506.064	276.48
506.497	337.33
506.93	316.26
507.362	349.03
507.795	264.77
508.227	313.92
508.66	297.54
509.092	349.03
509.524	327.97
509.956	290.52
510.389	313.92
510.821	334.99
511.253	342.01
511.685	306.9
512.117	367.76
512.549	299.88
512.981	297.54
513.412	309.24
513.844	311.58
514.276	360.74
514.707	419.25
515.139	325.63
515.571	269.45
516.002	342.01
516.433	351.37
516.865	311.58
517.296	316.26
517.727	325.63
518.159	356.05
518.59	313.92
519.021	243.71
519.452	311.58
519.883	367.76
520.314	302.22
520.744	402.86
521.175	306.9
521.606	374.78
522.037	281.16
522.467	295.2
522.898	344.35
523.328	363.08
523.759	325.63
524.189	283.5
524.62	346.69
525.05	334.99
525.48	372.44
525.91	325.63
526.341	327.97
526.771	232.01
527.201	278.82
527.631	269.45
528.061	353.71
528.49	320.95
528.92	325.63
529.35	311.58
529.78	306.9
530.209	400.52
530.639	262.43
531.068	297.54
531.498	323.29
531.927	344.35
532.357	274.14
532.786	330.31
533.215	316.26
533.644	309.24
534.074	264.77
534.503	332.65
534.932	337.33
535.361	349.03
535.79	339.67
536.218	313.92
536.647	323.29
537.076	302.22
537.505	332.65
537.933	374.78
538.362	323.29
538.79	309.24
539.219	309.24
539.647	257.75
540.076	316.26
540.504	370.1
540.932	334.99
541.36	283.5
541.788	299.88
542.217	283.5
542.645	323.29
543.073	334.99
543.5	351.37
543.928	325.63
544.356	379.46
544.784	313.92
545.211	274.14
545.639	271.79
546.067	274.14
546.494	267.11
546.922	276.48
547.349	309.24
547.776	302.22
548.204	271.79
548.631	257.75
549.058	370.1
549.485	358.39
549.912	337.33
550.339	344.35
550.766	299.88
551.193	337.33
551.62	290.52
552.047	320.95
552.474	339.67
552.9	283.5
553.327	260.09
553.754	334.99
554.18	304.56
554.607	290.52
555.033	299.88
555.459	302.22
555.886	339.67
556.312	337.33
556.738	278.82
557.164	302.22
557.59	309.24
558.016	365.42
558.442	311.58
558.868	278.82
559.294	318.61
559.72	278.82
560.145	306.9
560.571	285.84
560.997	339.67
561.422	306.9
561.848	353.71
562.273	269.45
562.699	374.78
563.124	318.61
563.549	358.39
563.974	320.95
564.4	320.95
564.825	330.31
565.25	381.8
565.675	342.01
566.1	309.24
566.525	304.56
566.95	304.56
567.374	349.03
567.799	313.92
568.224	339.67
568.648	285.84
569.073	318.61
569.497	342.01
569.922	281.16
570.346	356.05
570.771	257.75
571.195	297.54
571.619	309.24
572.043	358.39
572.467	274.14
572.891	271.79
573.315	344.35
573.739	325.63
574.163	313.92
574.587	327.97
575.011	339.67
575.435	325.63
575.858	316.26
576.282	323.29
576.705	344.35
577.129	304.56
577.552	339.67
577.976	320.95
578.399	290.52
578.822	320.95
579.245	299.88
579.669	332.65
580.092	323.29
580.515	358.39
580.938	351.37
581.361	386.48
581.784	290.52
582.206	332.65
582.629	262.43
583.052	318.61
583.474	318.61
583.897	339.67
584.32	346.69
584.742	334.99
585.165	386.48
585.587	320.95
586.009	388.82
586.431	325.63
586.854	330.31
587.276	337.33
587.698	337.33
588.12	248.39
588.542	306.9
588.964	309.24
589.386	302.22
589.807	363.08
590.229	360.74
590.651	302.22
591.073	316.26
591.494	332.65
591.916	316.26
592.337	248.39
592.759	299.88
593.18	260.09
593.601	323.29
594.022	311.58
594.444	342.01
594.865	316.26
595.286	325.63
595.707	281.16
596.128	351.37
596.549	365.42
596.97	349.03
597.39	358.39
597.811	377.12
598.232	267.11
598.652	311.58
599.073	332.65
599.494	290.52
599.914	360.74
600.334	342.01
600.755	388.82
601.175	299.88
601.595	344.35
602.015	337.33
602.436	332.65
602.856	407.55
603.276	306.9
603.696	306.9
604.115	306.9
604.535	309.24
604.955	356.05
605.375	372.44
605.794	236.69
606.214	306.9
606.634	274.14
607.053	316.26
607.473	311.58
607.892	323.29
608.311	302.22
608.731	337.33
609.15	320.95
609.569	323.29
609.988	365.42
610.407	318.61
610.826	306.9
611.245	346.69
611.664	327.97
612.083	278.82
612.501	339.67
612.92	363.08
613.339	334.99
613.757	302.22
614.176	311.58
614.594	370.1
615.013	344.35
615.431	292.86
615.85	290.52
616.268	318.61
616.686	290.52
617.104	349.03
617.522	253.07
617.94	297.54
618.358	311.58
618.776	320.95
619.194	313.92
619.612	344.35
620.03	316.26
620.447	295.2
620.865	267.11
621.282	313.92
621.7	334.99
622.117	311.58
622.535	360.74
622.952	360.74
623.369	327.97
623.787	372.44
624.204	337.33
624.621	332.65
625.038	327.97
625.455	377.12
625.872	400.52
626.289	316.26
626.706	295.2
627.123	274.14
627.539	295.2
627.956	306.9
628.373	269.45
628.789	281.16
629.206	356.05
629.622	295.2
630.038	334.99
630.455	381.8
630.871	316.26
631.287	320.95
631.703	323.29
632.12	306.9
632.536	334.99
632.952	344.35
633.368	365.42
633.783	290.52
634.199	274.14
634.615	316.26
635.031	344.35
635.446	283.5
635.862	330.31
636.277	337.33
636.693	306.9
637.108	297.54
637.524	346.69
637.939	337.33
638.354	302.22
638.77	297.54
639.185	292.86
639.6	330.31
640.015	363.08
640.43	309.24
640.845	353.71
641.259	379.46
641.674	309.24
642.089	203.92
642.504	264.77
642.918	358.39
643.333	346.69
643.747	302.22
644.162	320.95
644.576	239.03
644.991	365.42
645.405	274.14
645.819	309.24
646.233	318.61
646.647	313.92
647.061	349.03
647.475	346.69
647.889	386.48
648.303	278.82
648.717	332.65
649.131	332.65
649.545	278.82
649.958	299.88
650.372	306.9
650.785	323.29
651.199	295.2
651.612	264.77
652.026	306.9
652.439	377.12
652.852	360.74
653.266	304.56
653.679	271.79
654.092	288.18
654.505	342.01
654.918	402.86
655.331	351.37
655.744	311.58
656.156	334.99
656.569	304.56
656.982	395.84
657.394	337.33
657.807	346.69
658.22	339.67
658.632	351.37
659.044	365.42
659.457	334.99
659.869	372.44
660.281	299.88
660.693	309.24
661.106	306.9
661.518	339.67
661.93	302.22
662.342	297.54
662.754	325.63
663.165	325.63
663.577	323.29
663.989	360.74
664.401	344.35
664.812	246.05
665.224	339.67
665.635	304.56
666.047	313.92
666.458	292.86
666.869	262.43
667.281	332.65
667.692	271.79
668.103	360.74
668.514	365.42
668.925	381.8
669.336	276.48
669.747	311.58
670.158	304.56
670.569	353.71
670.979	250.73
671.39	332.65
671.801	309.24
672.211	402.86
672.622	344.35
673.032	316.26
673.443	304.56
673.853	302.22
674.263	264.77
674.674	269.45
675.084	330.31
675.494	407.55
675.904	262.43
676.314	426.27
676.724	344.35
677.134	337.33
677.544	327.97
677.953	274.14
678.363	295.2
678.773	306.9
679.182	334.99
679.592	344.35
680.001	337.33
680.411	370.1
680.82	311.58
681.23	367.76
681.639	325.63
682.048	320.95
682.457	271.79
682.866	318.61
683.275	318.61
683.684	334.99
684.093	342.01
684.502	349.03
684.911	311.58
685.32	302.22
685.728	288.18
686.137	342.01
686.546	393.5
686.954	374.78
687.363	346.69
687.771	349.03
688.179	384.14
688.588	316.26
688.996	377.12
689.404	316.26
689.812	365.42
690.22	250.73
690.628	353.71
691.036	342.01
691.444	325.63
691.852	311.58
692.26	334.99
692.667	311.58
693.075	374.78
693.483	325.63
693.89	327.97
694.298	311.58
694.705	290.52
695.112	302.22
695.52	241.37
695.927	320.95
696.334	365.42
696.741	363.08
697.148	285.84
697.555	358.39
697.962	323.29
698.369	349.03
698.776	274.14
699.183	290.52
699.59	342.01
699.996	412.23
700.403	267.11
700.81	327.97
701.216	325.63
701.623	262.43
702.029	316.26
702.435	388.82
702.842	325.63
703.248	334.99
703.654	274.14
704.06	334.99
704.466	271.79
704.872	288.18
705.278	334.99
705.684	295.2
706.09	320.95
706.496	306.9
706.901	278.82
707.307	302.22
707.712	323.29
708.118	281.16
708.523	283.5
708.929	325.63
709.334	318.61
709.74	412.23
710.145	292.86
710.55	309.24
710.955	320.95
711.36	316.26
711.765	227.32
712.17	351.37
712.575	302.22
712.98	810.12
713.385	339.67
713.789	290.52
714.194	342.01
714.599	374.78
715.003	318.61
715.408	360.74
715.812	306.9
716.217	313.92
716.621	316.26
717.025	377.12
717.429	370.1
717.833	297.54
718.238	276.48
718.642	278.82
719.046	365.42
719.449	332.65
719.853	344.35
720.257	318.61
720.661	306.9
721.065	274.14
721.468	290.52
721.872	283.5
722.275	339.67
722.679	306.9
723.082	351.37
723.485	325.63
723.889	351.37
724.292	276.48
724.695	302.22
725.098	299.88
725.501	297.54
725.904	365.42
726.307	332.65
726.71	276.48
727.113	302.22
727.516	344.35
727.918	433.29
728.321	267.11
728.724	295.2
729.126	332.65
729.529	353.71
729.931	290.52
730.333	360.74
730.736	327.97
731.138	295.2
731.54	292.86
731.942	349.03
732.344	337.33
732.746	344.35
733.148	295.2
733.55	356.05
733.952	356.05
734.354	325.63
734.756	334.99
735.157	346.69
735.559	269.45
735.96	353.71
736.362	288.18
736.763	283.5
737.165	349.03
737.566	391.16
737.967	292.86
738.368	325.63
738.77	337.33
739.171	342.01
739.572	311.58
739.973	271.79
740.374	274.14
740.774	325.63
741.175	365.42
741.576	234.35
741.977	302.22
742.377	285.84
742.778	274.14
743.178	353.71
743.579	320.95
743.979	248.39
744.379	313.92
744.78	285.84
745.18	255.41
745.58	281.16
745.98	337.33
746.38	360.74
746.78	304.56
747.18	346.69
747.58	320.95
747.98	377.12
748.38	290.52
748.779	313.92
749.179	349.03
749.578	327.97
749.978	323.29
750.377	316.26
750.777	384.14
751.176	356.05
751.575	288.18
751.975	318.61
752.374	330.31
752.773	377.12
753.172	363.08
753.571	395.84
753.97	358.39
754.369	393.5
754.768	281.16
755.166	246.05
755.565	299.88
755.964	285.84
756.362	339.67
756.761	311.58
757.159	304.56
757.558	292.86
757.956	295.2
758.354	295.2
758.753	285.84
759.151	327.97
759.549	295.2
759.947	337.33
760.345	360.74
760.743	257.75
761.141	316.26
761.539	337.33
761.936	246.05
762.334	360.74
762.732	313.92
763.129	330.31
763.527	278.82
763.924	285.84
764.322	342.01
764.719	374.78
765.117	332.65
