Data from Al_FLMS009871__1104__16-31-46-800.txt Node

Date: Fri Mar 08 16:31:46 CST 2024
User: pe5414po
Spectrometer: FLMS00987
Trigger mode: 0
Integration Time (sec): 1.000000E-1
Scans to average: 1
Electric dark correction enabled: true
Nonlinearity correction enabled: false
Boxcar width: 0
XAxis mode: Wavelengths
Number of Pixels in Spectrum: 2048
>>>>>Begin Spectral Data<<<<<
188.938	-51.64
189.409	-51.64
189.879	-51.64
190.349	-89.09
190.819	-82.07
191.29	-114.83
191.76	-96.11
192.23	-100.79
192.7	-105.47
193.17	-16.53
193.64	-4.83
194.109	4.53
194.579	2.19
195.049	-0.15
195.519	-44.62
195.988	-2.49
196.458	58.37
196.927	25.6
197.397	102.84
197.866	151.99
198.336	140.29
198.805	222.2
199.274	149.65
199.744	219.86
200.213	147.31
200.682	196.46
201.151	243.27
201.62	182.42
202.089	170.71
202.558	271.36
203.027	271.36
203.495	341.57
203.964	203.48
204.433	208.16
204.902	252.63
205.37	294.76
205.839	278.38
206.307	322.85
206.776	357.96
207.244	304.12
207.712	315.83
208.181	224.55
208.649	306.46
209.117	297.1
209.585	292.42
210.053	322.85
210.521	308.8
210.989	271.36
211.457	313.49
211.925	357.96
212.393	301.78
212.861	327.53
213.328	322.85
213.796	353.27
214.264	287.74
214.731	273.7
215.199	332.21
215.666	264.33
216.133	257.31
216.601	257.31
217.068	269.02
217.535	311.14
218.003	301.78
218.47	348.59
218.937	292.42
219.404	271.36
219.871	273.7
220.338	283.06
220.805	287.74
221.271	264.33
221.738	271.36
222.205	254.97
222.671	208.16
223.138	332.21
223.605	287.74
224.071	257.31
224.538	306.46
225.004	203.48
225.47	161.35
225.937	247.95
226.403	184.76
226.869	233.91
227.335	294.76
227.801	240.93
228.267	259.65
228.733	266.67
229.199	290.08
229.665	254.97
230.131	346.25
230.597	299.44
231.062	203.48
231.528	299.44
231.994	329.87
232.459	304.12
232.925	252.63
233.39	276.04
233.856	276.04
234.321	259.65
234.786	254.97
235.252	271.36
235.717	278.38
236.182	311.14
236.647	336.89
237.112	264.33
237.577	233.91
238.042	308.8
238.507	259.65
238.972	252.63
239.436	315.83
239.901	257.31
240.366	294.76
240.83	224.55
241.295	229.23
241.76	290.08
242.224	311.14
242.688	311.14
243.153	299.44
243.617	269.02
244.081	261.99
244.545	269.02
245.01	306.46
245.474	313.49
245.938	318.17
246.402	318.17
246.866	336.89
247.33	191.78
247.793	339.23
248.257	252.63
248.721	304.12
249.185	233.91
249.648	306.46
250.112	273.7
250.575	257.31
251.039	287.74
251.502	280.72
251.965	294.76
252.429	292.42
252.892	287.74
253.355	336.89
253.818	238.59
254.281	320.51
254.744	297.1
255.207	308.8
255.67	350.93
256.133	315.83
256.596	278.38
257.059	191.78
257.522	313.49
257.984	264.33
258.447	261.99
258.909	290.08
259.372	292.42
259.834	240.93
260.297	250.29
260.759	266.67
261.221	243.27
261.684	254.97
262.146	290.08
262.608	294.76
263.07	315.83
263.532	247.95
263.994	269.02
264.456	266.67
264.918	306.46
265.38	379.02
265.842	353.27
266.303	299.44
266.765	334.55
267.227	346.25
267.688	283.06
268.15	322.85
268.611	304.12
269.072	322.85
269.534	299.44
269.995	325.19
270.456	278.38
270.918	325.19
271.379	259.65
271.84	350.93
272.301	247.95
272.762	238.59
273.223	294.76
273.684	360.3
274.144	320.51
274.605	320.51
275.066	301.78
275.527	301.78
275.987	320.51
276.448	287.74
276.908	311.14
277.369	287.74
277.829	292.42
278.289	301.78
278.75	322.85
279.21	297.1
279.67	247.95
280.13	273.7
280.59	348.59
281.05	315.83
281.51	243.27
281.97	311.14
282.43	320.51
282.89	339.23
283.35	271.36
283.809	271.36
284.269	203.48
284.729	269.02
285.188	325.19
285.648	327.53
286.107	308.8
286.567	276.04
287.026	336.89
287.485	332.21
287.944	294.76
288.404	327.53
288.863	348.59
289.322	294.76
289.781	287.74
290.24	278.38
290.699	229.23
291.158	301.78
291.616	357.96
292.075	271.36
292.534	322.85
292.992	329.87
293.451	283.06
293.91	283.06
294.368	304.12
294.827	278.38
295.285	334.55
295.743	297.1
296.202	287.74
296.66	376.68
297.118	290.08
297.576	285.4
298.034	280.72
298.492	299.44
298.95	353.27
299.408	336.89
299.866	259.65
300.324	350.93
300.781	280.72
301.239	266.67
301.697	313.49
302.154	285.4
302.612	325.19
303.069	308.8
303.527	283.06
303.984	325.19
304.441	297.1
304.899	313.49
305.356	369.66
305.813	283.06
306.27	243.27
306.727	257.31
307.184	315.83
307.641	283.06
308.098	283.06
308.555	252.63
309.012	329.87
309.468	336.89
309.925	269.02
310.382	320.51
310.838	280.72
311.295	311.14
311.751	233.91
312.208	341.57
312.664	301.78
313.12	266.67
313.577	343.91
314.033	318.17
314.489	250.29
314.945	343.91
315.401	236.25
315.857	322.85
316.313	313.49
316.769	327.53
317.225	360.3
317.681	367.32
318.136	343.91
318.592	306.46
319.048	308.8
319.503	357.96
319.959	315.83
320.414	280.72
320.869	280.72
321.325	304.12
321.78	301.78
322.235	313.49
322.691	346.25
323.146	285.4
323.601	357.96
324.056	357.96
324.511	320.51
324.966	336.89
325.421	339.23
325.875	264.33
326.33	292.42
326.785	320.51
327.24	364.98
327.694	325.19
328.149	334.55
328.603	273.7
329.058	283.06
329.512	313.49
329.966	336.89
330.421	318.17
330.875	329.87
331.329	273.7
331.783	301.78
332.237	304.12
332.691	294.76
333.145	334.55
333.599	278.38
334.053	329.87
334.507	278.38
334.96	329.87
335.414	318.17
335.868	299.44
336.321	357.96
336.775	233.91
337.228	311.14
337.682	313.49
338.135	304.12
338.588	339.23
339.042	332.21
339.495	367.32
339.948	329.87
340.401	320.51
340.854	315.83
341.307	329.87
341.76	301.78
342.213	278.38
342.666	306.46
343.119	332.21
343.571	320.51
344.024	306.46
344.477	299.44
344.929	313.49
345.382	264.33
345.834	325.19
346.287	261.99
346.739	327.53
347.191	311.14
347.644	287.74
348.096	266.67
348.548	299.44
349	327.53
349.452	287.74
349.904	290.08
350.356	287.74
350.808	397.74
351.26	280.72
351.711	290.08
352.163	336.89
352.615	350.93
353.066	343.91
353.518	332.21
353.969	346.25
354.421	294.76
354.872	315.83
355.324	313.49
355.775	325.19
356.226	276.04
356.677	348.59
357.128	341.57
357.579	306.46
358.03	332.21
358.481	292.42
358.932	315.83
359.383	283.06
359.834	243.27
360.285	343.91
360.735	339.23
361.186	280.72
361.637	362.64
362.087	285.4
362.538	266.67
362.988	306.46
363.438	369.66
363.889	294.76
364.339	311.14
364.789	339.23
365.239	266.67
365.689	339.23
366.139	311.14
366.589	372
367.039	311.14
367.489	254.97
367.939	306.46
368.389	306.46
368.839	308.8
369.288	278.38
369.738	301.78
370.187	299.44
370.637	355.62
371.086	290.08
371.536	318.17
371.985	297.1
372.434	322.85
372.884	299.44
373.333	299.44
373.782	271.36
374.231	332.21
374.68	287.74
375.129	308.8
375.578	336.89
376.027	308.8
376.475	367.32
376.924	355.62
377.373	271.36
377.822	336.89
378.27	294.76
378.719	320.51
379.167	233.91
379.616	322.85
380.064	318.17
380.512	334.55
380.961	376.68
381.409	346.25
381.857	325.19
382.305	341.57
382.753	374.34
383.201	287.74
383.649	285.4
384.097	257.31
384.545	343.91
384.992	327.53
385.44	341.57
385.888	306.46
386.335	386.04
386.783	355.62
387.231	355.62
387.678	292.42
388.125	360.3
388.573	311.14
389.02	374.34
389.467	346.25
389.914	311.14
390.362	343.91
390.809	269.02
391.256	346.25
391.703	336.89
392.15	240.93
392.596	299.44
393.043	299.44
393.49	318.17
393.937	313.49
394.383	383.7
394.83	285.4
395.276	318.17
395.723	299.44
396.169	329.87
396.616	294.76
397.062	315.83
397.508	261.99
397.954	341.57
398.401	254.97
398.847	320.51
399.293	388.38
399.739	308.8
400.185	287.74
400.631	278.38
401.076	283.06
401.522	259.65
401.968	290.08
402.414	346.25
402.859	308.8
403.305	343.91
403.75	350.93
404.196	299.44
404.641	322.85
405.086	332.21
405.532	308.8
405.977	325.19
406.422	285.4
406.867	372
407.312	339.23
407.757	299.44
408.202	341.57
408.647	301.78
409.092	299.44
409.537	273.7
409.982	313.49
410.426	320.51
410.871	348.59
411.316	336.89
411.76	315.83
412.205	301.78
412.649	325.19
413.093	325.19
413.538	266.67
413.982	383.7
414.426	264.33
414.87	318.17
415.314	299.44
415.758	339.23
416.202	327.53
416.646	287.74
417.09	341.57
417.534	285.4
417.978	320.51
418.421	355.62
418.865	308.8
419.309	259.65
419.752	343.91
420.196	395.4
420.639	336.89
421.083	341.57
421.526	257.31
421.969	355.62
422.412	278.38
422.856	318.17
423.299	306.46
423.742	297.1
424.185	360.3
424.628	294.76
425.071	308.8
425.513	299.44
425.956	308.8
426.399	269.02
426.842	343.91
427.284	313.49
427.727	379.02
428.169	257.31
428.612	322.85
429.054	341.57
429.497	334.55
429.939	301.78
430.381	315.83
430.823	376.68
431.265	325.19
431.707	308.8
432.149	311.14
432.591	350.93
433.033	315.83
433.475	290.08
433.917	322.85
434.359	414.13
434.8	353.27
435.242	313.49
435.684	294.76
436.125	343.91
436.567	315.83
437.008	379.02
437.449	311.14
437.891	320.51
438.332	271.36
438.773	327.53
439.214	320.51
439.656	278.38
440.097	320.51
440.538	350.93
440.978	294.76
441.419	343.91
441.86	393.06
442.301	301.78
442.742	287.74
443.182	339.23
443.623	318.17
444.063	322.85
444.504	334.55
444.944	336.89
445.385	343.91
445.825	271.36
446.265	376.68
446.706	280.72
447.146	294.76
447.586	313.49
448.026	332.21
448.466	376.68
448.906	318.17
449.346	297.1
449.786	357.96
450.225	362.64
450.665	273.7
451.105	332.21
451.544	313.49
451.984	353.27
452.424	346.25
452.863	264.33
453.302	254.97
453.742	311.14
454.181	304.12
454.62	327.53
455.059	301.78
455.499	315.83
455.938	311.14
456.377	306.46
456.816	332.21
457.254	325.19
457.693	276.04
458.132	306.46
458.571	294.76
459.01	311.14
459.448	280.72
459.887	343.91
460.325	341.57
460.764	353.27
461.202	292.42
461.641	304.12
462.079	332.21
462.517	325.19
462.955	313.49
463.393	348.59
463.832	362.64
464.27	292.42
464.708	355.62
465.145	329.87
465.583	386.04
466.021	350.93
466.459	376.68
466.897	313.49
467.334	357.96
467.772	339.23
468.209	357.96
468.647	362.64
469.084	306.46
469.522	348.59
469.959	343.91
470.396	315.83
470.833	304.12
471.271	327.53
471.708	301.78
472.145	238.59
472.582	336.89
473.019	269.02
473.456	205.82
473.892	287.74
474.329	329.87
474.766	276.04
475.202	383.7
475.639	285.4
476.076	299.44
476.512	343.91
476.949	297.1
477.385	308.8
477.821	269.02
478.258	360.3
478.694	276.04
479.13	290.08
479.566	261.99
480.002	327.53
480.438	278.38
480.874	306.46
481.31	369.66
481.746	318.17
482.181	290.08
482.617	285.4
483.053	266.67
483.488	334.55
483.924	332.21
484.36	322.85
484.795	287.74
485.23	381.36
485.666	322.85
486.101	362.64
486.536	320.51
486.971	299.44
487.407	318.17
487.842	339.23
488.277	304.12
488.712	297.1
489.146	369.66
489.581	285.4
490.016	306.46
490.451	297.1
490.885	332.21
491.32	325.19
491.755	315.83
492.189	290.08
492.624	322.85
493.058	315.83
493.492	336.89
493.927	252.63
494.361	308.8
494.795	339.23
495.229	374.34
495.663	299.44
496.097	397.74
496.531	304.12
496.965	306.46
497.399	346.25
497.833	313.49
498.266	343.91
498.7	372
499.134	327.53
499.567	308.8
500.001	301.78
500.434	224.55
500.868	318.17
501.301	318.17
501.734	350.93
502.168	254.97
502.601	299.44
503.034	336.89
503.467	304.12
503.9	297.1
504.333	376.68
504.766	346.25
505.199	290.08
505.632	334.55
506.064	294.76
506.497	315.83
506.93	313.49
507.362	299.44
507.795	299.44
508.227	353.27
508.66	360.3
509.092	334.55
509.524	285.4
509.956	318.17
510.389	336.89
510.821	254.97
511.253	229.23
511.685	311.14
512.117	299.44
512.549	276.04
512.981	343.91
513.412	315.83
513.844	254.97
514.276	322.85
514.707	297.1
515.139	266.67
515.571	332.21
516.002	297.1
516.433	301.78
516.865	322.85
517.296	381.36
517.727	339.23
518.159	257.31
518.59	325.19
519.021	283.06
519.452	332.21
519.883	343.91
520.314	315.83
520.744	350.93
521.175	320.51
521.606	376.68
522.037	318.17
522.467	322.85
522.898	315.83
523.328	334.55
523.759	329.87
524.189	318.17
524.62	297.1
525.05	290.08
525.48	318.17
525.91	353.27
526.341	308.8
526.771	383.7
527.201	346.25
527.631	271.36
528.061	299.44
528.49	355.62
528.92	346.25
529.35	327.53
529.78	257.31
530.209	318.17
530.639	313.49
531.068	285.4
531.498	276.04
531.927	278.38
532.357	266.67
532.786	306.46
533.215	362.64
533.644	400.09
534.074	280.72
534.503	301.78
534.932	290.08
535.361	327.53
535.79	308.8
536.218	308.8
536.647	259.65
537.076	271.36
537.505	271.36
537.933	308.8
538.362	355.62
538.79	393.06
539.219	350.93
539.647	327.53
540.076	304.12
540.504	327.53
540.932	313.49
541.36	301.78
541.788	280.72
542.217	311.14
542.645	243.27
543.073	367.32
543.5	362.64
543.928	332.21
544.356	315.83
544.784	364.98
545.211	301.78
545.639	355.62
546.067	315.83
546.494	439.87
546.922	308.8
547.349	325.19
547.776	336.89
548.204	318.17
548.631	350.93
549.058	327.53
549.485	322.85
549.912	322.85
550.339	322.85
550.766	381.36
551.193	393.06
551.62	381.36
552.047	348.59
552.474	292.42
552.9	350.93
553.327	322.85
553.754	285.4
554.18	325.19
554.607	343.91
555.033	334.55
555.459	381.36
555.886	264.33
556.312	318.17
556.738	346.25
557.164	364.98
557.59	336.89
558.016	236.25
558.442	308.8
558.868	257.31
559.294	393.06
559.72	350.93
560.145	245.61
560.571	341.57
560.997	367.32
561.422	350.93
561.848	311.14
562.273	367.32
562.699	343.91
563.124	297.1
563.549	339.23
563.974	357.96
564.4	329.87
564.825	280.72
565.25	285.4
565.675	278.38
566.1	353.27
566.525	367.32
566.95	355.62
567.374	311.14
567.799	318.17
568.224	294.76
568.648	320.51
569.073	257.31
569.497	306.46
569.922	379.02
570.346	325.19
570.771	353.27
571.195	315.83
571.619	364.98
572.043	329.87
572.467	229.23
572.891	224.55
573.315	332.21
573.739	322.85
574.163	339.23
574.587	315.83
575.011	360.3
575.435	353.27
575.858	325.19
576.282	372
576.705	332.21
577.129	273.7
577.552	341.57
577.976	364.98
578.399	341.57
578.822	386.04
579.245	306.46
579.669	311.14
580.092	290.08
580.515	245.61
580.938	278.38
581.361	313.49
581.784	236.25
582.206	318.17
582.629	362.64
583.052	280.72
583.474	311.14
583.897	348.59
584.32	327.53
584.742	350.93
585.165	290.08
585.587	301.78
586.009	320.51
586.431	322.85
586.854	348.59
587.276	322.85
587.698	372
588.12	287.74
588.542	343.91
588.964	362.64
589.386	339.23
589.807	341.57
590.229	247.95
590.651	304.12
591.073	383.7
591.494	372
591.916	311.14
592.337	311.14
592.759	320.51
593.18	304.12
593.601	299.44
594.022	269.02
594.444	320.51
594.865	311.14
595.286	306.46
595.707	322.85
596.128	290.08
596.549	287.74
596.97	367.32
597.39	379.02
597.811	292.42
598.232	252.63
598.652	304.12
599.073	226.89
599.494	357.96
599.914	306.46
600.334	304.12
600.755	292.42
601.175	259.65
601.595	329.87
602.015	276.04
602.436	315.83
602.856	442.21
603.276	322.85
603.696	353.27
604.115	367.32
604.535	336.89
604.955	306.46
605.375	320.51
605.794	261.99
606.214	278.38
606.634	285.4
607.053	341.57
607.473	283.06
607.892	299.44
608.311	327.53
608.731	367.32
609.15	301.78
609.569	362.64
609.988	327.53
610.407	290.08
610.826	297.1
611.245	418.81
611.664	327.53
612.083	327.53
612.501	327.53
612.92	355.62
613.339	355.62
613.757	285.4
614.176	355.62
614.594	346.25
615.013	355.62
615.431	327.53
615.85	297.1
616.268	341.57
616.686	369.66
617.104	266.67
617.522	350.93
617.94	280.72
618.358	329.87
618.776	259.65
619.194	283.06
619.612	339.23
620.03	327.53
620.447	362.64
620.865	327.53
621.282	259.65
621.7	343.91
622.117	327.53
622.535	327.53
622.952	285.4
623.369	346.25
623.787	336.89
624.204	341.57
624.621	318.17
625.038	381.36
625.455	341.57
625.872	332.21
626.289	292.42
626.706	346.25
627.123	294.76
627.539	287.74
627.956	367.32
628.373	320.51
628.789	364.98
629.206	315.83
629.622	276.04
630.038	320.51
630.455	315.83
630.871	374.34
631.287	308.8
631.703	325.19
632.12	292.42
632.536	336.89
632.952	290.08
633.368	308.8
633.783	290.08
634.199	325.19
634.615	393.06
635.031	313.49
635.446	350.93
635.862	285.4
636.277	299.44
636.693	294.76
637.108	264.33
637.524	334.55
637.939	343.91
638.354	247.95
638.77	362.64
639.185	339.23
639.6	318.17
640.015	360.3
640.43	329.87
640.845	299.44
641.259	245.61
641.674	318.17
642.089	362.64
642.504	292.42
642.918	290.08
643.333	269.02
643.747	318.17
644.162	304.12
644.576	301.78
644.991	332.21
645.405	322.85
645.819	336.89
646.233	334.55
646.647	325.19
647.061	357.96
647.475	297.1
647.889	336.89
648.303	304.12
648.717	313.49
649.131	339.23
649.545	346.25
649.958	318.17
650.372	315.83
650.785	311.14
651.199	334.55
651.612	318.17
652.026	327.53
652.439	327.53
652.852	320.51
653.266	294.76
653.679	341.57
654.092	276.04
654.505	355.62
654.918	395.4
655.331	283.06
655.744	311.14
656.156	329.87
656.569	346.25
656.982	315.83
657.394	325.19
657.807	329.87
658.22	329.87
658.632	332.21
659.044	285.4
659.457	322.85
659.869	311.14
660.281	306.46
660.693	297.1
661.106	320.51
661.518	297.1
661.93	264.33
662.342	304.12
662.754	294.76
663.165	325.19
663.577	350.93
663.989	250.29
664.401	325.19
664.812	226.89
665.224	271.36
665.635	311.14
666.047	276.04
666.458	332.21
666.869	339.23
667.281	276.04
667.692	311.14
668.103	409.45
668.514	334.55
668.925	278.38
669.336	329.87
669.747	320.51
670.158	318.17
670.569	327.53
670.979	313.49
671.39	353.27
671.801	273.7
672.211	304.12
672.622	261.99
673.032	245.61
673.443	327.53
673.853	343.91
674.263	325.19
674.674	379.02
675.084	306.46
675.494	304.12
675.904	299.44
676.314	346.25
676.724	315.83
677.134	341.57
677.544	339.23
677.953	341.57
678.363	332.21
678.773	322.85
679.182	297.1
679.592	311.14
680.001	278.38
680.411	334.55
680.82	283.06
681.23	308.8
681.639	315.83
682.048	336.89
682.457	229.23
682.866	343.91
683.275	360.3
683.684	294.76
684.093	346.25
684.502	357.96
684.911	285.4
685.32	343.91
685.728	367.32
686.137	350.93
686.546	283.06
686.954	283.06
687.363	374.34
687.771	297.1
688.179	329.87
688.588	325.19
688.996	301.78
689.404	271.36
689.812	336.89
690.22	325.19
690.628	271.36
691.036	357.96
691.444	322.85
691.852	308.8
692.26	313.49
692.667	252.63
693.075	250.29
693.483	306.46
693.89	318.17
694.298	287.74
694.705	355.62
695.112	318.17
695.52	285.4
695.927	336.89
696.334	322.85
696.741	322.85
697.148	318.17
697.555	306.46
697.962	304.12
698.369	273.7
698.776	240.93
699.183	304.12
699.59	308.8
699.996	226.89
700.403	273.7
700.81	261.99
701.216	278.38
701.623	360.3
702.029	334.55
702.435	339.23
702.842	271.36
703.248	336.89
703.654	297.1
704.06	299.44
704.466	254.97
704.872	355.62
705.278	350.93
705.684	336.89
706.09	364.98
706.496	292.42
706.901	327.53
707.307	301.78
707.712	318.17
708.118	290.08
708.523	311.14
708.929	238.59
709.334	343.91
709.74	308.8
710.145	332.21
710.55	297.1
710.955	315.83
711.36	350.93
711.765	341.57
712.17	381.36
712.575	360.3
712.98	823.72
713.385	367.32
713.789	334.55
714.194	285.4
714.599	320.51
715.003	336.89
715.408	297.1
715.812	271.36
716.217	395.4
716.621	283.06
717.025	355.62
717.429	280.72
717.833	332.21
718.238	334.55
718.642	320.51
719.046	308.8
719.449	290.08
719.853	315.83
720.257	318.17
720.661	283.06
721.065	308.8
721.468	290.08
721.872	313.49
722.275	322.85
722.679	348.59
723.082	332.21
723.485	374.34
723.889	306.46
724.292	329.87
724.695	329.87
725.098	292.42
725.501	285.4
725.904	308.8
726.307	320.51
726.71	334.55
727.113	362.64
727.516	273.7
727.918	285.4
728.321	325.19
728.724	276.04
729.126	261.99
729.529	329.87
729.931	306.46
730.333	308.8
730.736	353.27
731.138	266.67
731.54	301.78
731.942	318.17
732.344	360.3
732.746	369.66
733.148	306.46
733.55	339.23
733.952	341.57
734.354	306.46
734.756	301.78
735.157	346.25
735.559	264.33
735.96	325.19
736.362	280.72
736.763	311.14
737.165	383.7
737.566	315.83
737.967	294.76
738.368	313.49
738.77	273.7
739.171	327.53
739.572	350.93
739.973	301.78
740.374	254.97
740.774	259.65
741.175	261.99
741.576	306.46
741.977	306.46
742.377	306.46
742.778	261.99
743.178	327.53
743.579	271.36
743.979	350.93
744.379	332.21
744.78	304.12
745.18	290.08
745.58	308.8
745.98	334.55
746.38	334.55
746.78	353.27
747.18	238.59
747.58	294.76
747.98	322.85
748.38	271.36
748.779	299.44
749.179	348.59
749.578	329.87
749.978	301.78
750.377	332.21
750.777	280.72
751.176	278.38
751.575	287.74
751.975	372
752.374	287.74
752.773	257.31
753.172	350.93
753.571	304.12
753.97	294.76
754.369	322.85
754.768	311.14
755.166	334.55
755.565	315.83
755.964	339.23
756.362	414.13
756.761	292.42
757.159	341.57
757.558	332.21
757.956	381.36
758.354	348.59
758.753	292.42
759.151	343.91
759.549	292.42
759.947	304.12
760.345	348.59
760.743	372
761.141	346.25
761.539	311.14
761.936	264.33
762.334	283.06
762.732	252.63
763.129	290.08
763.527	278.38
763.924	311.14
764.322	367.32
764.719	261.99
765.117	322.85
765.514	369.66
