Data from Al_FLMS009871__1100__16-31-46-400.txt Node

Date: Fri Mar 08 16:31:46 CST 2024
User: pe5414po
Spectrometer: FLMS00987
Trigger mode: 0
Integration Time (sec): 1.000000E-1
Scans to average: 1
Electric dark correction enabled: true
Nonlinearity correction enabled: false
Boxcar width: 0
XAxis mode: Wavelengths
Number of Pixels in Spectrum: 2048
>>>>>Begin Spectral Data<<<<<
188.938	-52.81
189.409	-52.81
189.879	-52.81
190.349	-108.98
190.819	-83.24
191.29	-158.13
191.76	-137.07
192.23	-127.71
192.7	-78.55
193.17	-48.13
193.64	-10.68
194.109	24.43
194.579	61.88
195.049	15.07
195.519	-62.17
195.988	-1.32
196.458	29.11
196.927	122.73
197.397	104.01
197.866	104.01
198.336	162.52
198.805	242.1
199.274	199.97
199.744	181.25
200.213	232.74
200.682	192.95
201.151	246.78
201.62	267.85
202.089	258.48
202.558	279.55
203.027	272.53
203.495	263.16
203.964	263.16
204.433	230.4
204.902	298.27
205.37	251.46
205.839	312.32
206.307	279.55
206.776	272.53
207.244	251.46
207.712	256.14
208.181	342.74
208.649	279.55
209.117	274.87
209.585	335.72
210.053	324.02
210.521	333.38
210.989	331.04
211.457	324.02
211.925	242.1
212.393	249.12
212.861	291.25
213.328	225.72
213.796	319.34
214.264	340.4
214.731	319.34
215.199	302.95
215.666	302.95
216.133	237.42
216.601	249.12
217.068	199.97
217.535	253.8
218.003	300.61
218.47	272.53
218.937	267.85
219.404	277.21
219.871	232.74
220.338	288.91
220.805	246.78
221.271	225.72
221.738	277.21
222.205	307.63
222.671	265.5
223.138	263.16
223.605	237.42
224.071	216.35
224.538	326.36
225.004	239.76
225.47	279.55
225.937	277.21
226.403	298.27
226.869	199.97
227.335	258.48
227.801	232.74
228.267	300.61
228.733	317
229.199	178.9
229.665	291.25
230.131	246.78
230.597	326.36
231.062	321.68
231.528	199.97
231.994	260.82
232.459	263.16
232.925	288.91
233.39	291.25
233.856	244.44
234.321	232.74
234.786	293.59
235.252	209.33
235.717	274.87
236.182	260.82
236.647	232.74
237.112	206.99
237.577	277.21
238.042	258.48
238.507	326.36
238.972	279.55
239.436	293.59
239.901	249.12
240.366	253.8
240.83	246.78
241.295	279.55
241.76	277.21
242.224	249.12
242.688	270.19
243.153	253.8
243.617	284.23
244.081	258.48
244.545	267.85
245.01	251.46
245.474	260.82
245.938	291.25
246.402	235.08
246.866	253.8
247.33	232.74
247.793	317
248.257	298.27
248.721	256.14
249.185	251.46
249.648	190.61
250.112	279.55
250.575	302.95
251.039	370.83
251.502	298.27
251.965	300.61
252.429	349.76
252.892	211.67
253.355	291.25
253.818	331.04
254.281	335.72
254.744	263.16
255.207	281.89
255.67	288.91
256.133	216.35
256.596	246.78
257.059	284.23
257.522	265.5
257.984	228.06
258.447	293.59
258.909	281.89
259.372	286.57
259.834	309.97
260.297	309.97
260.759	244.44
261.221	256.14
261.684	305.29
262.146	298.27
262.608	256.14
263.07	317
263.532	295.93
263.994	333.38
264.456	382.53
264.918	286.57
265.38	279.55
265.842	267.85
266.303	277.21
266.765	298.27
267.227	216.35
267.688	251.46
268.15	314.66
268.611	361.47
269.072	251.46
269.534	284.23
269.995	354.44
270.456	305.29
270.918	263.16
271.379	317
271.84	319.34
272.301	321.68
272.762	286.57
273.223	354.44
273.684	335.72
274.144	302.95
274.605	286.57
275.066	249.12
275.527	288.91
275.987	335.72
276.448	342.74
276.908	267.85
277.369	309.97
277.829	345.08
278.289	326.36
278.75	291.25
279.21	239.76
279.67	246.78
280.13	260.82
280.59	270.19
281.05	279.55
281.51	277.21
281.97	281.89
282.43	382.53
282.89	260.82
283.35	274.87
283.809	291.25
284.269	302.95
284.729	204.65
285.188	326.36
285.648	300.61
286.107	279.55
286.567	277.21
287.026	270.19
287.485	256.14
287.944	251.46
288.404	298.27
288.863	286.57
289.322	345.08
289.781	244.44
290.24	331.04
290.699	298.27
291.158	309.97
291.616	242.1
292.075	284.23
292.534	267.85
292.992	279.55
293.451	307.63
293.91	312.32
294.368	300.61
294.827	291.25
295.285	331.04
295.743	260.82
296.202	314.66
296.66	288.91
297.118	246.78
297.576	356.79
298.034	232.74
298.492	277.21
298.95	256.14
299.408	239.76
299.866	256.14
300.324	321.68
300.781	286.57
301.239	239.76
301.697	281.89
302.154	309.97
302.612	300.61
303.069	286.57
303.527	309.97
303.984	256.14
304.441	321.68
304.899	284.23
305.356	277.21
305.813	302.95
306.27	225.72
306.727	291.25
307.184	319.34
307.641	281.89
308.098	305.29
308.555	265.5
309.012	288.91
309.468	326.36
309.925	284.23
310.382	342.74
310.838	314.66
311.295	302.95
311.751	354.44
312.208	309.97
312.664	281.89
313.12	291.25
313.577	295.93
314.033	279.55
314.489	256.14
314.945	279.55
315.401	340.4
315.857	324.02
316.313	335.72
316.769	347.42
317.225	326.36
317.681	267.85
318.136	272.53
318.592	288.91
319.048	237.42
319.503	251.46
319.959	277.21
320.414	382.53
320.869	317
321.325	277.21
321.78	326.36
322.235	300.61
322.691	270.19
323.146	321.68
323.601	300.61
324.056	312.32
324.511	260.82
324.966	260.82
325.421	319.34
325.875	237.42
326.33	305.29
326.785	317
327.24	279.55
327.694	260.82
328.149	286.57
328.603	305.29
329.058	312.32
329.512	284.23
329.966	251.46
330.421	253.8
330.875	333.38
331.329	333.38
331.783	286.57
332.237	331.04
332.691	307.63
333.145	291.25
333.599	314.66
334.053	366.15
334.507	309.97
334.96	274.87
335.414	335.72
335.868	235.08
336.321	317
336.775	265.5
337.228	356.79
337.682	279.55
338.135	288.91
338.588	307.63
339.042	263.16
339.495	359.13
339.948	317
340.401	326.36
340.854	321.68
341.307	298.27
341.76	300.61
342.213	302.95
342.666	307.63
343.119	244.44
343.571	302.95
344.024	274.87
344.477	305.29
344.929	228.06
345.382	331.04
345.834	342.74
346.287	300.61
346.739	253.8
347.191	295.93
347.644	342.74
348.096	300.61
348.548	368.49
349	340.4
349.452	309.97
349.904	352.1
350.356	321.68
350.808	267.85
351.26	295.93
351.711	302.95
352.163	277.21
352.615	305.29
353.066	286.57
353.518	267.85
353.969	291.25
354.421	300.61
354.872	314.66
355.324	370.83
355.775	324.02
356.226	260.82
356.677	288.91
357.128	333.38
357.579	319.34
358.03	239.76
358.481	284.23
358.932	312.32
359.383	314.66
359.834	312.32
360.285	277.21
360.735	272.53
361.186	249.12
361.637	277.21
362.087	239.76
362.538	324.02
362.988	293.59
363.438	305.29
363.889	319.34
364.339	328.7
364.789	324.02
365.239	272.53
365.689	375.51
366.139	363.81
366.589	335.72
367.039	314.66
367.489	321.68
367.939	335.72
368.389	368.49
368.839	317
369.288	361.47
369.738	305.29
370.187	274.87
370.637	300.61
371.086	302.95
371.536	380.19
371.985	338.06
372.434	342.74
372.884	265.5
373.333	305.29
373.782	244.44
374.231	270.19
374.68	333.38
375.129	324.02
375.578	324.02
376.027	298.27
376.475	312.32
376.924	263.16
377.373	244.44
377.822	314.66
378.27	312.32
378.719	356.79
379.167	317
379.616	274.87
380.064	319.34
380.512	272.53
380.961	349.76
381.409	321.68
381.857	314.66
382.305	312.32
382.753	284.23
383.201	366.15
383.649	300.61
384.097	291.25
384.545	342.74
384.992	338.06
385.44	288.91
385.888	307.63
386.335	302.95
386.783	300.61
387.231	274.87
387.678	331.04
388.125	307.63
388.573	230.4
389.02	288.91
389.467	305.29
389.914	314.66
390.362	302.95
390.809	286.57
391.256	307.63
391.703	328.7
392.15	277.21
392.596	352.1
393.043	281.89
393.49	363.81
393.937	270.19
394.383	319.34
394.83	295.93
395.276	331.04
395.723	279.55
396.169	317
396.616	312.32
397.062	347.42
397.508	361.47
397.954	331.04
398.401	293.59
398.847	263.16
399.293	260.82
399.739	277.21
400.185	309.97
400.631	352.1
401.076	326.36
401.522	307.63
401.968	314.66
402.414	317
402.859	314.66
403.305	288.91
403.75	298.27
404.196	305.29
404.641	317
405.086	328.7
405.532	321.68
405.977	354.44
406.422	295.93
406.867	190.61
407.312	214.01
407.757	324.02
408.202	270.19
408.647	281.89
409.092	338.06
409.537	321.68
409.982	352.1
410.426	373.17
410.871	270.19
411.316	331.04
411.76	295.93
412.205	258.48
412.649	326.36
413.093	326.36
413.538	342.74
413.982	305.29
414.426	267.85
414.87	396.57
415.314	349.76
415.758	305.29
416.202	291.25
416.646	295.93
417.09	239.76
417.534	361.47
417.978	384.87
418.421	377.85
418.865	263.16
419.309	300.61
419.752	347.42
420.196	256.14
420.639	338.06
421.083	284.23
421.526	232.74
421.969	270.19
422.412	338.06
422.856	298.27
423.299	324.02
423.742	288.91
424.185	335.72
424.628	274.87
425.071	312.32
425.513	342.74
425.956	317
426.399	340.4
426.842	314.66
427.284	356.79
427.727	281.89
428.169	256.14
428.612	291.25
429.054	295.93
429.497	288.91
429.939	279.55
430.381	295.93
430.823	288.91
431.265	291.25
431.707	293.59
432.149	279.55
432.591	267.85
433.033	335.72
433.475	377.85
433.917	295.93
434.359	340.4
434.8	300.61
435.242	307.63
435.684	272.53
436.125	408.28
436.567	324.02
437.008	321.68
437.449	195.29
437.891	340.4
438.332	277.21
438.773	347.42
439.214	319.34
439.656	274.87
440.097	324.02
440.538	239.76
440.978	312.32
441.419	331.04
441.86	352.1
442.301	300.61
442.742	291.25
443.182	347.42
443.623	249.12
444.063	309.97
444.504	288.91
444.944	335.72
445.385	317
445.825	300.61
446.265	345.08
446.706	317
447.146	326.36
447.586	359.13
448.026	349.76
448.466	349.76
448.906	373.17
449.346	331.04
449.786	319.34
450.225	347.42
450.665	305.29
451.105	284.23
451.544	305.29
451.984	354.44
452.424	354.44
452.863	338.06
453.302	281.89
453.742	333.38
454.181	302.95
454.62	307.63
455.059	302.95
455.499	312.32
455.938	230.4
456.377	295.93
456.816	228.06
457.254	272.53
457.693	300.61
458.132	309.97
458.571	347.42
459.01	333.38
459.448	307.63
459.887	349.76
460.325	312.32
460.764	251.46
461.202	291.25
461.641	232.74
462.079	272.53
462.517	319.34
462.955	368.49
463.393	270.19
463.832	279.55
464.27	349.76
464.708	302.95
465.145	305.29
465.583	298.27
466.021	359.13
466.459	277.21
466.897	375.51
467.334	281.89
467.772	317
468.209	305.29
468.647	319.34
469.084	312.32
469.522	326.36
469.959	237.42
470.396	277.21
470.833	317
471.271	300.61
471.708	246.78
472.145	249.12
472.582	309.97
473.019	368.49
473.456	331.04
473.892	352.1
474.329	375.51
474.766	373.17
475.202	366.15
475.639	352.1
476.076	286.57
476.512	387.21
476.949	345.08
477.385	326.36
477.821	281.89
478.258	239.76
478.694	319.34
479.13	354.44
479.566	270.19
480.002	331.04
480.438	333.38
480.874	307.63
481.31	349.76
481.746	391.89
482.181	286.57
482.617	352.1
483.053	331.04
483.488	291.25
483.924	307.63
484.36	319.34
484.795	319.34
485.23	338.06
485.666	298.27
486.101	326.36
486.536	307.63
486.971	326.36
487.407	345.08
487.842	317
488.277	293.59
488.712	331.04
489.146	288.91
489.581	326.36
490.016	307.63
490.451	239.76
490.885	324.02
491.32	298.27
491.755	307.63
492.189	302.95
492.624	328.7
493.058	253.8
493.492	298.27
493.927	391.89
494.361	286.57
494.795	237.42
495.229	321.68
495.663	302.95
496.097	228.06
496.531	239.76
496.965	361.47
497.399	305.29
497.833	300.61
498.266	366.15
498.7	305.29
499.134	347.42
499.567	291.25
500.001	307.63
500.434	279.55
500.868	342.74
501.301	391.89
501.734	302.95
502.168	302.95
502.601	349.76
503.034	263.16
503.467	293.59
503.9	375.51
504.333	338.06
504.766	272.53
505.199	368.49
505.632	314.66
506.064	284.23
506.497	274.87
506.93	265.5
507.362	309.97
507.795	356.79
508.227	258.48
508.66	314.66
509.092	333.38
509.524	317
509.956	284.23
510.389	272.53
510.821	295.93
511.253	291.25
511.685	312.32
512.117	384.87
512.549	288.91
512.981	305.29
513.412	307.63
513.844	277.21
514.276	307.63
514.707	354.44
515.139	253.8
515.571	382.53
516.002	286.57
516.433	246.78
516.865	373.17
517.296	307.63
517.727	359.13
518.159	328.7
518.59	281.89
519.021	307.63
519.452	424.66
519.883	328.7
520.314	288.91
520.744	251.46
521.175	317
521.606	244.44
522.037	321.68
522.467	293.59
522.898	302.95
523.328	345.08
523.759	382.53
524.189	333.38
524.62	338.06
525.05	314.66
525.48	307.63
525.91	279.55
526.341	324.02
526.771	298.27
527.201	342.74
527.631	312.32
528.061	302.95
528.49	328.7
528.92	326.36
529.35	295.93
529.78	286.57
530.209	328.7
530.639	284.23
531.068	302.95
531.498	253.8
531.927	281.89
532.357	270.19
532.786	347.42
533.215	272.53
533.644	331.04
534.074	265.5
534.503	317
534.932	279.55
535.361	284.23
535.79	389.55
536.218	370.83
536.647	270.19
537.076	321.68
537.505	300.61
537.933	281.89
538.362	309.97
538.79	331.04
539.219	319.34
539.647	302.95
540.076	274.87
540.504	321.68
540.932	314.66
541.36	279.55
541.788	309.97
542.217	314.66
542.645	314.66
543.073	338.06
543.5	317
543.928	284.23
544.356	291.25
544.784	333.38
545.211	251.46
545.639	354.44
546.067	328.7
546.494	293.59
546.922	328.7
547.349	321.68
547.776	335.72
548.204	345.08
548.631	277.21
549.058	317
549.485	342.74
549.912	345.08
550.339	246.78
550.766	319.34
551.193	345.08
551.62	314.66
552.047	270.19
552.474	249.12
552.9	317
553.327	331.04
553.754	352.1
554.18	354.44
554.607	253.8
555.033	312.32
555.459	338.06
555.886	235.08
556.312	331.04
556.738	410.62
557.164	338.06
557.59	302.95
558.016	312.32
558.442	380.19
558.868	335.72
559.294	307.63
559.72	291.25
560.145	328.7
560.571	305.29
560.997	228.06
561.422	331.04
561.848	260.82
562.273	242.1
562.699	319.34
563.124	361.47
563.549	324.02
563.974	298.27
564.4	265.5
564.825	312.32
565.25	333.38
565.675	286.57
566.1	331.04
566.525	286.57
566.95	370.83
567.374	309.97
567.799	291.25
568.224	291.25
568.648	356.79
569.073	366.15
569.497	340.4
569.922	288.91
570.346	373.17
570.771	288.91
571.195	270.19
571.619	328.7
572.043	354.44
572.467	317
572.891	223.37
573.315	274.87
573.739	349.76
574.163	284.23
574.587	382.53
575.011	284.23
575.435	305.29
575.858	267.85
576.282	305.29
576.705	354.44
577.129	244.44
577.552	291.25
577.976	380.19
578.399	314.66
578.822	317
579.245	340.4
579.669	302.95
580.092	309.97
580.515	277.21
580.938	256.14
581.361	324.02
581.784	333.38
582.206	312.32
582.629	291.25
583.052	384.87
583.474	272.53
583.897	300.61
584.32	324.02
584.742	321.68
585.165	326.36
585.587	293.59
586.009	307.63
586.431	281.89
586.854	263.16
587.276	317
587.698	300.61
588.12	331.04
588.542	340.4
588.964	265.5
589.386	293.59
589.807	321.68
590.229	314.66
590.651	263.16
591.073	342.74
591.494	295.93
591.916	281.89
592.337	319.34
592.759	223.37
593.18	324.02
593.601	319.34
594.022	326.36
594.444	246.78
594.865	349.76
595.286	300.61
595.707	349.76
596.128	298.27
596.549	333.38
596.97	295.93
597.39	326.36
597.811	300.61
598.232	335.72
598.652	324.02
599.073	314.66
599.494	331.04
599.914	251.46
600.334	256.14
600.755	361.47
601.175	295.93
601.595	272.53
602.015	298.27
602.436	338.06
602.856	398.92
603.276	324.02
603.696	293.59
604.115	298.27
604.535	256.14
604.955	380.19
605.375	366.15
605.794	281.89
606.214	302.95
606.634	342.74
607.053	309.97
607.473	326.36
607.892	345.08
608.311	338.06
608.731	366.15
609.15	251.46
609.569	246.78
609.988	265.5
610.407	298.27
610.826	270.19
611.245	326.36
611.664	281.89
612.083	263.16
612.501	288.91
612.92	288.91
613.339	298.27
613.757	274.87
614.176	274.87
614.594	340.4
615.013	288.91
615.431	302.95
615.85	263.16
616.268	286.57
616.686	347.42
617.104	326.36
617.522	286.57
617.94	349.76
618.358	333.38
618.776	345.08
619.194	251.46
619.612	286.57
620.03	253.8
620.447	309.97
620.865	340.4
621.282	340.4
621.7	361.47
622.117	293.59
622.535	265.5
622.952	291.25
623.369	309.97
623.787	328.7
624.204	300.61
624.621	305.29
625.038	298.27
625.455	345.08
625.872	317
626.289	302.95
626.706	314.66
627.123	307.63
627.539	298.27
627.956	317
628.373	300.61
628.789	295.93
629.206	331.04
629.622	331.04
630.038	302.95
630.455	298.27
630.871	338.06
631.287	342.74
631.703	333.38
632.12	328.7
632.536	373.17
632.952	335.72
633.368	333.38
633.783	309.97
634.199	331.04
634.615	312.32
635.031	317
635.446	366.15
635.862	317
636.277	352.1
636.693	291.25
637.108	288.91
637.524	377.85
637.939	317
638.354	300.61
638.77	307.63
639.185	368.49
639.6	338.06
640.015	307.63
640.43	293.59
640.845	345.08
641.259	342.74
641.674	354.44
642.089	335.72
642.504	197.63
642.918	274.87
643.333	235.08
643.747	321.68
644.162	312.32
644.576	298.27
644.991	319.34
645.405	270.19
645.819	380.19
646.233	277.21
646.647	368.49
647.061	312.32
647.475	359.13
647.889	281.89
648.303	300.61
648.717	324.02
649.131	333.38
649.545	314.66
649.958	274.87
650.372	326.36
650.785	328.7
651.199	324.02
651.612	253.8
652.026	291.25
652.439	359.13
652.852	307.63
653.266	342.74
653.679	284.23
654.092	298.27
654.505	263.16
654.918	279.55
655.331	328.7
655.744	338.06
656.156	359.13
656.569	293.59
656.982	279.55
657.394	298.27
657.807	331.04
658.22	338.06
658.632	253.8
659.044	293.59
659.457	326.36
659.869	281.89
660.281	321.68
660.693	302.95
661.106	361.47
661.518	387.21
661.93	302.95
662.342	300.61
662.754	333.38
663.165	342.74
663.577	291.25
663.989	309.97
664.401	359.13
664.812	324.02
665.224	309.97
665.635	270.19
666.047	377.85
666.458	300.61
666.869	314.66
667.281	321.68
667.692	284.23
668.103	361.47
668.514	340.4
668.925	277.21
669.336	324.02
669.747	347.42
670.158	338.06
670.569	352.1
670.979	305.29
671.39	272.53
671.801	274.87
672.211	321.68
672.622	333.38
673.032	272.53
673.443	312.32
673.853	291.25
674.263	370.83
674.674	328.7
675.084	331.04
675.494	324.02
675.904	326.36
676.314	370.83
676.724	298.27
677.134	361.47
677.544	295.93
677.953	359.13
678.363	342.74
678.773	382.53
679.182	281.89
679.592	370.83
680.001	366.15
680.411	324.02
680.82	331.04
681.23	368.49
681.639	319.34
682.048	251.46
682.457	277.21
682.866	375.51
683.275	263.16
683.684	242.1
684.093	270.19
684.502	324.02
684.911	284.23
685.32	293.59
685.728	345.08
686.137	270.19
686.546	324.02
686.954	366.15
687.363	333.38
687.771	279.55
688.179	307.63
688.588	258.48
688.996	246.78
689.404	291.25
689.812	377.85
690.22	317
690.628	300.61
691.036	319.34
691.444	377.85
691.852	314.66
692.26	293.59
692.667	260.82
693.075	321.68
693.483	338.06
693.89	328.7
694.298	291.25
694.705	354.44
695.112	347.42
695.52	293.59
695.927	331.04
696.334	317
696.741	345.08
697.148	293.59
697.555	305.29
697.962	300.61
698.369	293.59
698.776	368.49
699.183	281.89
699.59	286.57
699.996	298.27
700.403	328.7
700.81	300.61
701.216	270.19
701.623	347.42
702.029	293.59
702.435	326.36
702.842	302.95
703.248	270.19
703.654	312.32
704.06	370.83
704.466	298.27
704.872	300.61
705.278	349.76
705.684	328.7
706.09	239.76
706.496	354.44
706.901	377.85
707.307	333.38
707.712	321.68
708.118	258.48
708.523	387.21
708.929	319.34
709.334	333.38
709.74	347.42
710.145	267.85
710.55	352.1
710.955	317
711.36	286.57
711.765	279.55
712.17	319.34
712.575	300.61
712.98	864.68
713.385	324.02
713.789	317
714.194	302.95
714.599	331.04
715.003	291.25
715.408	291.25
715.812	307.63
716.217	324.02
716.621	319.34
717.025	396.57
717.429	359.13
717.833	363.81
718.238	342.74
718.642	307.63
719.046	328.7
719.449	324.02
719.853	340.4
720.257	305.29
720.661	363.81
721.065	331.04
721.468	328.7
721.872	319.34
722.275	300.61
722.679	284.23
723.082	295.93
723.485	256.14
723.889	340.4
724.292	317
724.695	300.61
725.098	319.34
725.501	342.74
725.904	291.25
726.307	377.85
726.71	349.76
727.113	368.49
727.516	291.25
727.918	321.68
728.321	324.02
728.724	328.7
729.126	347.42
729.529	279.55
729.931	267.85
730.333	356.79
730.736	312.32
731.138	363.81
731.54	317
731.942	300.61
732.344	288.91
732.746	277.21
733.148	288.91
733.55	326.36
733.952	298.27
734.354	317
734.756	389.55
735.157	288.91
735.559	331.04
735.96	363.81
736.362	270.19
736.763	286.57
737.165	321.68
737.566	286.57
737.967	335.72
738.368	298.27
738.77	272.53
739.171	352.1
739.572	319.34
739.973	270.19
740.374	321.68
740.774	335.72
741.175	324.02
741.576	335.72
741.977	284.23
742.377	314.66
742.778	307.63
743.178	295.93
743.579	288.91
743.979	305.29
744.379	338.06
744.78	288.91
745.18	352.1
745.58	293.59
745.98	328.7
746.38	326.36
746.78	317
747.18	319.34
747.58	356.79
747.98	317
748.38	331.04
748.779	331.04
749.179	274.87
749.578	302.95
749.978	335.72
750.377	300.61
750.777	412.96
751.176	314.66
751.575	324.02
751.975	321.68
752.374	317
752.773	288.91
753.172	309.97
753.571	352.1
753.97	370.83
754.369	326.36
754.768	302.95
755.166	326.36
755.565	309.97
755.964	361.47
756.362	321.68
756.761	295.93
757.159	391.89
757.558	279.55
757.956	309.97
758.354	342.74
758.753	300.61
759.151	345.08
759.549	307.63
759.947	251.46
760.345	291.25
760.743	354.44
761.141	326.36
761.539	326.36
761.936	298.27
762.334	279.55
762.732	317
763.129	228.06
763.527	265.5
763.924	335.72
764.322	331.04
764.719	312.32
765.117	338.06
765.514	281.89
765.911	326.36
766.308	235.08
766.705	328.7
767.102	326.36
