Data from Al_FLMS009871__1118__16-31-48-200.txt Node

Date: Fri Mar 08 16:31:48 CST 2024
User: pe5414po
Spectrometer: FLMS00987
Trigger mode: 0
Integration Time (sec): 1.000000E-1
Scans to average: 1
Electric dark correction enabled: true
Nonlinearity correction enabled: false
Boxcar width: 0
XAxis mode: Wavelengths
Number of Pixels in Spectrum: 2048
>>>>>Begin Spectral Data<<<<<
188.938	-90.55
189.409	-90.55
189.879	-90.55
190.349	-113.95
190.819	-167.79
191.29	-146.72
191.76	-97.57
192.23	-83.53
192.7	-125.66
193.17	-83.53
193.64	-34.38
194.109	-62.46
194.579	-3.95
195.049	-34.38
195.519	70.95
195.988	92.01
196.458	63.93
196.927	92.01
197.397	120.1
197.866	82.65
198.336	150.53
198.805	141.16
199.274	183.29
199.744	202.02
200.213	234.78
200.682	183.29
201.151	234.78
201.62	190.31
202.089	199.68
202.558	272.23
203.027	335.43
203.495	230.1
203.964	218.4
204.433	326.07
204.902	248.83
205.37	253.51
205.839	241.81
206.307	321.38
206.776	305
207.244	274.57
207.712	300.32
208.181	281.6
208.649	344.79
209.117	326.07
209.585	265.21
210.053	258.19
210.521	328.41
210.989	290.96
211.457	276.91
211.925	293.3
212.393	316.7
212.861	272.23
213.328	323.73
213.796	307.34
214.264	255.85
214.731	290.96
215.199	328.41
215.666	283.94
216.133	225.42
216.601	279.26
217.068	286.28
217.535	305
218.003	265.21
218.47	267.55
218.937	267.55
219.404	223.08
219.871	246.49
220.338	237.13
220.805	223.08
221.271	227.76
221.738	281.6
222.205	293.3
222.671	307.34
223.138	267.55
223.605	297.98
224.071	262.87
224.538	283.94
225.004	295.64
225.47	316.7
225.937	262.87
226.403	253.51
226.869	232.44
227.335	195
227.801	276.91
228.267	248.83
228.733	309.68
229.199	290.96
229.665	267.55
230.131	297.98
230.597	260.53
231.062	262.87
231.528	234.78
231.994	246.49
232.459	276.91
232.925	295.64
233.39	258.19
233.856	258.19
234.321	260.53
234.786	232.44
235.252	265.21
235.717	288.62
236.182	246.49
236.647	333.09
237.112	272.23
237.577	297.98
238.042	239.47
238.507	246.49
238.972	316.7
239.436	286.28
239.901	272.23
240.366	307.34
240.83	316.7
241.295	267.55
241.76	279.26
242.224	286.28
242.688	276.91
243.153	305
243.617	297.98
244.081	300.32
244.545	283.94
245.01	321.38
245.474	232.44
245.938	356.49
246.402	220.74
246.866	354.15
247.33	326.07
247.793	239.47
248.257	244.15
248.721	227.76
249.185	281.6
249.648	244.15
250.112	312.02
250.575	262.87
251.039	274.57
251.502	239.47
251.965	290.96
252.429	246.49
252.892	281.6
253.355	312.02
253.818	227.76
254.281	276.91
254.744	288.62
255.207	248.83
255.67	326.07
256.133	274.57
256.596	288.62
257.059	290.96
257.522	279.26
257.984	225.42
258.447	344.79
258.909	305
259.372	239.47
259.834	290.96
260.297	365.85
260.759	347.13
261.221	321.38
261.684	251.17
262.146	272.23
262.608	272.23
263.07	314.36
263.532	283.94
263.994	244.15
264.456	323.73
264.918	342.45
265.38	326.07
265.842	293.3
266.303	276.91
266.765	293.3
267.227	288.62
267.688	286.28
268.15	297.98
268.611	297.98
269.072	302.66
269.534	276.91
269.995	232.44
270.456	305
270.918	305
271.379	302.66
271.84	213.72
272.301	272.23
272.762	255.85
273.223	283.94
273.684	283.94
274.144	272.23
274.605	319.04
275.066	354.15
275.527	288.62
275.987	297.98
276.448	290.96
276.908	361.17
277.369	276.91
277.829	281.6
278.289	305
278.75	281.6
279.21	335.43
279.67	246.49
280.13	337.77
280.59	260.53
281.05	225.42
281.51	323.73
281.97	283.94
282.43	286.28
282.89	309.68
283.35	276.91
283.809	293.3
284.269	246.49
284.729	274.57
285.188	305
285.648	260.53
286.107	307.34
286.567	260.53
287.026	265.21
287.485	302.66
287.944	244.15
288.404	234.78
288.863	295.64
289.322	297.98
289.781	335.43
290.24	244.15
290.699	234.78
291.158	302.66
291.616	239.47
292.075	286.28
292.534	361.17
292.992	276.91
293.451	354.15
293.91	382.24
294.368	302.66
294.827	288.62
295.285	288.62
295.743	323.73
296.202	323.73
296.66	330.75
297.118	323.73
297.576	314.36
298.034	307.34
298.492	349.47
298.95	260.53
299.408	335.43
299.866	307.34
300.324	379.9
300.781	279.26
301.239	305
301.697	248.83
302.154	286.28
302.612	316.7
303.069	309.68
303.527	312.02
303.984	302.66
304.441	335.43
304.899	272.23
305.356	309.68
305.813	241.81
306.27	293.3
306.727	305
307.184	290.96
307.641	244.15
308.098	276.91
308.555	288.62
309.012	302.66
309.468	309.68
309.925	333.09
310.382	321.38
310.838	281.6
311.295	302.66
311.751	337.77
312.208	283.94
312.664	293.3
313.12	314.36
313.577	260.53
314.033	305
314.489	335.43
314.945	312.02
315.401	265.21
315.857	281.6
316.313	330.75
316.769	314.36
317.225	269.89
317.681	274.57
318.136	253.51
318.592	297.98
319.048	246.49
319.503	323.73
319.959	349.47
320.414	290.96
320.869	290.96
321.325	316.7
321.78	321.38
322.235	312.02
322.691	300.32
323.146	333.09
323.601	286.28
324.056	279.26
324.511	349.47
324.966	305
325.421	288.62
325.875	260.53
326.33	206.7
326.785	279.26
327.24	363.51
327.694	384.58
328.149	305
328.603	319.04
329.058	253.51
329.512	351.81
329.966	323.73
330.421	265.21
330.875	305
331.329	286.28
331.783	293.3
332.237	265.21
332.691	279.26
333.145	363.51
333.599	316.7
334.053	288.62
334.507	326.07
334.96	356.49
335.414	272.23
335.868	379.9
336.321	323.73
336.775	319.04
337.228	309.68
337.682	412.67
338.135	321.38
338.588	326.07
339.042	337.77
339.495	337.77
339.948	305
340.401	302.66
340.854	375.22
341.307	328.41
341.76	337.77
342.213	251.17
342.666	237.13
343.119	305
343.571	342.45
344.024	347.13
344.477	272.23
344.929	269.89
345.382	335.43
345.834	405.64
346.287	267.55
346.739	309.68
347.191	286.28
347.644	267.55
348.096	358.83
348.548	297.98
349	290.96
349.452	312.02
349.904	293.3
350.356	302.66
350.808	309.68
351.26	305
351.711	321.38
352.163	269.89
352.615	321.38
353.066	276.91
353.518	321.38
353.969	293.3
354.421	333.09
354.872	218.4
355.324	297.98
355.775	340.11
356.226	321.38
356.677	297.98
357.128	335.43
357.579	328.41
358.03	293.3
358.481	340.11
358.932	248.83
359.383	290.96
359.834	314.36
360.285	358.83
360.735	283.94
361.186	279.26
361.637	347.13
362.087	391.6
362.538	288.62
362.988	297.98
363.438	305
363.889	281.6
364.339	328.41
364.789	347.13
365.239	333.09
365.689	316.7
366.139	300.32
366.589	319.04
367.039	361.17
367.489	321.38
367.939	295.64
368.389	276.91
368.839	295.64
369.288	312.02
369.738	326.07
370.187	372.88
370.637	330.75
371.086	283.94
371.536	255.85
371.985	295.64
372.434	272.23
372.884	344.79
373.333	293.3
373.782	307.34
374.231	354.15
374.68	276.91
375.129	267.55
375.578	335.43
376.027	347.13
376.475	295.64
376.924	321.38
377.373	433.73
377.822	323.73
378.27	328.41
378.719	269.89
379.167	316.7
379.616	330.75
380.064	302.66
380.512	337.77
380.961	305
381.409	323.73
381.857	260.53
382.305	302.66
382.753	258.19
383.201	297.98
383.649	307.34
384.097	281.6
384.545	335.43
384.992	293.3
385.44	337.77
385.888	276.91
386.335	328.41
386.783	305
387.231	293.3
387.678	356.49
388.125	321.38
388.573	314.36
389.02	274.57
389.467	358.83
389.914	286.28
390.362	344.79
390.809	269.89
391.256	297.98
391.703	279.26
392.15	372.88
392.596	262.87
393.043	347.13
393.49	370.54
393.937	333.09
394.383	337.77
394.83	276.91
395.276	290.96
395.723	312.02
396.169	312.02
396.616	351.81
397.062	297.98
397.508	290.96
397.954	335.43
398.401	363.51
398.847	377.56
399.293	319.04
399.739	234.78
400.185	314.36
400.631	323.73
401.076	358.83
401.522	300.32
401.968	290.96
402.414	363.51
402.859	316.7
403.305	349.47
403.75	323.73
404.196	356.49
404.641	253.51
405.086	305
405.532	321.38
405.977	354.15
406.422	333.09
406.867	379.9
407.312	283.94
407.757	246.49
408.202	309.68
408.647	377.56
409.092	382.24
409.537	316.7
409.982	344.79
410.426	211.38
410.871	321.38
411.316	370.54
411.76	314.36
412.205	333.09
412.649	288.62
413.093	330.75
413.538	321.38
413.982	344.79
414.426	302.66
414.87	290.96
415.314	321.38
415.758	335.43
416.202	272.23
416.646	269.89
417.09	314.36
417.534	344.79
417.978	361.17
418.421	375.22
418.865	267.55
419.309	316.7
419.752	333.09
420.196	274.57
420.639	314.36
421.083	274.57
421.526	365.85
421.969	307.34
422.412	321.38
422.856	354.15
423.299	363.51
423.742	300.32
424.185	356.49
424.628	377.56
425.071	351.81
425.513	323.73
425.956	300.32
426.399	314.36
426.842	340.11
427.284	307.34
427.727	349.47
428.169	342.45
428.612	302.66
429.054	358.83
429.497	286.28
429.939	279.26
430.381	340.11
430.823	326.07
431.265	283.94
431.707	293.3
432.149	262.87
432.591	297.98
433.033	300.32
433.475	283.94
433.917	288.62
434.359	295.64
434.8	351.81
435.242	314.36
435.684	293.3
436.125	328.41
436.567	288.62
437.008	335.43
437.449	279.26
437.891	316.7
438.332	342.45
438.773	281.6
439.214	262.87
439.656	351.81
440.097	319.04
440.538	340.11
440.978	314.36
441.419	309.68
441.86	382.24
442.301	267.55
442.742	330.75
443.182	321.38
443.623	290.96
444.063	276.91
444.504	307.34
444.944	283.94
445.385	363.51
445.825	342.45
446.265	255.85
446.706	361.17
447.146	316.7
447.586	375.22
448.026	386.92
448.466	316.7
448.906	335.43
449.346	347.13
449.786	319.04
450.225	312.02
450.665	281.6
451.105	300.32
451.544	351.81
451.984	337.77
452.424	349.47
452.863	333.09
453.302	295.64
453.742	326.07
454.181	314.36
454.62	283.94
455.059	368.2
455.499	283.94
455.938	290.96
456.377	321.38
456.816	265.21
457.254	349.47
457.693	316.7
458.132	281.6
458.571	279.26
459.01	349.47
459.448	307.34
459.887	267.55
460.325	356.49
460.764	309.68
461.202	326.07
461.641	319.04
462.079	340.11
462.517	365.85
462.955	342.45
463.393	379.9
463.832	281.6
464.27	382.24
464.708	295.64
465.145	260.53
465.583	255.85
466.021	272.23
466.459	300.32
466.897	330.75
467.334	314.36
467.772	340.11
468.209	286.28
468.647	342.45
469.084	260.53
469.522	312.02
469.959	358.83
470.396	297.98
470.833	302.66
471.271	319.04
471.708	368.2
472.145	288.62
472.582	286.28
473.019	307.34
473.456	403.3
473.892	340.11
474.329	337.77
474.766	326.07
475.202	286.28
475.639	351.81
476.076	344.79
476.512	319.04
476.949	323.73
477.385	340.11
477.821	297.98
478.258	422.03
478.694	342.45
479.13	326.07
479.566	354.15
480.002	319.04
480.438	384.58
480.874	321.38
481.31	361.17
481.746	286.28
482.181	276.91
482.617	305
483.053	316.7
483.488	326.07
483.924	288.62
484.36	344.79
484.795	260.53
485.23	314.36
485.666	281.6
486.101	248.83
486.536	309.68
486.971	333.09
487.407	335.43
487.842	295.64
488.277	335.43
488.712	281.6
489.146	279.26
489.581	389.26
490.016	279.26
490.451	295.64
490.885	314.36
491.32	323.73
491.755	297.98
492.189	347.13
492.624	340.11
493.058	302.66
493.492	340.11
493.927	253.51
494.361	309.68
494.795	302.66
495.229	288.62
495.663	293.3
496.097	314.36
496.531	351.81
496.965	312.02
497.399	351.81
497.833	340.11
498.266	204.36
498.7	321.38
499.134	312.02
499.567	307.34
500.001	330.75
500.434	328.41
500.868	302.66
501.301	283.94
501.734	323.73
502.168	316.7
502.601	305
503.034	340.11
503.467	312.02
503.9	293.3
504.333	319.04
504.766	288.62
505.199	358.83
505.632	335.43
506.064	330.75
506.497	309.68
506.93	262.87
507.362	307.34
507.795	314.36
508.227	260.53
508.66	319.04
509.092	309.68
509.524	319.04
509.956	302.66
510.389	323.73
510.821	337.77
511.253	276.91
511.685	342.45
512.117	485.22
512.549	354.15
512.981	342.45
513.412	316.7
513.844	312.02
514.276	314.36
514.707	365.85
515.139	363.51
515.571	333.09
516.002	340.11
516.433	326.07
516.865	295.64
517.296	314.36
517.727	354.15
518.159	326.07
518.59	267.55
519.021	335.43
519.452	349.47
519.883	342.45
520.314	393.94
520.744	354.15
521.175	272.23
521.606	269.89
522.037	312.02
522.467	300.32
522.898	347.13
523.328	267.55
523.759	262.87
524.189	279.26
524.62	314.36
525.05	309.68
525.48	274.57
525.91	319.04
526.341	328.41
526.771	335.43
527.201	347.13
527.631	368.2
528.061	337.77
528.49	328.41
528.92	295.64
529.35	319.04
529.78	307.34
530.209	295.64
530.639	333.09
531.068	269.89
531.498	370.54
531.927	300.32
532.357	344.79
532.786	288.62
533.215	300.32
533.644	363.51
534.074	300.32
534.503	347.13
534.932	333.09
535.361	314.36
535.79	347.13
536.218	342.45
536.647	347.13
537.076	302.66
537.505	316.7
537.933	319.04
538.362	297.98
538.79	309.68
539.219	307.34
539.647	281.6
540.076	239.47
540.504	365.85
540.932	384.58
541.36	361.17
541.788	300.32
542.217	349.47
542.645	272.23
543.073	234.78
543.5	344.79
543.928	328.41
544.356	358.83
544.784	379.9
545.211	281.6
545.639	290.96
546.067	333.09
546.494	340.11
546.922	312.02
547.349	328.41
547.776	323.73
548.204	307.34
548.631	363.51
549.058	316.7
549.485	351.81
549.912	382.24
550.339	356.49
550.766	328.41
551.193	309.68
551.62	293.3
552.047	361.17
552.474	347.13
552.9	286.28
553.327	356.49
553.754	349.47
554.18	302.66
554.607	365.85
555.033	293.3
555.459	319.04
555.886	330.75
556.312	349.47
556.738	248.83
557.164	279.26
557.59	370.54
558.016	297.98
558.442	283.94
558.868	358.83
559.294	290.96
559.72	232.44
560.145	351.81
560.571	326.07
560.997	349.47
561.422	314.36
561.848	234.78
562.273	316.7
562.699	276.91
563.124	283.94
563.549	297.98
563.974	309.68
564.4	328.41
564.825	255.85
565.25	274.57
565.675	328.41
566.1	398.62
566.525	305
566.95	326.07
567.374	302.66
567.799	351.81
568.224	335.43
568.648	279.26
569.073	333.09
569.497	326.07
569.922	316.7
570.346	286.28
570.771	300.32
571.195	335.43
571.619	276.91
572.043	234.78
572.467	283.94
572.891	319.04
573.315	370.54
573.739	265.21
574.163	305
574.587	312.02
575.011	319.04
575.435	335.43
575.858	260.53
576.282	307.34
576.705	297.98
577.129	300.32
577.552	281.6
577.976	323.73
578.399	309.68
578.822	347.13
579.245	347.13
579.669	328.41
580.092	363.51
580.515	253.51
580.938	300.32
581.361	309.68
581.784	342.45
582.206	305
582.629	276.91
583.052	356.49
583.474	379.9
583.897	316.7
584.32	321.38
584.742	312.02
585.165	286.28
585.587	288.62
586.009	337.77
586.431	288.62
586.854	297.98
587.276	321.38
587.698	319.04
588.12	319.04
588.542	286.28
588.964	290.96
589.386	326.07
589.807	328.41
590.229	356.49
590.651	335.43
591.073	351.81
591.494	333.09
591.916	314.36
592.337	286.28
592.759	300.32
593.18	265.21
593.601	321.38
594.022	316.7
594.444	312.02
594.865	342.45
595.286	349.47
595.707	265.21
596.128	328.41
596.549	312.02
596.97	354.15
597.39	335.43
597.811	297.98
598.232	300.32
598.652	400.96
599.073	379.9
599.494	356.49
599.914	337.77
600.334	314.36
600.755	314.36
601.175	377.56
601.595	328.41
602.015	361.17
602.436	354.15
602.856	419.69
603.276	354.15
603.696	365.85
604.115	354.15
604.535	314.36
604.955	356.49
605.375	351.81
605.794	319.04
606.214	370.54
606.634	279.26
607.053	333.09
607.473	307.34
607.892	272.23
608.311	283.94
608.731	272.23
609.15	297.98
609.569	309.68
609.988	370.54
610.407	302.66
610.826	342.45
611.245	309.68
611.664	351.81
612.083	316.7
612.501	274.57
612.92	344.79
613.339	328.41
613.757	340.11
614.176	403.3
614.594	255.85
615.013	370.54
615.431	333.09
615.85	293.3
616.268	295.64
616.686	283.94
617.104	326.07
617.522	260.53
617.94	344.79
618.358	326.07
618.776	349.47
619.194	333.09
619.612	314.36
620.03	351.81
620.447	305
620.865	279.26
621.282	368.2
621.7	386.92
622.117	293.3
622.535	279.26
622.952	281.6
623.369	279.26
623.787	302.66
624.204	335.43
624.621	305
625.038	290.96
625.455	393.94
625.872	307.34
626.289	323.73
626.706	386.92
627.123	295.64
627.539	309.68
627.956	258.19
628.373	283.94
628.789	283.94
629.206	288.62
629.622	337.77
630.038	330.75
630.455	316.7
630.871	363.51
631.287	351.81
631.703	323.73
632.12	340.11
632.536	333.09
632.952	314.36
633.368	307.34
633.783	340.11
634.199	330.75
634.615	297.98
635.031	340.11
635.446	370.54
635.862	293.3
636.277	321.38
636.693	305
637.108	269.89
637.524	372.88
637.939	330.75
638.354	330.75
638.77	321.38
639.185	412.67
639.6	347.13
640.015	297.98
640.43	279.26
640.845	358.83
641.259	305
641.674	309.68
642.089	347.13
642.504	258.19
642.918	251.17
643.333	297.98
643.747	262.87
644.162	328.41
644.576	307.34
644.991	305
645.405	262.87
645.819	290.96
646.233	314.36
646.647	379.9
647.061	354.15
647.475	351.81
647.889	305
648.303	283.94
648.717	321.38
649.131	305
649.545	297.98
649.958	293.3
650.372	293.3
650.785	335.43
651.199	321.38
651.612	328.41
652.026	354.15
652.439	344.79
652.852	323.73
653.266	279.26
653.679	244.15
654.092	305
654.505	300.32
654.918	297.98
655.331	262.87
655.744	286.28
656.156	354.15
656.569	365.85
656.982	262.87
657.394	351.81
657.807	372.88
658.22	328.41
658.632	314.36
659.044	262.87
659.457	335.43
659.869	375.22
660.281	347.13
660.693	340.11
661.106	337.77
661.518	295.64
661.93	351.81
662.342	290.96
662.754	344.79
663.165	300.32
663.577	288.62
663.989	344.79
664.401	314.36
664.812	333.09
665.224	319.04
665.635	328.41
666.047	305
666.458	312.02
666.869	335.43
667.281	375.22
667.692	337.77
668.103	363.51
668.514	335.43
668.925	323.73
669.336	384.58
669.747	305
670.158	253.51
670.569	333.09
670.979	344.79
671.39	328.41
671.801	293.3
672.211	286.28
672.622	297.98
673.032	347.13
673.443	295.64
673.853	330.75
674.263	307.34
674.674	361.17
675.084	337.77
675.494	340.11
675.904	316.7
676.314	342.45
676.724	321.38
677.134	328.41
677.544	354.15
677.953	305
678.363	316.7
678.773	386.92
679.182	305
679.592	295.64
680.001	265.21
680.411	319.04
680.82	279.26
681.23	330.75
681.639	335.43
682.048	340.11
682.457	290.96
682.866	286.28
683.275	335.43
683.684	300.32
684.093	330.75
684.502	361.17
684.911	368.2
685.32	305
685.728	206.7
686.137	391.6
686.546	312.02
686.954	297.98
687.363	372.88
687.771	351.81
688.179	272.23
688.588	302.66
688.996	328.41
689.404	323.73
689.812	283.94
690.22	272.23
690.628	307.34
691.036	323.73
691.444	349.47
691.852	302.66
692.26	267.55
692.667	319.04
693.075	279.26
693.483	386.92
693.89	321.38
694.298	335.43
694.705	248.83
695.112	295.64
695.52	316.7
695.927	326.07
696.334	281.6
696.741	335.43
697.148	251.17
697.555	333.09
697.962	314.36
698.369	323.73
698.776	375.22
699.183	300.32
699.59	321.38
699.996	335.43
700.403	312.02
700.81	267.55
701.216	328.41
701.623	302.66
702.029	333.09
702.435	279.26
702.842	302.66
703.248	262.87
703.654	326.07
704.06	288.62
704.466	337.77
704.872	330.75
705.278	323.73
705.684	328.41
706.09	272.23
706.496	314.36
706.901	321.38
707.307	274.57
707.712	323.73
708.118	407.98
708.523	297.98
708.929	297.98
709.334	368.2
709.74	335.43
710.145	269.89
710.55	290.96
710.955	300.32
711.36	232.44
711.765	319.04
712.17	342.45
712.575	384.58
712.98	866.73
713.385	347.13
713.789	314.36
714.194	358.83
714.599	319.04
715.003	293.3
715.408	272.23
715.812	255.85
716.217	330.75
716.621	253.51
717.025	260.53
717.429	351.81
717.833	312.02
718.238	307.34
718.642	347.13
719.046	319.04
719.449	302.66
719.853	344.79
720.257	300.32
720.661	365.85
721.065	305
721.468	335.43
721.872	276.91
722.275	323.73
722.679	351.81
723.082	279.26
723.485	337.77
723.889	269.89
724.292	330.75
724.695	265.21
725.098	300.32
725.501	300.32
725.904	276.91
726.307	316.7
726.71	265.21
727.113	300.32
727.516	323.73
727.918	312.02
728.321	379.9
728.724	344.79
729.126	244.15
729.529	312.02
729.931	237.13
730.333	335.43
730.736	351.81
731.138	272.23
731.54	349.47
731.942	255.85
732.344	333.09
732.746	293.3
733.148	323.73
733.55	283.94
733.952	326.07
734.354	340.11
734.756	344.79
735.157	326.07
735.559	340.11
735.96	248.83
736.362	358.83
736.763	309.68
737.165	276.91
737.566	349.47
737.967	283.94
738.368	335.43
738.77	305
739.171	297.98
739.572	354.15
739.973	312.02
740.374	351.81
740.774	279.26
741.175	305
741.576	319.04
741.977	344.79
742.377	335.43
742.778	305
743.178	316.7
743.579	333.09
743.979	365.85
744.379	244.15
744.78	312.02
745.18	361.17
745.58	302.66
745.98	309.68
746.38	290.96
746.78	293.3
747.18	321.38
747.58	391.6
747.98	323.73
748.38	309.68
748.779	363.51
749.179	330.75
749.578	347.13
749.978	372.88
750.377	314.36
750.777	309.68
751.176	330.75
751.575	333.09
751.975	272.23
752.374	302.66
752.773	286.28
753.172	269.89
753.571	354.15
753.97	361.17
754.369	330.75
754.768	293.3
755.166	295.64
755.565	337.77
755.964	349.47
756.362	354.15
756.761	354.15
757.159	312.02
757.558	347.13
757.956	307.34
758.354	365.85
758.753	319.04
759.151	288.62
759.549	253.51
759.947	267.55
760.345	337.77
760.743	365.85
761.141	365.85
761.539	337.77
761.936	344.79
762.334	323.73
762.732	337.77
763.129	295.64
763.527	314.36
763.924	319.04
764.322	293.3
764.719	300.32
765.117	283.94
765.514	297.98
765.911	272.23
766.308	316.7
766.705	356.49
767.102	283.94
767.499	347.13
767.896	328.41
