Data from Al_FLMS009871__135__11-53-26-288.txt Node

Date: Fri Mar 08 11:53:26 CST 2024
User: pe5414po
Spectrometer: FLMS00987
Trigger mode: 0
Integration Time (sec): 1.000000E-1
Scans to average: 1
Electric dark correction enabled: true
Nonlinearity correction enabled: false
Boxcar width: 0
XAxis mode: Wavelengths
Number of Pixels in Spectrum: 2048
>>>>>Begin Spectral Data<<<<<
188.938	-8.63
189.409	-8.63
189.879	-8.63
190.349	-50.76
190.819	-165.45
191.29	-153.74
191.76	-78.85
192.23	-55.44
192.7	-62.46
193.17	-83.53
193.64	-29.7
194.109	-10.97
194.579	-60.12
195.049	-36.72
195.519	28.82
195.988	45.2
196.458	63.93
196.927	45.2
197.397	145.84
197.866	150.53
198.336	92.01
198.805	134.14
199.274	152.87
199.744	185.63
200.213	225.42
200.682	218.4
201.151	202.02
201.62	253.51
202.089	176.27
202.558	248.83
203.027	253.51
203.495	283.94
203.964	300.32
204.433	302.66
204.902	274.57
205.37	225.42
205.839	244.15
206.307	248.83
206.776	253.51
207.244	281.6
207.712	370.54
208.181	281.6
208.649	269.89
209.117	290.96
209.585	248.83
210.053	288.62
210.521	295.64
210.989	297.98
211.457	276.91
211.925	269.89
212.393	237.13
212.861	288.62
213.328	260.53
213.796	302.66
214.264	312.02
214.731	314.36
215.199	297.98
215.666	251.17
216.133	258.19
216.601	234.78
217.068	241.81
217.535	223.08
218.003	307.34
218.47	279.26
218.937	225.42
219.404	283.94
219.871	283.94
220.338	213.72
220.805	265.21
221.271	230.1
221.738	239.47
222.205	202.02
222.671	199.68
223.138	183.29
223.605	269.89
224.071	251.17
224.538	209.04
225.004	239.47
225.47	237.13
225.937	218.4
226.403	241.81
226.869	281.6
227.335	316.7
227.801	192.66
228.267	356.49
228.733	232.44
229.199	262.87
229.665	255.85
230.131	265.21
230.597	272.23
231.062	232.44
231.528	337.77
231.994	258.19
232.459	234.78
232.925	244.15
233.39	297.98
233.856	305
234.321	237.13
234.786	234.78
235.252	248.83
235.717	218.4
236.182	269.89
236.647	305
237.112	305
237.577	321.38
238.042	286.28
238.507	288.62
238.972	251.17
239.436	265.21
239.901	286.28
240.366	265.21
240.83	213.72
241.295	246.49
241.76	267.55
242.224	293.3
242.688	281.6
243.153	251.17
243.617	295.64
244.081	283.94
244.545	276.91
245.01	337.77
245.474	297.98
245.938	354.15
246.402	290.96
246.866	241.81
247.33	234.78
247.793	293.3
248.257	269.89
248.721	267.55
249.185	312.02
249.648	262.87
250.112	267.55
250.575	283.94
251.039	283.94
251.502	272.23
251.965	272.23
252.429	227.76
252.892	230.1
253.355	276.91
253.818	272.23
254.281	276.91
254.744	239.47
255.207	312.02
255.67	274.57
256.133	239.47
256.596	260.53
257.059	232.44
257.522	262.87
257.984	323.73
258.447	251.17
258.909	283.94
259.372	335.43
259.834	328.41
260.297	316.7
260.759	260.53
261.221	295.64
261.684	255.85
262.146	342.45
262.608	251.17
263.07	246.49
263.532	265.21
263.994	248.83
264.456	335.43
264.918	307.34
265.38	323.73
265.842	300.32
266.303	297.98
266.765	302.66
267.227	218.4
267.688	321.38
268.15	220.74
268.611	279.26
269.072	295.64
269.534	295.64
269.995	319.04
270.456	283.94
270.918	260.53
271.379	283.94
271.84	330.75
272.301	370.54
272.762	342.45
273.223	241.81
273.684	300.32
274.144	239.47
274.605	246.49
275.066	265.21
275.527	363.51
275.987	253.51
276.448	326.07
276.908	337.77
277.369	286.28
277.829	349.47
278.289	281.6
278.75	321.38
279.21	319.04
279.67	316.7
280.13	244.15
280.59	300.32
281.05	305
281.51	258.19
281.97	297.98
282.43	314.36
282.89	244.15
283.35	227.76
283.809	246.49
284.269	288.62
284.729	321.38
285.188	248.83
285.648	248.83
286.107	314.36
286.567	321.38
287.026	281.6
287.485	283.94
287.944	265.21
288.404	279.26
288.863	272.23
289.322	267.55
289.781	234.78
290.24	295.64
290.699	316.7
291.158	267.55
291.616	283.94
292.075	356.49
292.534	279.26
292.992	302.66
293.451	293.3
293.91	319.04
294.368	309.68
294.827	307.34
295.285	300.32
295.743	295.64
296.202	272.23
296.66	272.23
297.118	255.85
297.576	328.41
298.034	316.7
298.492	234.78
298.95	258.19
299.408	244.15
299.866	319.04
300.324	312.02
300.781	323.73
301.239	330.75
301.697	300.32
302.154	225.42
302.612	267.55
303.069	269.89
303.527	286.28
303.984	328.41
304.441	248.83
304.899	358.83
305.356	307.34
305.813	237.13
306.27	347.13
306.727	269.89
307.184	319.04
307.641	269.89
308.098	262.87
308.555	248.83
309.012	274.57
309.468	365.85
309.925	354.15
310.382	253.51
310.838	349.47
311.295	314.36
311.751	295.64
312.208	340.11
312.664	225.42
313.12	281.6
313.577	330.75
314.033	349.47
314.489	314.36
314.945	272.23
315.401	300.32
315.857	365.85
316.313	286.28
316.769	297.98
317.225	295.64
317.681	328.41
318.136	197.34
318.592	255.85
319.048	302.66
319.503	326.07
319.959	295.64
320.414	295.64
320.869	286.28
321.325	314.36
321.78	237.13
322.235	326.07
322.691	274.57
323.146	283.94
323.601	297.98
324.056	220.74
324.511	255.85
324.966	267.55
325.421	305
325.875	265.21
326.33	293.3
326.785	309.68
327.24	283.94
327.694	312.02
328.149	337.77
328.603	375.22
329.058	295.64
329.512	290.96
329.966	319.04
330.421	281.6
330.875	286.28
331.329	223.08
331.783	290.96
332.237	370.54
332.691	290.96
333.145	288.62
333.599	326.07
334.053	281.6
334.507	326.07
334.96	305
335.414	307.34
335.868	279.26
336.321	365.85
336.775	302.66
337.228	288.62
337.682	316.7
338.135	307.34
338.588	314.36
339.042	356.49
339.495	297.98
339.948	307.34
340.401	293.3
340.854	368.2
341.307	272.23
341.76	260.53
342.213	241.81
342.666	234.78
343.119	300.32
343.571	333.09
344.024	307.34
344.477	354.15
344.929	333.09
345.382	300.32
345.834	288.62
346.287	274.57
346.739	321.38
347.191	288.62
347.644	272.23
348.096	349.47
348.548	305
349	300.32
349.452	288.62
349.904	286.28
350.356	323.73
350.808	237.13
351.26	197.34
351.711	340.11
352.163	274.57
352.615	307.34
353.066	337.77
353.518	361.17
353.969	319.04
354.421	328.41
354.872	307.34
355.324	253.51
355.775	297.98
356.226	300.32
356.677	295.64
357.128	335.43
357.579	305
358.03	269.89
358.481	351.81
358.932	269.89
359.383	330.75
359.834	363.51
360.285	283.94
360.735	312.02
361.186	265.21
361.637	253.51
362.087	297.98
362.538	347.13
362.988	342.45
363.438	337.77
363.889	384.58
364.339	204.36
364.789	295.64
365.239	260.53
365.689	337.77
366.139	290.96
366.589	349.47
367.039	316.7
367.489	312.02
367.939	342.45
368.389	333.09
368.839	323.73
369.288	255.85
369.738	333.09
370.187	274.57
370.637	288.62
371.086	274.57
371.536	295.64
371.985	274.57
372.434	286.28
372.884	377.56
373.333	319.04
373.782	288.62
374.231	305
374.68	340.11
375.129	309.68
375.578	337.77
376.027	283.94
376.475	265.21
376.924	300.32
377.373	314.36
377.822	272.23
378.27	314.36
378.719	300.32
379.167	319.04
379.616	326.07
380.064	290.96
380.512	349.47
380.961	337.77
381.409	365.85
381.857	293.3
382.305	262.87
382.753	253.51
383.201	295.64
383.649	267.55
384.097	309.68
384.545	323.73
384.992	347.13
385.44	386.92
385.888	335.43
386.335	305
386.783	307.34
387.231	300.32
387.678	248.83
388.125	246.49
388.573	237.13
389.02	326.07
389.467	333.09
389.914	372.88
390.362	314.36
390.809	337.77
391.256	251.17
391.703	400.96
392.15	326.07
392.596	326.07
393.043	262.87
393.49	340.11
393.937	279.26
394.383	326.07
394.83	246.49
395.276	267.55
395.723	267.55
396.169	293.3
396.616	293.3
397.062	347.13
397.508	335.43
397.954	312.02
398.401	295.64
398.847	286.28
399.293	281.6
399.739	321.38
400.185	342.45
400.631	283.94
401.076	335.43
401.522	267.55
401.968	262.87
402.414	307.34
402.859	356.49
403.305	265.21
403.75	335.43
404.196	384.58
404.641	297.98
405.086	211.38
405.532	351.81
405.977	335.43
406.422	290.96
406.867	274.57
407.312	302.66
407.757	326.07
408.202	321.38
408.647	342.45
409.092	295.64
409.537	319.04
409.982	326.07
410.426	314.36
410.871	349.47
411.316	382.24
411.76	286.28
412.205	363.51
412.649	358.83
413.093	267.55
413.538	288.62
413.982	279.26
414.426	302.66
414.87	295.64
415.314	340.11
415.758	326.07
416.202	368.2
416.646	290.96
417.09	274.57
417.534	253.51
417.978	354.15
418.421	290.96
418.865	258.19
419.309	314.36
419.752	361.17
420.196	297.98
420.639	267.55
421.083	297.98
421.526	335.43
421.969	330.75
422.412	255.85
422.856	363.51
423.299	372.88
423.742	255.85
424.185	347.13
424.628	351.81
425.071	312.02
425.513	340.11
425.956	262.87
426.399	351.81
426.842	386.92
427.284	333.09
427.727	375.22
428.169	361.17
428.612	386.92
429.054	370.54
429.497	405.64
429.939	351.81
430.381	372.88
430.823	361.17
431.265	316.7
431.707	384.58
432.149	358.83
432.591	363.51
433.033	396.28
433.475	438.41
433.917	356.49
434.359	473.52
434.8	541.4
435.242	426.71
435.684	546.08
436.125	515.65
436.567	503.95
437.008	471.18
437.449	452.45
437.891	393.94
438.332	403.3
438.773	424.37
439.214	393.94
439.656	412.67
440.097	407.98
440.538	487.56
440.978	464.16
441.419	403.3
441.86	478.2
442.301	429.05
442.742	473.52
443.182	471.18
443.623	450.11
444.063	450.11
444.504	475.86
444.944	433.73
445.385	450.11
445.825	450.11
446.265	436.07
446.706	503.95
447.146	492.24
447.586	412.67
448.026	482.88
448.466	494.58
448.906	503.95
449.346	419.69
449.786	440.75
450.225	400.96
450.665	405.64
451.105	489.9
451.544	410.33
451.984	417.35
452.424	443.09
452.863	398.62
453.302	422.03
453.742	443.09
454.181	452.45
454.62	417.35
455.059	400.96
455.499	384.58
455.938	440.75
456.377	412.67
456.816	396.28
457.254	396.28
457.693	426.71
458.132	417.35
458.571	356.49
459.01	379.9
459.448	468.84
459.887	372.88
460.325	386.92
460.764	482.88
461.202	419.69
461.641	403.3
462.079	457.14
462.517	454.8
462.955	424.37
463.393	316.7
463.832	393.94
464.27	452.45
464.708	433.73
465.145	417.35
465.583	386.92
466.021	412.67
466.459	370.54
466.897	379.9
467.334	405.64
467.772	356.49
468.209	361.17
468.647	344.79
469.084	405.64
469.522	422.03
469.959	375.22
470.396	330.75
470.833	400.96
471.271	389.26
471.708	407.98
472.145	417.35
472.582	361.17
473.019	279.26
473.456	377.56
473.892	354.15
474.329	358.83
474.766	283.94
475.202	326.07
475.639	417.35
476.076	382.24
476.512	356.49
476.949	426.71
477.385	377.56
477.821	363.51
478.258	349.47
478.694	426.71
479.13	396.28
479.566	365.85
480.002	372.88
480.438	300.32
480.874	330.75
481.31	365.85
481.746	323.73
482.181	344.79
482.617	389.26
483.053	365.85
483.488	370.54
483.924	368.2
484.36	344.79
484.795	363.51
485.23	412.67
485.666	405.64
486.101	393.94
486.536	410.33
486.971	405.64
487.407	450.11
487.842	422.03
488.277	356.49
488.712	443.09
489.146	417.35
489.581	379.9
490.016	426.71
490.451	445.43
490.885	431.39
491.32	386.92
491.755	452.45
492.189	471.18
492.624	424.37
493.058	436.07
493.492	356.49
493.927	393.94
494.361	436.07
494.795	379.9
495.229	349.47
495.663	431.39
496.097	403.3
496.531	354.15
496.965	363.51
497.399	347.13
497.833	370.54
498.266	426.71
498.7	396.28
499.134	368.2
499.567	384.58
500.001	326.07
500.434	415.01
500.868	393.94
501.301	347.13
501.734	379.9
502.168	419.69
502.601	365.85
503.034	379.9
503.467	379.9
503.9	344.79
504.333	396.28
504.766	379.9
505.199	377.56
505.632	386.92
506.064	415.01
506.497	393.94
506.93	372.88
507.362	407.98
507.795	407.98
508.227	323.73
508.66	384.58
509.092	396.28
509.524	424.37
509.956	316.7
510.389	326.07
510.821	393.94
511.253	393.94
511.685	347.13
512.117	400.96
512.549	400.96
512.981	361.17
513.412	347.13
513.844	384.58
514.276	410.33
514.707	433.73
515.139	400.96
515.571	450.11
516.002	295.64
516.433	443.09
516.865	356.49
517.296	358.83
517.727	436.07
518.159	471.18
518.59	393.94
519.021	422.03
519.452	440.75
519.883	349.47
520.314	417.35
520.744	440.75
521.175	412.67
521.606	375.22
522.037	403.3
522.467	368.2
522.898	450.11
523.328	440.75
523.759	370.54
524.189	351.81
524.62	450.11
525.05	403.3
525.48	403.3
525.91	424.37
526.341	457.14
526.771	478.2
527.201	337.77
527.631	445.43
528.061	370.54
528.49	386.92
528.92	333.09
529.35	342.45
529.78	368.2
530.209	335.43
530.639	333.09
531.068	424.37
531.498	485.22
531.927	417.35
532.357	382.24
532.786	438.41
533.215	422.03
533.644	396.28
534.074	419.69
534.503	480.54
534.932	386.92
535.361	379.9
535.79	356.49
536.218	382.24
536.647	407.98
537.076	389.26
537.505	452.45
537.933	445.43
538.362	494.58
538.79	400.96
539.219	419.69
539.647	407.98
540.076	569.48
540.504	541.4
540.932	588.21
541.36	616.29
541.788	620.97
542.217	709.91
542.645	620.97
543.073	723.96
543.5	672.47
543.928	763.75
544.356	747.36
544.784	726.3
545.211	698.21
545.639	723.96
546.067	606.93
546.494	620.97
546.922	602.25
547.349	503.95
547.776	492.24
548.204	471.18
548.631	539.05
549.058	454.8
549.485	457.14
549.912	522.67
550.339	539.05
550.766	503.95
551.193	433.73
551.62	419.69
552.047	471.18
552.474	447.77
552.9	429.05
553.327	440.75
553.754	415.01
554.18	398.62
554.607	457.14
555.033	415.01
555.459	426.71
555.886	347.13
556.312	457.14
556.738	400.96
557.164	422.03
557.59	410.33
558.016	389.26
558.442	419.69
558.868	340.11
559.294	417.35
559.72	522.67
560.145	438.41
560.571	386.92
560.997	389.26
561.422	368.2
561.848	396.28
562.273	419.69
562.699	417.35
563.124	396.28
563.549	445.43
563.974	393.94
564.4	382.24
564.825	382.24
565.25	403.3
565.675	386.92
566.1	445.43
566.525	466.5
566.95	410.33
567.374	398.62
567.799	450.11
568.224	302.66
568.648	372.88
569.073	354.15
569.497	405.64
569.922	403.3
570.346	379.9
570.771	405.64
571.195	429.05
571.619	426.71
572.043	375.22
572.467	429.05
572.891	361.17
573.315	330.75
573.739	321.38
574.163	473.52
574.587	419.69
575.011	377.56
575.435	454.8
575.858	422.03
576.282	386.92
576.705	410.33
577.129	375.22
577.552	405.64
577.976	379.9
578.399	365.85
578.822	419.69
579.245	431.39
579.669	389.26
580.092	419.69
580.515	393.94
580.938	429.05
581.361	482.88
581.784	410.33
582.206	447.77
582.629	389.26
583.052	452.45
583.474	447.77
583.897	424.37
584.32	400.96
584.742	410.33
585.165	403.3
585.587	400.96
586.009	473.52
586.431	457.14
586.854	410.33
587.276	482.88
587.698	438.41
588.12	415.01
588.542	443.09
588.964	489.9
589.386	438.41
589.807	354.15
590.229	398.62
590.651	351.81
591.073	431.39
591.494	419.69
591.916	372.88
592.337	424.37
592.759	410.33
593.18	468.84
593.601	471.18
594.022	354.15
594.444	351.81
594.865	391.6
595.286	389.26
595.707	328.41
596.128	372.88
596.549	410.33
596.97	372.88
597.39	340.11
597.811	309.68
598.232	368.2
598.652	433.73
599.073	499.27
599.494	356.49
599.914	361.17
600.334	375.22
600.755	407.98
601.175	361.17
601.595	379.9
602.015	372.88
602.436	375.22
602.856	541.4
603.276	354.15
603.696	349.47
604.115	340.11
604.535	295.64
604.955	377.56
605.375	400.96
605.794	351.81
606.214	375.22
606.634	312.02
607.053	375.22
607.473	340.11
607.892	344.79
608.311	407.98
608.731	445.43
609.15	431.39
609.569	539.05
609.988	677.15
610.407	700.55
610.826	817.58
611.245	707.57
611.664	761.41
612.083	726.3
612.501	644.38
612.92	623.31
613.339	480.54
613.757	407.98
614.176	494.58
614.594	480.54
615.013	475.86
615.431	492.24
615.85	424.37
616.268	386.92
616.686	454.8
617.104	386.92
617.522	405.64
617.94	337.77
618.358	356.49
618.776	429.05
619.194	375.22
619.612	384.58
620.03	393.94
620.447	450.11
620.865	377.56
621.282	375.22
621.7	361.17
622.117	422.03
622.535	375.22
622.952	379.9
623.369	379.9
623.787	382.24
624.204	398.62
624.621	333.09
625.038	400.96
625.455	377.56
625.872	382.24
626.289	344.79
626.706	363.51
627.123	405.64
627.539	389.26
627.956	349.47
628.373	372.88
628.789	363.51
629.206	356.49
629.622	391.6
630.038	342.45
630.455	354.15
630.871	461.82
631.287	361.17
631.703	363.51
632.12	391.6
632.536	340.11
632.952	393.94
633.368	307.34
633.783	382.24
634.199	316.7
634.615	290.96
635.031	379.9
635.446	382.24
635.862	321.38
636.277	321.38
636.693	323.73
637.108	377.56
637.524	405.64
637.939	323.73
638.354	314.36
638.77	269.89
639.185	323.73
639.6	328.41
640.015	349.47
640.43	335.43
640.845	260.53
641.259	321.38
641.674	309.68
642.089	300.32
642.504	335.43
642.918	330.75
643.333	337.77
643.747	319.04
644.162	379.9
644.576	354.15
644.991	351.81
645.405	356.49
645.819	314.36
646.233	391.6
646.647	382.24
647.061	400.96
647.475	281.6
647.889	386.92
648.303	326.07
648.717	349.47
649.131	405.64
649.545	342.45
649.958	365.85
650.372	354.15
650.785	375.22
651.199	393.94
651.612	312.02
652.026	323.73
652.439	279.26
652.852	328.41
653.266	281.6
653.679	356.49
654.092	265.21
654.505	349.47
654.918	351.81
655.331	333.09
655.744	272.23
656.156	286.28
656.569	356.49
656.982	340.11
657.394	335.43
657.807	286.28
658.22	400.96
658.632	351.81
659.044	370.54
659.457	340.11
659.869	274.57
660.281	316.7
660.693	358.83
661.106	321.38
661.518	309.68
661.93	333.09
662.342	349.47
662.754	328.41
663.165	351.81
663.577	323.73
663.989	302.66
664.401	309.68
664.812	295.64
665.224	260.53
665.635	349.47
666.047	276.91
666.458	258.19
666.869	312.02
667.281	358.83
667.692	342.45
668.103	307.34
668.514	283.94
668.925	290.96
669.336	333.09
669.747	316.7
670.158	335.43
670.569	309.68
670.979	319.04
671.39	335.43
671.801	297.98
672.211	363.51
672.622	328.41
673.032	305
673.443	368.2
673.853	344.79
674.263	358.83
674.674	305
675.084	213.72
675.494	379.9
675.904	307.34
676.314	375.22
676.724	307.34
677.134	312.02
677.544	372.88
677.953	246.49
678.363	342.45
678.773	396.28
679.182	319.04
679.592	265.21
680.001	244.15
680.411	269.89
680.82	328.41
681.23	347.13
681.639	290.96
682.048	295.64
682.457	265.21
682.866	300.32
683.275	272.23
683.684	309.68
684.093	363.51
684.502	347.13
684.911	342.45
685.32	412.67
685.728	286.28
686.137	340.11
686.546	384.58
686.954	274.57
687.363	309.68
687.771	293.3
688.179	333.09
688.588	347.13
688.996	333.09
689.404	356.49
689.812	314.36
690.22	354.15
690.628	309.68
691.036	283.94
691.444	361.17
691.852	344.79
692.26	340.11
692.667	305
693.075	309.68
693.483	269.89
693.89	302.66
694.298	309.68
694.705	312.02
695.112	356.49
695.52	354.15
695.927	356.49
696.334	305
696.741	333.09
697.148	384.58
697.555	297.98
697.962	319.04
698.369	293.3
698.776	330.75
699.183	314.36
699.59	279.26
699.996	347.13
700.403	342.45
700.81	337.77
701.216	363.51
701.623	260.53
702.029	262.87
702.435	274.57
702.842	337.77
703.248	335.43
703.654	283.94
704.06	314.36
704.466	365.85
704.872	295.64
705.278	255.85
705.684	314.36
706.09	288.62
706.496	267.55
706.901	312.02
707.307	389.26
707.712	321.38
708.118	368.2
708.523	330.75
708.929	286.28
709.334	269.89
709.74	290.96
710.145	290.96
710.55	314.36
710.955	372.88
711.36	321.38
711.765	365.85
712.17	356.49
712.575	363.51
712.98	948.65
713.385	319.04
713.789	262.87
714.194	244.15
714.599	330.75
715.003	314.36
715.408	375.22
715.812	347.13
716.217	305
716.621	290.96
717.025	354.15
717.429	300.32
717.833	281.6
718.238	302.66
718.642	267.55
719.046	302.66
719.449	230.1
719.853	300.32
720.257	276.91
720.661	386.92
721.065	309.68
721.468	349.47
721.872	351.81
722.275	316.7
722.679	309.68
723.082	286.28
723.485	295.64
723.889	330.75
724.292	326.07
724.695	305
725.098	372.88
725.501	335.43
725.904	281.6
726.307	302.66
726.71	297.98
727.113	358.83
727.516	340.11
727.918	361.17
728.321	300.32
728.724	349.47
729.126	290.96
729.529	309.68
729.931	307.34
730.333	244.15
730.736	337.77
731.138	290.96
731.54	305
731.942	279.26
732.344	314.36
732.746	333.09
733.148	267.55
733.55	344.79
733.952	340.11
734.354	241.81
734.756	302.66
735.157	293.3
735.559	316.7
735.96	314.36
736.362	363.51
736.763	286.28
737.165	258.19
737.566	363.51
737.967	340.11
738.368	316.7
738.77	330.75
739.171	260.53
739.572	316.7
739.973	253.51
740.374	265.21
740.774	328.41
741.175	255.85
741.576	335.43
741.977	276.91
742.377	295.64
742.778	290.96
743.178	342.45
743.579	386.92
743.979	363.51
744.379	316.7
744.78	309.68
745.18	274.57
745.58	305
745.98	335.43
746.38	344.79
746.78	272.23
747.18	323.73
747.58	330.75
747.98	293.3
748.38	297.98
748.779	323.73
749.179	321.38
749.578	272.23
749.978	286.28
750.377	368.2
750.777	274.57
751.176	319.04
751.575	319.04
751.975	326.07
752.374	272.23
752.773	300.32
753.172	314.36
753.571	286.28
753.97	340.11
754.369	323.73
754.768	319.04
755.166	274.57
755.565	274.57
755.964	267.55
756.362	358.83
756.761	351.81
757.159	314.36
757.558	272.23
757.956	326.07
758.354	403.3
758.753	326.07
759.151	344.79
759.549	323.73
759.947	321.38
760.345	276.91
760.743	377.56
761.141	269.89
761.539	344.79
761.936	314.36
762.334	293.3
762.732	305
763.129	269.89
763.527	293.3
763.924	316.7
764.322	300.32
764.719	274.57
765.117	307.34
765.514	281.6
765.911	335.43
766.308	267.55
