Data from Al_FLMS009871__137__11-53-26-488.txt Node

Date: Fri Mar 08 11:53:26 CST 2024
User: pe5414po
Spectrometer: FLMS00987
Trigger mode: 0
Integration Time (sec): 1.000000E-1
Scans to average: 1
Electric dark correction enabled: true
Nonlinearity correction enabled: false
Boxcar width: 0
XAxis mode: Wavelengths
Number of Pixels in Spectrum: 2048
>>>>>Begin Spectral Data<<<<<
188.938	-112.49
189.409	-112.49
189.879	-112.49
190.349	-149.94
190.819	-114.83
191.29	-124.19
191.76	-96.11
192.23	-37.59
192.7	-105.47
193.17	-30.57
193.64	-39.94
194.109	20.92
194.579	-11.85
195.049	-30.57
195.519	-35.25
195.988	81.77
196.458	18.58
196.927	44.32
197.397	128.58
197.866	84.11
198.336	133.26
198.805	151.99
199.274	151.99
199.744	222.2
200.213	231.57
200.682	247.95
201.151	182.42
201.62	280.72
202.089	264.33
202.558	198.8
203.027	219.86
203.495	257.31
203.964	245.61
204.433	224.55
204.902	266.67
205.37	313.49
205.839	276.04
206.307	276.04
206.776	236.25
207.244	290.08
207.712	332.21
208.181	350.93
208.649	299.44
209.117	261.99
209.585	287.74
210.053	308.8
210.521	299.44
210.989	283.06
211.457	287.74
211.925	236.25
212.393	236.25
212.861	329.87
213.328	299.44
213.796	283.06
214.264	210.5
214.731	252.63
215.199	276.04
215.666	292.42
216.133	215.18
216.601	247.95
217.068	245.61
217.535	252.63
218.003	322.85
218.47	311.14
218.937	313.49
219.404	233.91
219.871	231.57
220.338	285.4
220.805	266.67
221.271	261.99
221.738	254.97
222.205	250.29
222.671	257.31
223.138	205.82
223.605	278.38
224.071	238.59
224.538	283.06
225.004	238.59
225.47	208.16
225.937	245.61
226.403	210.5
226.869	257.31
227.335	257.31
227.801	294.76
228.267	304.12
228.733	247.95
229.199	290.08
229.665	196.46
230.131	252.63
230.597	247.95
231.062	205.82
231.528	264.33
231.994	217.52
232.459	278.38
232.925	280.72
233.39	269.02
233.856	257.31
234.321	247.95
234.786	325.19
235.252	231.57
235.717	311.14
236.182	276.04
236.647	229.23
237.112	339.23
237.577	311.14
238.042	266.67
238.507	266.67
238.972	322.85
239.436	233.91
239.901	290.08
240.366	271.36
240.83	224.55
241.295	247.95
241.76	278.38
242.224	292.42
242.688	226.89
243.153	325.19
243.617	290.08
244.081	222.2
244.545	327.53
245.01	257.31
245.474	278.38
245.938	254.97
246.402	287.74
246.866	306.46
247.33	266.67
247.793	180.07
248.257	210.5
248.721	329.87
249.185	292.42
249.648	280.72
250.112	233.91
250.575	233.91
251.039	313.49
251.502	233.91
251.965	273.7
252.429	250.29
252.892	264.33
253.355	322.85
253.818	297.1
254.281	252.63
254.744	311.14
255.207	224.55
255.67	257.31
256.133	231.57
256.596	259.65
257.059	276.04
257.522	283.06
257.984	299.44
258.447	250.29
258.909	264.33
259.372	219.86
259.834	271.36
260.297	259.65
260.759	287.74
261.221	252.63
261.684	266.67
262.146	325.19
262.608	269.02
263.07	297.1
263.532	292.42
263.994	285.4
264.456	259.65
264.918	264.33
265.38	376.68
265.842	252.63
266.303	252.63
266.765	245.61
267.227	247.95
267.688	280.72
268.15	311.14
268.611	222.2
269.072	304.12
269.534	252.63
269.995	301.78
270.456	299.44
270.918	278.38
271.379	257.31
271.84	297.1
272.301	294.76
272.762	348.59
273.223	297.1
273.684	318.17
274.144	259.65
274.605	294.76
275.066	313.49
275.527	301.78
275.987	264.33
276.448	269.02
276.908	294.76
277.369	261.99
277.829	332.21
278.289	266.67
278.75	250.29
279.21	290.08
279.67	315.83
280.13	271.36
280.59	224.55
281.05	311.14
281.51	292.42
281.97	367.32
282.43	278.38
282.89	320.51
283.35	332.21
283.809	233.91
284.269	327.53
284.729	297.1
285.188	290.08
285.648	299.44
286.107	301.78
286.567	287.74
287.026	283.06
287.485	297.1
287.944	315.83
288.404	276.04
288.863	320.51
289.322	299.44
289.781	315.83
290.24	329.87
290.699	313.49
291.158	271.36
291.616	287.74
292.075	297.1
292.534	252.63
292.992	313.49
293.451	264.33
293.91	273.7
294.368	250.29
294.827	212.84
295.285	322.85
295.743	304.12
296.202	261.99
296.66	301.78
297.118	269.02
297.576	308.8
298.034	304.12
298.492	273.7
298.95	280.72
299.408	283.06
299.866	334.55
300.324	285.4
300.781	299.44
301.239	236.25
301.697	336.89
302.154	297.1
302.612	304.12
303.069	231.57
303.527	280.72
303.984	297.1
304.441	306.46
304.899	364.98
305.356	311.14
305.813	278.38
306.27	264.33
306.727	311.14
307.184	287.74
307.641	229.23
308.098	339.23
308.555	290.08
309.012	285.4
309.468	320.51
309.925	327.53
310.382	318.17
310.838	278.38
311.295	290.08
311.751	280.72
312.208	301.78
312.664	283.06
313.12	254.97
313.577	245.61
314.033	306.46
314.489	191.78
314.945	266.67
315.401	290.08
315.857	294.76
316.313	250.29
316.769	294.76
317.225	191.78
317.681	376.68
318.136	285.4
318.592	320.51
319.048	219.86
319.503	294.76
319.959	313.49
320.414	280.72
320.869	243.27
321.325	257.31
321.78	332.21
322.235	280.72
322.691	278.38
323.146	278.38
323.601	322.85
324.056	271.36
324.511	254.97
324.966	254.97
325.421	339.23
325.875	322.85
326.33	362.64
326.785	327.53
327.24	257.31
327.694	243.27
328.149	341.57
328.603	264.33
329.058	283.06
329.512	313.49
329.966	329.87
330.421	318.17
330.875	327.53
331.329	285.4
331.783	299.44
332.237	332.21
332.691	269.02
333.145	287.74
333.599	336.89
334.053	329.87
334.507	346.25
334.96	264.33
335.414	297.1
335.868	301.78
336.321	318.17
336.775	334.55
337.228	332.21
337.682	320.51
338.135	346.25
338.588	348.59
339.042	250.29
339.495	285.4
339.948	285.4
340.401	259.65
340.854	215.18
341.307	329.87
341.76	350.93
342.213	290.08
342.666	287.74
343.119	273.7
343.571	364.98
344.024	299.44
344.477	348.59
344.929	315.83
345.382	271.36
345.834	334.55
346.287	250.29
346.739	313.49
347.191	217.52
347.644	287.74
348.096	320.51
348.548	301.78
349	308.8
349.452	271.36
349.904	254.97
350.356	304.12
350.808	299.44
351.26	301.78
351.711	306.46
352.163	266.67
352.615	318.17
353.066	292.42
353.518	285.4
353.969	264.33
354.421	219.86
354.872	264.33
355.324	276.04
355.775	290.08
356.226	313.49
356.677	327.53
357.128	327.53
357.579	285.4
358.03	273.7
358.481	350.93
358.932	245.61
359.383	297.1
359.834	313.49
360.285	280.72
360.735	304.12
361.186	257.31
361.637	287.74
362.087	308.8
362.538	334.55
362.988	290.08
363.438	266.67
363.889	343.91
364.339	329.87
364.789	357.96
365.239	329.87
365.689	318.17
366.139	348.59
366.589	364.98
367.039	304.12
367.489	276.04
367.939	250.29
368.389	318.17
368.839	386.04
369.288	299.44
369.738	313.49
370.187	315.83
370.637	343.91
371.086	341.57
371.536	273.7
371.985	346.25
372.434	269.02
372.884	283.06
373.333	346.25
373.782	313.49
374.231	306.46
374.68	320.51
375.129	336.89
375.578	343.91
376.027	341.57
376.475	297.1
376.924	327.53
377.373	273.7
377.822	301.78
378.27	299.44
378.719	273.7
379.167	339.23
379.616	346.25
380.064	346.25
380.512	329.87
380.961	341.57
381.409	271.36
381.857	320.51
382.305	287.74
382.753	294.76
383.201	285.4
383.649	334.55
384.097	252.63
384.545	287.74
384.992	290.08
385.44	285.4
385.888	292.42
386.335	311.14
386.783	301.78
387.231	254.97
387.678	280.72
388.125	369.66
388.573	332.21
389.02	304.12
389.467	341.57
389.914	297.1
390.362	388.38
390.809	290.08
391.256	350.93
391.703	294.76
392.15	278.38
392.596	261.99
393.043	311.14
393.49	341.57
393.937	290.08
394.383	325.19
394.83	339.23
395.276	318.17
395.723	308.8
396.169	306.46
396.616	301.78
397.062	332.21
397.508	325.19
397.954	339.23
398.401	311.14
398.847	355.62
399.293	304.12
399.739	372
400.185	294.76
400.631	271.36
401.076	334.55
401.522	294.76
401.968	273.7
402.414	290.08
402.859	283.06
403.305	362.64
403.75	294.76
404.196	299.44
404.641	357.96
405.086	369.66
405.532	301.78
405.977	318.17
406.422	212.84
406.867	261.99
407.312	341.57
407.757	322.85
408.202	339.23
408.647	311.14
409.092	311.14
409.537	271.36
409.982	346.25
410.426	299.44
410.871	350.93
411.316	285.4
411.76	353.27
412.205	367.32
412.649	311.14
413.093	308.8
413.538	308.8
413.982	343.91
414.426	336.89
414.87	304.12
415.314	390.72
415.758	297.1
416.202	287.74
416.646	325.19
417.09	290.08
417.534	269.02
417.978	325.19
418.421	339.23
418.865	283.06
419.309	287.74
419.752	418.81
420.196	400.09
420.639	355.62
421.083	374.34
421.526	311.14
421.969	329.87
422.412	217.52
422.856	311.14
423.299	343.91
423.742	364.98
424.185	341.57
424.628	383.7
425.071	313.49
425.513	339.23
425.956	428.17
426.399	341.57
426.842	386.04
427.284	379.02
427.727	350.93
428.169	372
428.612	383.7
429.054	416.47
429.497	336.89
429.939	318.17
430.381	357.96
430.823	339.23
431.265	411.79
431.707	343.91
432.149	315.83
432.591	416.47
433.033	374.34
433.475	362.64
433.917	395.4
434.359	414.13
434.8	486.69
435.242	489.03
435.684	498.39
436.125	472.64
436.567	425.83
437.008	418.81
437.449	435.19
437.891	430.51
438.332	364.98
438.773	379.02
439.214	423.49
439.656	463.28
440.097	479.66
440.538	418.81
440.978	407.11
441.419	430.51
441.86	411.79
442.301	411.79
442.742	432.85
443.182	444.56
443.623	460.94
444.063	446.9
444.504	460.94
444.944	416.47
445.385	453.92
445.825	421.15
446.265	442.21
446.706	467.96
447.146	416.47
447.586	364.98
448.026	489.03
448.466	510.09
448.906	531.16
449.346	467.96
449.786	489.03
450.225	346.25
450.665	416.47
451.105	446.9
451.544	507.75
451.984	477.32
452.424	400.09
452.863	402.43
453.302	418.81
453.742	486.69
454.181	545.2
454.62	460.94
455.059	409.45
455.499	474.98
455.938	460.94
456.377	355.62
456.816	402.43
457.254	446.9
457.693	456.26
458.132	416.47
458.571	376.68
459.01	418.81
459.448	386.04
459.887	395.4
460.325	374.34
460.764	402.43
461.202	474.98
461.641	393.06
462.079	379.02
462.517	446.9
462.955	432.85
463.393	367.32
463.832	362.64
464.27	411.79
464.708	339.23
465.145	411.79
465.583	332.21
466.021	404.77
466.459	395.4
466.897	393.06
467.334	432.85
467.772	346.25
468.209	336.89
468.647	360.3
469.084	367.32
469.522	332.21
469.959	357.96
470.396	372
470.833	355.62
471.271	285.4
471.708	346.25
472.145	388.38
472.582	390.72
473.019	376.68
473.456	360.3
473.892	334.55
474.329	332.21
474.766	376.68
475.202	421.15
475.639	388.38
476.076	343.91
476.512	393.06
476.949	379.02
477.385	381.36
477.821	388.38
478.258	339.23
478.694	372
479.13	364.98
479.566	376.68
480.002	355.62
480.438	271.36
480.874	339.23
481.31	376.68
481.746	290.08
482.181	343.91
482.617	362.64
483.053	369.66
483.488	350.93
483.924	432.85
484.36	376.68
484.795	404.77
485.23	407.11
485.666	364.98
486.101	341.57
486.536	472.64
486.971	388.38
487.407	383.7
487.842	423.49
488.277	379.02
488.712	449.24
489.146	388.38
489.581	386.04
490.016	444.56
490.451	407.11
490.885	446.9
491.32	425.83
491.755	327.53
492.189	411.79
492.624	421.15
493.058	418.81
493.492	374.34
493.927	357.96
494.361	395.4
494.795	423.49
495.229	353.27
495.663	414.13
496.097	360.3
496.531	346.25
496.965	383.7
497.399	395.4
497.833	360.3
498.266	285.4
498.7	404.77
499.134	404.77
499.567	402.43
500.001	425.83
500.434	402.43
500.868	453.92
501.301	355.62
501.734	348.59
502.168	402.43
502.601	395.4
503.034	416.47
503.467	400.09
503.9	383.7
504.333	400.09
504.766	346.25
505.199	435.19
505.632	386.04
506.064	395.4
506.497	353.27
506.93	376.68
507.362	374.34
507.795	383.7
508.227	360.3
508.66	367.32
509.092	346.25
509.524	386.04
509.956	418.81
510.389	383.7
510.821	374.34
511.253	353.27
511.685	364.98
512.117	362.64
512.549	414.13
512.981	320.51
513.412	409.45
513.844	390.72
514.276	432.85
514.707	383.7
515.139	355.62
515.571	400.09
516.002	315.83
516.433	341.57
516.865	428.17
517.296	423.49
517.727	460.94
518.159	428.17
518.59	350.93
519.021	442.21
519.452	383.7
519.883	379.02
520.314	353.27
520.744	397.74
521.175	397.74
521.606	432.85
522.037	346.25
522.467	362.64
522.898	379.02
523.328	374.34
523.759	425.83
524.189	386.04
524.62	414.13
525.05	346.25
525.48	442.21
525.91	374.34
526.341	379.02
526.771	411.79
527.201	395.4
527.631	416.47
528.061	376.68
528.49	388.38
528.92	423.49
529.35	341.57
529.78	383.7
530.209	393.06
530.639	435.19
531.068	346.25
531.498	402.43
531.927	456.26
532.357	395.4
532.786	379.02
533.215	437.53
533.644	404.77
534.074	362.64
534.503	411.79
534.932	453.92
535.361	400.09
535.79	374.34
536.218	409.45
536.647	418.81
537.076	397.74
537.505	428.17
537.933	386.04
538.362	498.39
538.79	414.13
539.219	514.77
539.647	390.72
540.076	500.73
540.504	556.9
540.932	641.16
541.36	680.95
541.788	587.33
542.217	683.29
542.645	659.88
543.073	687.97
543.5	718.4
543.928	723.08
544.356	666.91
544.784	744.14
545.211	659.88
545.639	755.85
546.067	659.88
546.494	673.93
546.922	510.09
547.349	514.77
547.776	517.11
548.204	561.58
548.631	531.16
549.058	458.6
549.485	470.3
549.912	411.79
550.339	512.43
550.766	446.9
551.193	465.62
551.62	458.6
552.047	465.62
552.474	456.26
552.9	507.75
553.327	442.21
553.754	414.13
554.18	428.17
554.607	404.77
555.033	402.43
555.459	360.3
555.886	393.06
556.312	465.62
556.738	411.79
557.164	437.53
557.59	308.8
558.016	423.49
558.442	362.64
558.868	334.55
559.294	367.32
559.72	395.4
560.145	393.06
560.571	348.59
560.997	460.94
561.422	416.47
561.848	379.02
562.273	381.36
562.699	374.34
563.124	383.7
563.549	374.34
563.974	397.74
564.4	409.45
564.825	418.81
565.25	381.36
565.675	348.59
566.1	402.43
566.525	386.04
566.95	404.77
567.374	456.26
567.799	379.02
568.224	376.68
568.648	397.74
569.073	421.15
569.497	339.23
569.922	407.11
570.346	369.66
570.771	383.7
571.195	357.96
571.619	421.15
572.043	383.7
572.467	364.98
572.891	414.13
573.315	402.43
573.739	414.13
574.163	264.33
574.587	400.09
575.011	411.79
575.435	367.32
575.858	421.15
576.282	444.56
576.705	404.77
577.129	395.4
577.552	435.19
577.976	372
578.399	477.32
578.822	341.57
579.245	453.92
579.669	393.06
580.092	474.98
580.515	404.77
580.938	421.15
581.361	453.92
581.784	456.26
582.206	484.34
582.629	379.02
583.052	484.34
583.474	425.83
583.897	442.21
584.32	446.9
584.742	379.02
585.165	423.49
585.587	458.6
586.009	491.37
586.431	428.17
586.854	482
587.276	496.05
587.698	390.72
588.12	444.56
588.542	418.81
588.964	407.11
589.386	418.81
589.807	414.13
590.229	425.83
590.651	372
591.073	402.43
591.494	404.77
591.916	388.38
592.337	463.28
592.759	409.45
593.18	404.77
593.601	435.19
594.022	416.47
594.444	397.74
594.865	423.49
595.286	407.11
595.707	393.06
596.128	327.53
596.549	430.51
596.97	444.56
597.39	425.83
597.811	329.87
598.232	381.36
598.652	400.09
599.073	402.43
599.494	379.02
599.914	463.28
600.334	372
600.755	367.32
601.175	362.64
601.595	383.7
602.015	355.62
602.436	386.04
602.856	500.73
603.276	362.64
603.696	367.32
604.115	339.23
604.535	304.12
604.955	308.8
605.375	353.27
605.794	402.43
606.214	355.62
606.634	458.6
607.053	400.09
607.473	372
607.892	362.64
608.311	428.17
608.731	390.72
609.15	456.26
609.569	489.03
609.988	657.54
610.407	793.3
610.826	816.7
611.245	774.57
611.664	748.83
612.083	673.93
612.501	704.35
612.92	613.07
613.339	545.2
613.757	540.52
614.176	493.71
614.594	467.96
615.013	505.41
615.431	491.37
615.85	432.85
616.268	460.94
616.686	386.04
617.104	367.32
617.522	463.28
617.94	379.02
618.358	379.02
618.776	402.43
619.194	355.62
619.612	416.47
620.03	407.11
620.447	421.15
620.865	395.4
621.282	390.72
621.7	439.87
622.117	336.89
622.535	418.81
622.952	346.25
623.369	343.91
623.787	343.91
624.204	348.59
624.621	325.19
625.038	343.91
625.455	390.72
625.872	367.32
626.289	369.66
626.706	348.59
627.123	367.32
627.539	339.23
627.956	336.89
628.373	280.72
628.789	435.19
629.206	411.79
629.622	350.93
630.038	442.21
630.455	409.45
630.871	360.3
631.287	343.91
631.703	341.57
632.12	360.3
632.536	348.59
632.952	388.38
633.368	315.83
633.783	341.57
634.199	322.85
634.615	327.53
635.031	383.7
635.446	334.55
635.862	299.44
636.277	407.11
636.693	386.04
637.108	334.55
637.524	372
637.939	339.23
638.354	294.76
638.77	374.34
639.185	348.59
639.6	311.14
640.015	350.93
640.43	364.98
640.845	297.1
641.259	397.74
641.674	346.25
642.089	313.49
642.504	278.38
642.918	386.04
643.333	313.49
643.747	357.96
644.162	374.34
644.576	353.27
644.991	266.67
645.405	364.98
645.819	355.62
646.233	329.87
646.647	315.83
647.061	332.21
647.475	297.1
647.889	283.06
648.303	304.12
648.717	320.51
649.131	364.98
649.545	315.83
649.958	346.25
650.372	350.93
650.785	332.21
651.199	259.65
651.612	325.19
652.026	297.1
652.439	266.67
652.852	271.36
653.266	315.83
653.679	334.55
654.092	357.96
654.505	322.85
654.918	348.59
655.331	273.7
655.744	292.42
656.156	355.62
656.569	346.25
656.982	355.62
657.394	397.74
657.807	290.08
658.22	297.1
658.632	334.55
659.044	297.1
659.457	299.44
659.869	315.83
660.281	311.14
660.693	325.19
661.106	306.46
661.518	334.55
661.93	273.7
662.342	247.95
662.754	334.55
663.165	353.27
663.577	334.55
663.989	374.34
664.401	294.76
664.812	292.42
665.224	381.36
665.635	287.74
666.047	334.55
666.458	336.89
666.869	360.3
667.281	292.42
667.692	353.27
668.103	273.7
668.514	357.96
668.925	350.93
669.336	318.17
669.747	311.14
670.158	322.85
670.569	308.8
670.979	318.17
671.39	334.55
671.801	350.93
672.211	336.89
672.622	269.02
673.032	339.23
673.443	353.27
673.853	336.89
674.263	395.4
674.674	334.55
675.084	280.72
675.494	283.06
675.904	240.93
676.314	327.53
676.724	357.96
677.134	320.51
677.544	379.02
677.953	297.1
678.363	362.64
678.773	407.11
679.182	313.49
679.592	369.66
680.001	259.65
680.411	325.19
680.82	299.44
681.23	322.85
681.639	332.21
682.048	254.97
682.457	311.14
682.866	320.51
683.275	360.3
683.684	266.67
684.093	313.49
684.502	332.21
684.911	322.85
685.32	341.57
685.728	285.4
686.137	327.53
686.546	308.8
686.954	308.8
687.363	261.99
687.771	332.21
688.179	278.38
688.588	390.72
688.996	353.27
689.404	343.91
689.812	327.53
690.22	250.29
690.628	306.46
691.036	334.55
691.444	348.59
691.852	329.87
692.26	301.78
692.667	311.14
693.075	339.23
693.483	294.76
693.89	304.12
694.298	332.21
694.705	276.04
695.112	346.25
695.52	364.98
695.927	271.36
696.334	369.66
696.741	252.63
697.148	264.33
697.555	348.59
697.962	297.1
698.369	247.95
698.776	311.14
699.183	257.31
699.59	313.49
699.996	273.7
700.403	252.63
700.81	318.17
701.216	290.08
701.623	332.21
702.029	350.93
702.435	339.23
702.842	320.51
703.248	339.23
703.654	294.76
704.06	346.25
704.466	374.34
704.872	355.62
705.278	318.17
705.684	350.93
706.09	362.64
706.496	329.87
706.901	357.96
707.307	301.78
707.712	257.31
708.118	381.36
708.523	304.12
708.929	304.12
709.334	261.99
709.74	318.17
710.145	269.02
710.55	318.17
710.955	336.89
711.36	334.55
711.765	348.59
712.17	395.4
712.575	423.49
712.98	961.81
713.385	334.55
713.789	280.72
714.194	304.12
714.599	355.62
715.003	339.23
715.408	240.93
715.812	264.33
716.217	327.53
716.621	339.23
717.025	346.25
717.429	301.78
717.833	322.85
718.238	292.42
718.642	299.44
719.046	278.38
719.449	285.4
719.853	332.21
720.257	285.4
720.661	269.02
721.065	297.1
721.468	280.72
721.872	346.25
722.275	318.17
722.679	287.74
723.082	306.46
723.485	320.51
723.889	325.19
724.292	297.1
724.695	315.83
725.098	259.65
725.501	327.53
725.904	315.83
726.307	297.1
726.71	283.06
727.113	287.74
727.516	287.74
727.918	287.74
728.321	357.96
728.724	299.44
729.126	250.29
729.529	306.46
729.931	297.1
730.333	318.17
730.736	292.42
731.138	339.23
731.54	311.14
731.942	283.06
732.344	259.65
732.746	332.21
733.148	341.57
733.55	290.08
733.952	322.85
734.354	376.68
734.756	313.49
735.157	350.93
735.559	306.46
735.96	276.04
736.362	304.12
736.763	364.98
737.165	290.08
737.566	264.33
737.967	266.67
738.368	346.25
738.77	283.06
739.171	273.7
739.572	290.08
739.973	336.89
740.374	259.65
740.774	332.21
741.175	355.62
741.576	311.14
741.977	301.78
742.377	283.06
742.778	294.76
743.178	320.51
743.579	290.08
743.979	276.04
744.379	299.44
744.78	332.21
745.18	276.04
745.58	320.51
745.98	261.99
746.38	320.51
746.78	318.17
747.18	229.23
747.58	332.21
747.98	264.33
748.38	257.31
748.779	362.64
749.179	318.17
749.578	299.44
749.978	294.76
750.377	271.36
750.777	320.51
751.176	353.27
751.575	376.68
751.975	219.86
752.374	297.1
752.773	341.57
753.172	334.55
753.571	299.44
753.97	285.4
754.369	306.46
754.768	271.36
755.166	329.87
755.565	269.02
755.964	355.62
756.362	226.89
756.761	259.65
757.159	360.3
757.558	325.19
757.956	306.46
758.354	346.25
758.753	343.91
759.151	313.49
759.549	259.65
759.947	287.74
760.345	287.74
760.743	283.06
761.141	294.76
761.539	292.42
761.936	334.55
762.334	329.87
762.732	294.76
763.129	285.4
763.527	276.04
763.924	376.68
764.322	285.4
764.719	360.3
765.117	313.49
765.514	313.49
765.911	308.8
