Data from Al_FLMS009871__381__12-35-39-720.txt Node

Date: Fri Mar 08 12:35:39 CST 2024
User: pe5414po
Spectrometer: FLMS00987
Trigger mode: 0
Integration Time (sec): 1.000000E-1
Scans to average: 1
Electric dark correction enabled: true
Nonlinearity correction enabled: false
Boxcar width: 0
XAxis mode: Wavelengths
Number of Pixels in Spectrum: 2048
>>>>>Begin Spectral Data<<<<<
188.938	-129.61
189.409	-129.61
189.879	-129.61
190.349	-92.16
190.819	-92.16
191.29	-103.86
191.76	-157.69
192.23	-50.03
192.7	-131.95
193.17	-75.77
193.64	-21.94
194.109	17.85
194.579	-21.94
195.049	34.23
195.519	48.27
195.988	20.19
196.458	6.14
196.927	90.4
197.397	109.13
197.866	120.83
198.336	116.15
198.805	169.98
199.274	212.11
199.744	226.15
200.213	244.88
200.682	191.05
201.151	214.45
201.62	263.6
202.089	209.77
202.558	308.07
203.027	219.13
203.495	258.92
203.964	284.67
204.433	284.67
204.902	282.33
205.37	247.22
205.839	277.65
206.307	345.52
206.776	359.56
207.244	279.99
207.712	270.62
208.181	291.69
208.649	305.73
209.117	308.07
209.585	310.41
210.053	310.41
210.521	256.58
210.989	315.09
211.457	277.65
211.925	256.58
212.393	275.31
212.861	256.58
213.328	338.5
213.796	315.09
214.264	270.62
214.731	322.12
215.199	261.26
215.666	322.12
216.133	258.92
216.601	249.56
217.068	284.67
217.535	216.79
218.003	247.22
218.47	272.96
218.937	244.88
219.404	303.39
219.871	294.03
220.338	233.18
220.805	195.73
221.271	289.35
221.738	242.54
222.205	265.94
222.671	240.2
223.138	258.92
223.605	310.41
224.071	287.01
224.538	289.35
225.004	272.96
225.47	272.96
225.937	195.73
226.403	287.01
226.869	291.69
227.335	312.75
227.801	336.16
228.267	343.18
228.733	263.6
229.199	265.94
229.665	303.39
230.131	272.96
230.597	287.01
231.062	279.99
231.528	242.54
231.994	228.49
232.459	298.71
232.925	235.52
233.39	291.69
233.856	301.05
234.321	219.13
234.786	282.33
235.252	265.94
235.717	270.62
236.182	247.22
236.647	270.62
237.112	265.94
237.577	317.44
238.042	319.78
238.507	317.44
238.972	291.69
239.436	336.16
239.901	258.92
240.366	275.31
240.83	249.56
241.295	308.07
241.76	277.65
242.224	296.37
242.688	247.22
243.153	249.56
243.617	263.6
244.081	315.09
244.545	301.05
245.01	312.75
245.474	263.6
245.938	233.18
246.402	263.6
246.866	298.71
247.33	317.44
247.793	279.99
248.257	305.73
248.721	261.26
249.185	333.82
249.648	305.73
250.112	263.6
250.575	263.6
251.039	301.05
251.502	319.78
251.965	277.65
252.429	256.58
252.892	279.99
253.355	303.39
253.818	279.99
254.281	240.2
254.744	317.44
255.207	301.05
255.67	308.07
256.133	277.65
256.596	254.24
257.059	221.47
257.522	331.48
257.984	287.01
258.447	272.96
258.909	322.12
259.372	282.33
259.834	237.86
260.297	305.73
260.759	261.26
261.221	251.9
261.684	340.84
262.146	298.71
262.608	310.41
263.07	296.37
263.532	277.65
263.994	261.26
264.456	272.96
264.918	242.54
265.38	221.47
265.842	272.96
266.303	272.96
266.765	284.67
267.227	272.96
267.688	249.56
268.15	345.52
268.611	214.45
269.072	350.2
269.534	279.99
269.995	310.41
270.456	249.56
270.918	324.46
271.379	251.9
271.84	296.37
272.301	303.39
272.762	324.46
273.223	361.91
273.684	291.69
274.144	287.01
274.605	270.62
275.066	301.05
275.527	329.14
275.987	247.22
276.448	333.82
276.908	333.82
277.369	340.84
277.829	345.52
278.289	354.88
278.75	333.82
279.21	268.28
279.67	303.39
280.13	212.11
280.59	361.91
281.05	329.14
281.51	212.11
281.97	303.39
282.43	249.56
282.89	272.96
283.35	350.2
283.809	310.41
284.269	228.49
284.729	301.05
285.188	275.31
285.648	336.16
286.107	336.16
286.567	317.44
287.026	317.44
287.485	284.67
287.944	329.14
288.404	254.24
288.863	305.73
289.322	310.41
289.781	251.9
290.24	237.86
290.699	265.94
291.158	310.41
291.616	312.75
292.075	315.09
292.534	308.07
292.992	251.9
293.451	294.03
293.91	317.44
294.368	310.41
294.827	329.14
295.285	207.43
295.743	270.62
296.202	315.09
296.66	214.45
297.118	275.31
297.576	289.35
298.034	249.56
298.492	324.46
298.95	296.37
299.408	359.56
299.866	296.37
300.324	268.28
300.781	329.14
301.239	296.37
301.697	284.67
302.154	268.28
302.612	277.65
303.069	298.71
303.527	296.37
303.984	322.12
304.441	258.92
304.899	338.5
305.356	268.28
305.813	315.09
306.27	345.52
306.727	352.54
307.184	345.52
307.641	282.33
308.098	319.78
308.555	305.73
309.012	366.59
309.468	352.54
309.925	312.75
310.382	322.12
310.838	282.33
311.295	284.67
311.751	296.37
312.208	251.9
312.664	312.75
313.12	261.26
313.577	294.03
314.033	361.91
314.489	282.33
314.945	354.88
315.401	287.01
315.857	340.84
316.313	268.28
316.769	303.39
317.225	385.31
317.681	371.27
318.136	364.25
318.592	310.41
319.048	265.94
319.503	364.25
319.959	380.63
320.414	244.88
320.869	345.52
321.325	322.12
321.78	333.82
322.235	287.01
322.691	331.48
323.146	319.78
323.601	279.99
324.056	352.54
324.511	287.01
324.966	317.44
325.421	303.39
325.875	366.59
326.33	319.78
326.785	380.63
327.24	301.05
327.694	303.39
328.149	326.8
328.603	368.93
329.058	305.73
329.512	265.94
329.966	289.35
330.421	319.78
330.875	331.48
331.329	343.18
331.783	298.71
332.237	329.14
332.691	303.39
333.145	298.71
333.599	310.41
334.053	315.09
334.507	308.07
334.96	312.75
335.414	287.01
335.868	298.71
336.321	343.18
336.775	305.73
337.228	275.31
337.682	394.67
338.135	301.05
338.588	310.41
339.042	324.46
339.495	289.35
339.948	298.71
340.401	326.8
340.854	322.12
341.307	291.69
341.76	296.37
342.213	291.69
342.666	315.09
343.119	350.2
343.571	303.39
344.024	343.18
344.477	303.39
344.929	385.31
345.382	275.31
345.834	275.31
346.287	305.73
346.739	359.56
347.191	317.44
347.644	326.8
348.096	326.8
348.548	301.05
349	308.07
349.452	287.01
349.904	315.09
350.356	272.96
350.808	373.61
351.26	315.09
351.711	310.41
352.163	263.6
352.615	308.07
353.066	333.82
353.518	301.05
353.969	303.39
354.421	284.67
354.872	226.15
355.324	212.11
355.775	284.67
356.226	279.99
356.677	294.03
357.128	233.18
357.579	347.86
358.03	308.07
358.481	343.18
358.932	303.39
359.383	301.05
359.834	326.8
360.285	333.82
360.735	366.59
361.186	294.03
361.637	284.67
362.087	277.65
362.538	282.33
362.988	261.26
363.438	359.56
363.889	317.44
364.339	371.27
364.789	331.48
365.239	324.46
365.689	368.93
366.139	296.37
366.589	277.65
367.039	354.88
367.489	343.18
367.939	317.44
368.389	329.14
368.839	329.14
369.288	315.09
369.738	310.41
370.187	315.09
370.637	340.84
371.086	298.71
371.536	343.18
371.985	298.71
372.434	301.05
372.884	336.16
373.333	324.46
373.782	333.82
374.231	291.69
374.68	303.39
375.129	329.14
375.578	315.09
376.027	305.73
376.475	322.12
376.924	270.62
377.373	350.2
377.822	301.05
378.27	352.54
378.719	298.71
379.167	272.96
379.616	340.84
380.064	242.54
380.512	343.18
380.961	296.37
381.409	340.84
381.857	279.99
382.305	343.18
382.753	394.67
383.201	301.05
383.649	289.35
384.097	343.18
384.545	258.92
384.992	289.35
385.44	317.44
385.888	277.65
386.335	272.96
386.783	244.88
387.231	212.11
387.678	254.24
388.125	272.96
388.573	242.54
389.02	340.84
389.467	343.18
389.914	294.03
390.362	345.52
390.809	343.18
391.256	308.07
391.703	329.14
392.15	294.03
392.596	329.14
393.043	333.82
393.49	366.59
393.937	336.16
394.383	326.8
394.83	303.39
395.276	310.41
395.723	275.31
396.169	352.54
396.616	296.37
397.062	247.22
397.508	294.03
397.954	322.12
398.401	301.05
398.847	338.5
399.293	392.33
399.739	298.71
400.185	270.62
400.631	322.12
401.076	354.88
401.522	277.65
401.968	277.65
402.414	352.54
402.859	336.16
403.305	319.78
403.75	287.01
404.196	366.59
404.641	319.78
405.086	371.27
405.532	364.25
405.977	343.18
406.422	364.25
406.867	275.31
407.312	324.46
407.757	343.18
408.202	375.95
408.647	357.22
409.092	279.99
409.537	296.37
409.982	324.46
410.426	270.62
410.871	340.84
411.316	338.5
411.76	258.92
412.205	338.5
412.649	357.22
413.093	373.61
413.538	303.39
413.982	380.63
414.426	312.75
414.87	340.84
415.314	268.28
415.758	326.8
416.202	338.5
416.646	345.52
417.09	387.65
417.534	347.86
417.978	329.14
418.421	326.8
418.865	329.14
419.309	289.35
419.752	336.16
420.196	359.56
420.639	287.01
421.083	326.8
421.526	329.14
421.969	413.4
422.412	443.82
422.856	375.95
423.299	338.5
423.742	354.88
424.185	382.97
424.628	331.48
425.071	387.65
425.513	326.8
425.956	357.22
426.399	338.5
426.842	317.44
427.284	312.75
427.727	352.54
428.169	457.87
428.612	340.84
429.054	361.91
429.497	406.38
429.939	329.14
430.381	385.31
430.823	359.56
431.265	366.59
431.707	354.88
432.149	382.97
432.591	387.65
433.033	359.56
433.475	392.33
433.917	418.08
434.359	394.67
434.8	485.95
435.242	537.45
435.684	563.19
436.125	488.29
436.567	471.91
437.008	450.85
437.449	504.68
437.891	434.46
438.332	462.55
438.773	434.46
439.214	429.78
439.656	460.21
440.097	467.23
440.538	490.63
440.978	462.55
441.419	511.7
441.86	485.95
442.301	525.74
442.742	429.78
443.182	453.19
443.623	511.7
444.063	525.74
444.504	462.55
444.944	492.98
445.385	481.27
445.825	483.61
446.265	584.26
446.706	528.08
447.146	511.7
447.586	500
448.026	525.74
448.466	504.68
448.906	560.85
449.346	544.47
449.786	476.59
450.225	532.76
450.665	563.19
451.105	469.57
451.544	542.13
451.984	450.85
452.424	422.76
452.863	392.33
453.302	448.51
453.742	455.53
454.181	453.19
454.62	537.45
455.059	469.57
455.499	455.53
455.938	464.89
456.377	490.63
456.816	462.55
457.254	425.1
457.693	450.85
458.132	413.4
458.571	439.14
459.01	397.01
459.448	425.1
459.887	387.65
460.325	509.36
460.764	464.89
461.202	406.38
461.641	434.46
462.079	406.38
462.517	350.2
462.955	408.72
463.393	373.61
463.832	420.42
464.27	448.51
464.708	448.51
465.145	399.35
465.583	427.44
466.021	366.59
466.459	418.08
466.897	324.46
467.334	422.76
467.772	413.4
468.209	382.97
468.647	385.31
469.084	404.03
469.522	326.8
469.959	378.29
470.396	380.63
470.833	415.74
471.271	406.38
471.708	436.8
472.145	378.29
472.582	371.27
473.019	345.52
473.456	411.06
473.892	385.31
474.329	378.29
474.766	404.03
475.202	366.59
475.639	464.89
476.076	340.84
476.512	378.29
476.949	378.29
477.385	382.97
477.821	385.31
478.258	415.74
478.694	368.93
479.13	359.56
479.566	385.31
480.002	364.25
480.438	373.61
480.874	368.93
481.31	387.65
481.746	378.29
482.181	361.91
482.617	366.59
483.053	401.69
483.488	392.33
483.924	373.61
484.36	380.63
484.795	397.01
485.23	371.27
485.666	469.57
486.101	441.48
486.536	483.61
486.971	429.78
487.407	432.12
487.842	378.29
488.277	401.69
488.712	385.31
489.146	441.48
489.581	448.51
490.016	411.06
490.451	422.76
490.885	457.87
491.32	476.59
491.755	399.35
492.189	404.03
492.624	401.69
493.058	394.67
493.492	408.72
493.927	450.85
494.361	401.69
494.795	460.21
495.229	382.97
495.663	404.03
496.097	434.46
496.531	408.72
496.965	425.1
497.399	371.27
497.833	368.93
498.266	415.74
498.7	375.95
499.134	462.55
499.567	399.35
500.001	425.1
500.434	425.1
500.868	425.1
501.301	373.61
501.734	371.27
502.168	443.82
502.601	392.33
503.034	373.61
503.467	464.89
503.9	464.89
504.333	382.97
504.766	371.27
505.199	436.8
505.632	432.12
506.064	422.76
506.497	422.76
506.93	389.99
507.362	389.99
507.795	368.93
508.227	336.16
508.66	415.74
509.092	464.89
509.524	375.95
509.956	406.38
510.389	455.53
510.821	401.69
511.253	389.99
511.685	406.38
512.117	443.82
512.549	366.59
512.981	418.08
513.412	422.76
513.844	387.65
514.276	425.1
514.707	406.38
515.139	455.53
515.571	457.87
516.002	411.06
516.433	373.61
516.865	429.78
517.296	460.21
517.727	413.4
518.159	408.72
518.59	427.44
519.021	455.53
519.452	425.1
519.883	378.29
520.314	361.91
520.744	399.35
521.175	427.44
521.606	448.51
522.037	411.06
522.467	361.91
522.898	375.95
523.328	488.29
523.759	380.63
524.189	478.93
524.62	408.72
525.05	504.68
525.48	467.23
525.91	469.57
526.341	462.55
526.771	371.27
527.201	455.53
527.631	404.03
528.061	467.23
528.49	392.33
528.92	446.16
529.35	436.8
529.78	425.1
530.209	483.61
530.639	389.99
531.068	394.67
531.498	422.76
531.927	490.63
532.357	464.89
532.786	474.25
533.215	425.1
533.644	453.19
534.074	467.23
534.503	460.21
534.932	502.34
535.361	401.69
535.79	439.14
536.218	422.76
536.647	485.95
537.076	488.29
537.505	432.12
537.933	488.29
538.362	495.32
538.79	507.02
539.219	448.51
539.647	471.91
540.076	434.46
540.504	572.55
540.932	607.66
541.36	614.68
541.788	654.47
542.217	720.01
542.645	631.07
543.073	698.94
543.5	684.9
543.928	741.07
544.356	745.75
544.784	715.33
545.211	727.03
545.639	738.73
546.067	668.52
546.494	633.41
546.922	593.62
547.349	558.51
547.776	492.98
548.204	565.53
548.631	502.34
549.058	542.13
549.485	497.66
549.912	511.7
550.339	457.87
550.766	539.79
551.193	539.79
551.62	518.72
552.047	483.61
552.474	478.93
552.9	464.89
553.327	478.93
553.754	462.55
554.18	450.85
554.607	439.14
555.033	450.85
555.459	406.38
555.886	453.19
556.312	467.23
556.738	483.61
557.164	425.1
557.59	387.65
558.016	415.74
558.442	385.31
558.868	422.76
559.294	387.65
559.72	434.46
560.145	420.42
560.571	415.74
560.997	289.35
561.422	443.82
561.848	439.14
562.273	418.08
562.699	439.14
563.124	394.67
563.549	467.23
563.974	492.98
564.4	450.85
564.825	450.85
565.25	401.69
565.675	408.72
566.1	418.08
566.525	462.55
566.95	382.97
567.374	446.16
567.799	441.48
568.224	413.4
568.648	368.93
569.073	413.4
569.497	455.53
569.922	434.46
570.346	467.23
570.771	476.59
571.195	467.23
571.619	507.02
572.043	420.42
572.467	389.99
572.891	460.21
573.315	450.85
573.739	462.55
574.163	502.34
574.587	422.76
575.011	336.16
575.435	457.87
575.858	401.69
576.282	385.31
576.705	481.27
577.129	450.85
577.552	380.63
577.976	455.53
578.399	415.74
578.822	429.78
579.245	481.27
579.669	455.53
580.092	422.76
580.515	467.23
580.938	446.16
581.361	481.27
581.784	450.85
582.206	462.55
582.629	446.16
583.052	502.34
583.474	420.42
583.897	443.82
584.32	448.51
584.742	488.29
585.165	464.89
585.587	464.89
586.009	448.51
586.431	492.98
586.854	448.51
587.276	474.25
587.698	432.12
588.12	413.4
588.542	399.35
588.964	418.08
589.386	492.98
589.807	439.14
590.229	490.63
590.651	450.85
591.073	389.99
591.494	418.08
591.916	418.08
592.337	401.69
592.759	448.51
593.18	492.98
593.601	375.95
594.022	492.98
594.444	389.99
594.865	366.59
595.286	446.16
595.707	434.46
596.128	413.4
596.549	413.4
596.97	429.78
597.39	427.44
597.811	425.1
598.232	364.25
598.652	373.61
599.073	432.12
599.494	418.08
599.914	411.06
600.334	460.21
600.755	389.99
601.175	373.61
601.595	385.31
602.015	432.12
602.436	359.56
602.856	539.79
603.276	385.31
603.696	331.48
604.115	378.29
604.535	471.91
604.955	371.27
605.375	443.82
605.794	336.16
606.214	429.78
606.634	382.97
607.053	394.67
607.473	350.2
607.892	432.12
608.311	432.12
608.731	432.12
609.15	481.27
609.569	509.36
609.988	621.7
610.407	715.33
610.826	790.22
611.245	785.54
611.664	804.27
612.083	720.01
612.501	574.89
612.92	640.43
613.339	558.51
613.757	525.74
614.176	521.06
614.594	518.72
615.013	495.32
615.431	450.85
615.85	457.87
616.268	408.72
616.686	448.51
617.104	455.53
617.522	406.38
617.94	432.12
618.358	301.05
618.776	385.31
619.194	413.4
619.612	453.19
620.03	434.46
620.447	401.69
620.865	411.06
621.282	373.61
621.7	420.42
622.117	420.42
622.535	441.48
622.952	432.12
623.369	352.54
623.787	399.35
624.204	324.46
624.621	411.06
625.038	439.14
625.455	413.4
625.872	371.27
626.289	422.76
626.706	399.35
627.123	380.63
627.539	420.42
627.956	404.03
628.373	434.46
628.789	404.03
629.206	413.4
629.622	399.35
630.038	345.52
630.455	429.78
630.871	387.65
631.287	397.01
631.703	418.08
632.12	380.63
632.536	413.4
632.952	364.25
633.368	411.06
633.783	404.03
634.199	366.59
634.615	354.88
635.031	375.95
635.446	399.35
635.862	345.52
636.277	340.84
636.693	333.82
637.108	392.33
637.524	389.99
637.939	389.99
638.354	340.84
638.77	305.73
639.185	352.54
639.6	399.35
640.015	352.54
640.43	308.07
640.845	375.95
641.259	333.82
641.674	404.03
642.089	394.67
642.504	329.14
642.918	378.29
643.333	343.18
643.747	294.03
644.162	312.75
644.576	289.35
644.991	350.2
645.405	357.22
645.819	368.93
646.233	284.67
646.647	389.99
647.061	312.75
647.475	289.35
647.889	350.2
648.303	387.65
648.717	324.46
649.131	340.84
649.545	347.86
649.958	364.25
650.372	397.01
650.785	352.54
651.199	312.75
651.612	298.71
652.026	357.22
652.439	382.97
652.852	413.4
653.266	312.75
653.679	329.14
654.092	359.56
654.505	338.5
654.918	345.52
655.331	322.12
655.744	270.62
656.156	247.22
656.569	373.61
656.982	305.73
657.394	322.12
657.807	301.05
658.22	378.29
658.632	338.5
659.044	366.59
659.457	322.12
659.869	354.88
660.281	364.25
660.693	289.35
661.106	354.88
661.518	308.07
661.93	315.09
662.342	319.78
662.754	371.27
663.165	338.5
663.577	291.69
663.989	371.27
664.401	312.75
664.812	352.54
665.224	345.52
665.635	373.61
666.047	404.03
666.458	350.2
666.869	324.46
667.281	418.08
667.692	385.31
668.103	331.48
668.514	331.48
668.925	352.54
669.336	296.37
669.747	336.16
670.158	331.48
670.569	322.12
670.979	301.05
671.39	277.65
671.801	338.5
672.211	270.62
672.622	322.12
673.032	340.84
673.443	338.5
673.853	317.44
674.263	301.05
674.674	270.62
675.084	326.8
675.494	326.8
675.904	319.78
676.314	308.07
676.724	366.59
677.134	296.37
677.544	408.72
677.953	326.8
678.363	343.18
678.773	308.07
679.182	380.63
679.592	361.91
680.001	380.63
680.411	287.01
680.82	319.78
681.23	305.73
681.639	333.82
682.048	310.41
682.457	418.08
682.866	364.25
683.275	366.59
683.684	343.18
684.093	303.39
684.502	361.91
684.911	333.82
685.32	322.12
685.728	361.91
686.137	336.16
686.546	282.33
686.954	380.63
687.363	303.39
687.771	338.5
688.179	329.14
688.588	256.58
688.996	254.24
689.404	312.75
689.812	326.8
690.22	284.67
690.628	340.84
691.036	350.2
691.444	275.31
691.852	244.88
692.26	415.74
692.667	331.48
693.075	354.88
693.483	345.52
693.89	312.75
694.298	368.93
694.705	340.84
695.112	319.78
695.52	385.31
695.927	387.65
696.334	298.71
696.741	284.67
697.148	261.26
697.555	331.48
697.962	294.03
698.369	319.78
698.776	326.8
699.183	329.14
699.59	331.48
699.996	317.44
700.403	312.75
700.81	291.69
701.216	303.39
701.623	284.67
702.029	361.91
702.435	308.07
702.842	331.48
703.248	308.07
703.654	279.99
704.06	319.78
704.466	357.22
704.872	359.56
705.278	296.37
705.684	291.69
706.09	354.88
706.496	354.88
706.901	322.12
707.307	389.99
707.712	261.26
708.118	357.22
708.523	394.67
708.929	331.48
709.334	413.4
709.74	357.22
710.145	326.8
710.55	322.12
710.955	308.07
711.36	326.8
711.765	322.12
712.17	338.5
712.575	359.56
712.98	881.5
713.385	380.63
713.789	354.88
714.194	308.07
714.599	294.03
715.003	251.9
715.408	338.5
715.812	404.03
716.217	357.22
716.621	284.67
717.025	329.14
717.429	308.07
717.833	308.07
718.238	340.84
718.642	350.2
719.046	392.33
719.449	310.41
719.853	315.09
720.257	294.03
720.661	331.48
721.065	343.18
721.468	345.52
721.872	319.78
722.275	345.52
722.679	251.9
723.082	287.01
723.485	343.18
723.889	350.2
724.292	258.92
724.695	301.05
725.098	333.82
725.501	272.96
725.904	322.12
726.307	333.82
726.71	345.52
727.113	310.41
727.516	298.71
727.918	303.39
728.321	291.69
728.724	296.37
729.126	326.8
729.529	310.41
729.931	322.12
730.333	289.35
730.736	329.14
731.138	291.69
731.54	368.93
731.942	345.52
732.344	291.69
732.746	289.35
733.148	322.12
733.55	270.62
733.952	333.82
734.354	326.8
734.756	357.22
735.157	415.74
735.559	324.46
735.96	319.78
736.362	357.22
736.763	336.16
737.165	350.2
737.566	366.59
737.967	336.16
738.368	312.75
738.77	240.2
739.171	350.2
739.572	340.84
739.973	329.14
740.374	251.9
740.774	315.09
741.175	256.58
741.576	308.07
741.977	345.52
742.377	287.01
742.778	347.86
743.178	298.71
743.579	296.37
743.979	343.18
744.379	329.14
744.78	331.48
745.18	366.59
745.58	319.78
745.98	394.67
746.38	331.48
746.78	322.12
747.18	303.39
747.58	270.62
747.98	336.16
748.38	312.75
748.779	336.16
749.179	354.88
749.578	352.54
749.978	319.78
750.377	303.39
750.777	329.14
751.176	389.99
751.575	380.63
751.975	303.39
752.374	340.84
752.773	261.26
753.172	324.46
753.571	296.37
753.97	326.8
754.369	359.56
754.768	338.5
755.166	291.69
755.565	310.41
755.964	329.14
756.362	279.99
756.761	364.25
757.159	312.75
757.558	340.84
757.956	331.48
758.354	287.01
758.753	287.01
759.151	336.16
759.549	298.71
759.947	364.25
760.345	258.92
760.743	291.69
761.141	287.01
761.539	254.24
761.936	287.01
762.334	333.82
762.732	256.58
763.129	324.46
763.527	308.07
763.924	324.46
764.322	357.22
