Data from Al_FLMS009871__393__12-35-40-920.txt Node

Date: Fri Mar 08 12:35:40 CST 2024
User: pe5414po
Spectrometer: FLMS00987
Trigger mode: 0
Integration Time (sec): 1.000000E-1
Scans to average: 1
Electric dark correction enabled: true
Nonlinearity correction enabled: false
Boxcar width: 0
XAxis mode: Wavelengths
Number of Pixels in Spectrum: 2048
>>>>>Begin Spectral Data<<<<<
188.938	-30.13
189.409	-30.13
189.879	-30.13
190.349	-88.65
190.819	-69.92
191.29	-123.76
191.76	-100.35
192.23	-81.63
192.7	-114.39
193.17	-44.18
193.64	-39.5
194.109	-32.47
194.579	-55.88
195.049	26.04
195.519	19.02
195.988	40.08
196.458	12
196.927	98.6
197.397	96.25
197.866	159.45
198.336	140.72
198.805	112.64
199.274	119.66
199.744	224.98
200.213	159.45
200.682	173.49
201.151	126.68
201.62	278.82
202.089	271.79
202.558	243.71
203.027	250.73
203.495	241.37
203.964	199.24
204.433	285.84
204.902	295.2
205.37	232.01
205.839	292.86
206.307	332.65
206.776	339.67
207.244	292.86
207.712	288.18
208.181	332.65
208.649	264.77
209.117	276.48
209.585	271.79
210.053	288.18
210.521	232.01
210.989	267.11
211.457	283.5
211.925	299.88
212.393	208.6
212.861	283.5
213.328	278.82
213.796	318.61
214.264	220.3
214.731	239.03
215.199	332.65
215.666	302.22
216.133	309.24
216.601	278.82
217.068	330.31
217.535	241.37
218.003	192.22
218.47	224.98
218.937	185.19
219.404	229.67
219.871	227.32
220.338	208.6
220.805	295.2
221.271	217.96
221.738	236.69
222.205	253.07
222.671	262.43
223.138	250.73
223.605	299.88
224.071	276.48
224.538	327.97
225.004	248.39
225.47	255.41
225.937	318.61
226.403	320.95
226.869	210.94
227.335	213.28
227.801	206.26
228.267	192.22
228.733	267.11
229.199	288.18
229.665	250.73
230.131	248.39
230.597	246.05
231.062	232.01
231.528	232.01
231.994	232.01
232.459	236.69
232.925	210.94
233.39	274.14
233.856	213.28
234.321	302.22
234.786	299.88
235.252	274.14
235.717	271.79
236.182	232.01
236.647	299.88
237.112	271.79
237.577	253.07
238.042	239.03
238.507	269.45
238.972	210.94
239.436	290.52
239.901	257.75
240.366	241.37
240.83	255.41
241.295	260.09
241.76	257.75
242.224	302.22
242.688	227.32
243.153	295.2
243.617	246.05
244.081	199.24
244.545	281.16
245.01	285.84
245.474	255.41
245.938	304.56
246.402	290.52
246.866	313.92
247.33	278.82
247.793	196.9
248.257	330.31
248.721	281.16
249.185	255.41
249.648	217.96
250.112	201.58
250.575	304.56
251.039	285.84
251.502	276.48
251.965	304.56
252.429	278.82
252.892	320.95
253.355	297.54
253.818	260.09
254.281	325.63
254.744	255.41
255.207	234.35
255.67	288.18
256.133	292.86
256.596	246.05
257.059	318.61
257.522	248.39
257.984	297.54
258.447	243.71
258.909	327.97
259.372	323.29
259.834	316.26
260.297	311.58
260.759	253.07
261.221	299.88
261.684	241.37
262.146	241.37
262.608	239.03
263.07	327.97
263.532	323.29
263.994	250.73
264.456	292.86
264.918	311.58
265.38	224.98
265.842	278.82
266.303	297.54
266.765	276.48
267.227	309.24
267.688	196.9
268.15	292.86
268.611	260.09
269.072	292.86
269.534	276.48
269.995	299.88
270.456	267.11
270.918	255.41
271.379	327.97
271.84	283.5
272.301	346.69
272.762	217.96
273.223	224.98
273.684	332.65
274.144	239.03
274.605	257.75
275.066	271.79
275.527	290.52
275.987	292.86
276.448	255.41
276.908	236.69
277.369	290.52
277.829	281.16
278.289	309.24
278.75	253.07
279.21	248.39
279.67	299.88
280.13	271.79
280.59	234.35
281.05	271.79
281.51	269.45
281.97	243.71
282.43	267.11
282.89	276.48
283.35	257.75
283.809	264.77
284.269	309.24
284.729	274.14
285.188	255.41
285.648	236.69
286.107	299.88
286.567	267.11
287.026	267.11
287.485	257.75
287.944	276.48
288.404	304.56
288.863	316.26
289.322	302.22
289.781	297.54
290.24	297.54
290.699	274.14
291.158	297.54
291.616	271.79
292.075	288.18
292.534	274.14
292.992	285.84
293.451	274.14
293.91	337.33
294.368	349.03
294.827	290.52
295.285	325.63
295.743	276.48
296.202	257.75
296.66	224.98
297.118	281.16
297.576	264.77
298.034	222.64
298.492	288.18
298.95	257.75
299.408	337.33
299.866	210.94
300.324	241.37
300.781	316.26
301.239	325.63
301.697	262.43
302.154	320.95
302.612	339.67
303.069	255.41
303.527	320.95
303.984	257.75
304.441	309.24
304.899	332.65
305.356	309.24
305.813	262.43
306.27	236.69
306.727	299.88
307.184	264.77
307.641	318.61
308.098	346.69
308.555	299.88
309.012	281.16
309.468	309.24
309.925	304.56
310.382	360.74
310.838	309.24
311.295	332.65
311.751	299.88
312.208	274.14
312.664	320.95
313.12	323.29
313.577	269.45
314.033	309.24
314.489	276.48
314.945	253.07
315.401	283.5
315.857	372.44
316.313	309.24
316.769	269.45
317.225	332.65
317.681	323.29
318.136	344.35
318.592	267.11
319.048	269.45
319.503	269.45
319.959	302.22
320.414	255.41
320.869	288.18
321.325	306.9
321.78	274.14
322.235	323.29
322.691	309.24
323.146	349.03
323.601	302.22
324.056	295.2
324.511	353.71
324.966	271.79
325.421	257.75
325.875	267.11
326.33	185.19
326.785	274.14
327.24	210.94
327.694	264.77
328.149	334.99
328.603	316.26
329.058	267.11
329.512	306.9
329.966	299.88
330.421	264.77
330.875	316.26
331.329	302.22
331.783	250.73
332.237	313.92
332.691	243.71
333.145	325.63
333.599	281.16
334.053	274.14
334.507	227.32
334.96	313.92
335.414	316.26
335.868	304.56
336.321	215.62
336.775	309.24
337.228	278.82
337.682	264.77
338.135	227.32
338.588	229.67
339.042	393.5
339.495	297.54
339.948	393.5
340.401	309.24
340.854	325.63
341.307	342.01
341.76	349.03
342.213	360.74
342.666	295.2
343.119	325.63
343.571	330.31
344.024	276.48
344.477	311.58
344.929	311.58
345.382	264.77
345.834	281.16
346.287	320.95
346.739	318.61
347.191	323.29
347.644	285.84
348.096	360.74
348.548	342.01
349	313.92
349.452	320.95
349.904	358.39
350.356	260.09
350.808	278.82
351.26	292.86
351.711	351.37
352.163	304.56
352.615	325.63
353.066	330.31
353.518	290.52
353.969	278.82
354.421	311.58
354.872	363.08
355.324	318.61
355.775	323.29
356.226	306.9
356.677	267.11
357.128	264.77
357.579	346.69
358.03	320.95
358.481	297.54
358.932	222.64
359.383	337.33
359.834	309.24
360.285	248.39
360.735	311.58
361.186	316.26
361.637	295.2
362.087	342.01
362.538	283.5
362.988	281.16
363.438	236.69
363.889	325.63
364.339	419.25
364.789	356.05
365.239	327.97
365.689	299.88
366.139	306.9
366.589	311.58
367.039	271.79
367.489	356.05
367.939	318.61
368.389	274.14
368.839	318.61
369.288	351.37
369.738	309.24
370.187	388.82
370.637	285.84
371.086	299.88
371.536	353.71
371.985	299.88
372.434	292.86
372.884	311.58
373.333	318.61
373.782	320.95
374.231	309.24
374.68	295.2
375.129	290.52
375.578	309.24
376.027	309.24
376.475	304.56
376.924	278.82
377.373	318.61
377.822	295.2
378.27	388.82
378.719	269.45
379.167	264.77
379.616	342.01
380.064	302.22
380.512	344.35
380.961	260.09
381.409	332.65
381.857	320.95
382.305	342.01
382.753	292.86
383.201	288.18
383.649	241.37
384.097	257.75
384.545	302.22
384.992	313.92
385.44	288.18
385.888	320.95
386.335	302.22
386.783	318.61
387.231	325.63
387.678	316.26
388.125	257.75
388.573	262.43
389.02	253.07
389.467	325.63
389.914	311.58
390.362	264.77
390.809	276.48
391.256	318.61
391.703	311.58
392.15	304.56
392.596	299.88
393.043	330.31
393.49	285.84
393.937	337.33
394.383	283.5
394.83	332.65
395.276	285.84
395.723	288.18
396.169	262.43
396.616	365.42
397.062	367.76
397.508	320.95
397.954	283.5
398.401	243.71
398.847	281.16
399.293	313.92
399.739	267.11
400.185	332.65
400.631	313.92
401.076	313.92
401.522	316.26
401.968	325.63
402.414	269.45
402.859	288.18
403.305	316.26
403.75	372.44
404.196	325.63
404.641	363.08
405.086	255.41
405.532	358.39
405.977	302.22
406.422	311.58
406.867	283.5
407.312	295.2
407.757	295.2
408.202	332.65
408.647	323.29
409.092	327.97
409.537	377.12
409.982	302.22
410.426	288.18
410.871	325.63
411.316	323.29
411.76	304.56
412.205	304.56
412.649	316.26
413.093	288.18
413.538	260.09
413.982	334.99
414.426	278.82
414.87	311.58
415.314	292.86
415.758	339.67
416.202	344.35
416.646	334.99
417.09	271.79
417.534	346.69
417.978	337.33
418.421	297.54
418.865	330.31
419.309	290.52
419.752	337.33
420.196	337.33
420.639	349.03
421.083	262.43
421.526	313.92
421.969	388.82
422.412	370.1
422.856	342.01
423.299	332.65
423.742	353.71
424.185	353.71
424.628	339.67
425.071	377.12
425.513	386.48
425.956	358.39
426.399	302.22
426.842	332.65
427.284	309.24
427.727	346.69
428.169	365.42
428.612	332.65
429.054	363.08
429.497	346.69
429.939	379.46
430.381	388.82
430.823	409.89
431.265	423.93
431.707	356.05
432.149	339.67
432.591	334.99
433.033	400.52
433.475	388.82
433.917	510.53
434.359	468.4
434.8	461.38
435.242	517.55
435.684	550.32
436.125	466.06
436.567	412.23
437.008	519.89
437.449	473.08
437.891	367.76
438.332	423.93
438.773	487.12
439.214	372.44
439.656	428.61
440.097	529.25
440.538	421.59
440.978	468.4
441.419	386.48
441.86	489.46
442.301	461.38
442.742	393.5
443.182	524.57
443.623	519.89
444.063	515.21
444.504	533.93
444.944	468.4
445.385	524.57
445.825	508.19
446.265	529.25
446.706	538.62
447.146	491.81
447.586	463.72
448.026	562.02
448.466	452.02
448.906	517.55
449.346	536.28
449.786	470.74
450.225	459.04
450.665	562.02
451.105	468.4
451.544	519.89
451.984	454.36
452.424	426.27
452.863	444.99
453.302	468.4
453.742	466.06
454.181	456.7
454.62	414.57
455.059	475.42
455.499	491.81
455.938	452.02
456.377	433.29
456.816	430.95
457.254	381.8
457.693	526.91
458.132	412.23
458.571	412.23
459.01	463.72
459.448	419.25
459.887	342.01
460.325	416.91
460.764	426.27
461.202	461.38
461.641	470.74
462.079	470.74
462.517	391.16
462.955	349.03
463.393	398.18
463.832	398.18
464.27	473.08
464.708	419.25
465.145	444.99
465.583	363.08
466.021	320.95
466.459	358.39
466.897	320.95
467.334	419.25
467.772	381.8
468.209	384.14
468.647	384.14
469.084	421.59
469.522	339.67
469.959	363.08
470.396	323.29
470.833	374.78
471.271	365.42
471.708	327.97
472.145	395.84
472.582	381.8
473.019	374.78
473.456	360.74
473.892	374.78
474.329	323.29
474.766	381.8
475.202	388.82
475.639	330.31
476.076	412.23
476.512	377.12
476.949	395.84
477.385	349.03
477.821	370.1
478.258	374.78
478.694	290.52
479.13	398.18
479.566	440.31
480.002	377.12
480.438	342.01
480.874	337.33
481.31	395.84
481.746	360.74
482.181	299.88
482.617	372.44
483.053	374.78
483.488	449.68
483.924	395.84
484.36	398.18
484.795	414.57
485.23	384.14
485.666	430.95
486.101	421.59
486.536	456.7
486.971	351.37
487.407	346.69
487.842	407.55
488.277	463.72
488.712	381.8
489.146	363.08
489.581	435.63
490.016	372.44
490.451	419.25
490.885	400.52
491.32	437.97
491.755	437.97
492.189	395.84
492.624	470.74
493.058	428.61
493.492	395.84
493.927	423.93
494.361	435.63
494.795	444.99
495.229	358.39
495.663	388.82
496.097	384.14
496.531	377.12
496.965	466.06
497.399	360.74
497.833	381.8
498.266	468.4
498.7	351.37
499.134	419.25
499.567	428.61
500.001	372.44
500.434	351.37
500.868	428.61
501.301	363.08
501.734	377.12
502.168	405.21
502.601	372.44
503.034	353.71
503.467	437.97
503.9	435.63
504.333	384.14
504.766	381.8
505.199	391.16
505.632	442.65
506.064	447.33
506.497	426.27
506.93	423.93
507.362	367.76
507.795	393.5
508.227	344.35
508.66	428.61
509.092	430.95
509.524	342.01
509.956	379.46
510.389	353.71
510.821	400.52
511.253	412.23
511.685	395.84
512.117	353.71
512.549	367.76
512.981	423.93
513.412	426.27
513.844	393.5
514.276	409.89
514.707	407.55
515.139	416.91
515.571	437.97
516.002	435.63
516.433	334.99
516.865	423.93
517.296	386.48
517.727	423.93
518.159	377.12
518.59	428.61
519.021	407.55
519.452	379.46
519.883	337.33
520.314	435.63
520.744	386.48
521.175	423.93
521.606	409.89
522.037	370.1
522.467	372.44
522.898	370.1
523.328	398.18
523.759	358.39
524.189	419.25
524.62	395.84
525.05	334.99
525.48	456.7
525.91	463.72
526.341	433.29
526.771	412.23
527.201	377.12
527.631	456.7
528.061	480.1
528.49	402.86
528.92	412.23
529.35	402.86
529.78	409.89
530.209	393.5
530.639	426.27
531.068	482.44
531.498	421.59
531.927	442.65
532.357	435.63
532.786	419.25
533.215	405.21
533.644	444.99
534.074	440.31
534.503	414.57
534.932	466.06
535.361	477.76
535.79	470.74
536.218	412.23
536.647	440.31
537.076	480.1
537.505	473.08
537.933	473.08
538.362	440.31
538.79	426.27
539.219	477.76
539.647	494.15
540.076	489.46
540.504	519.89
540.932	559.68
541.36	646.28
541.788	615.85
542.217	636.92
542.645	672.03
543.073	709.47
543.5	702.45
543.928	700.11
544.356	660.32
544.784	700.11
545.211	662.66
545.639	758.63
546.067	681.39
546.494	681.39
546.922	592.45
547.349	526.91
547.776	547.98
548.204	466.06
548.631	442.65
549.058	468.4
549.485	552.66
549.912	508.19
550.339	484.78
550.766	491.81
551.193	473.08
551.62	477.76
552.047	487.12
552.474	484.78
552.9	456.7
553.327	447.33
553.754	388.82
554.18	430.95
554.607	484.78
555.033	508.19
555.459	419.25
555.886	428.61
556.312	444.99
556.738	405.21
557.164	426.27
557.59	405.21
558.016	419.25
558.442	386.48
558.868	430.95
559.294	391.16
559.72	468.4
560.145	433.29
560.571	430.95
560.997	402.86
561.422	339.67
561.848	416.91
562.273	412.23
562.699	459.04
563.124	398.18
563.549	393.5
563.974	363.08
564.4	421.59
564.825	449.68
565.25	419.25
565.675	365.42
566.1	414.57
566.525	398.18
566.95	402.86
567.374	414.57
567.799	421.59
568.224	426.27
568.648	381.8
569.073	435.63
569.497	379.46
569.922	374.78
570.346	344.35
570.771	381.8
571.195	423.93
571.619	372.44
572.043	379.46
572.467	428.61
572.891	437.97
573.315	374.78
573.739	377.12
574.163	419.25
574.587	391.16
575.011	372.44
575.435	388.82
575.858	398.18
576.282	419.25
576.705	372.44
577.129	470.74
577.552	414.57
577.976	461.38
578.399	395.84
578.822	447.33
579.245	477.76
579.669	407.55
580.092	473.08
580.515	463.72
580.938	381.8
581.361	454.36
581.784	367.76
582.206	437.97
582.629	414.57
583.052	423.93
583.474	428.61
583.897	412.23
584.32	517.55
584.742	454.36
585.165	407.55
585.587	456.7
586.009	454.36
586.431	505.85
586.854	517.55
587.276	461.38
587.698	437.97
588.12	452.02
588.542	463.72
588.964	412.23
589.386	398.18
589.807	414.57
590.229	435.63
590.651	400.52
591.073	393.5
591.494	409.89
591.916	477.76
592.337	484.78
592.759	419.25
593.18	388.82
593.601	372.44
594.022	379.46
594.444	405.21
594.865	367.76
595.286	391.16
595.707	423.93
596.128	386.48
596.549	327.97
596.97	365.42
597.39	353.71
597.811	365.42
598.232	374.78
598.652	421.59
599.073	374.78
599.494	367.76
599.914	398.18
600.334	388.82
600.755	398.18
601.175	384.14
601.595	374.78
602.015	400.52
602.436	414.57
602.856	484.78
603.276	332.65
603.696	327.97
604.115	442.65
604.535	388.82
604.955	344.35
605.375	419.25
605.794	421.59
606.214	370.1
606.634	377.12
607.053	381.8
607.473	437.97
607.892	412.23
608.311	409.89
608.731	463.72
609.15	489.46
609.569	611.17
609.988	683.73
610.407	760.97
610.826	751.6
611.245	810.12
611.664	735.22
612.083	693.09
612.501	650.96
612.92	622.88
613.339	564.36
613.757	578.4
614.176	524.57
614.594	555
615.013	433.29
615.431	426.27
615.85	489.46
616.268	384.14
616.686	444.99
617.104	342.01
617.522	456.7
617.94	407.55
618.358	295.2
618.776	405.21
619.194	414.57
619.612	400.52
620.03	409.89
620.447	367.76
620.865	430.95
621.282	398.18
621.7	409.89
622.117	334.99
622.535	360.74
622.952	407.55
623.369	414.57
623.787	437.97
624.204	320.95
624.621	330.31
625.038	316.26
625.455	398.18
625.872	409.89
626.289	449.68
626.706	374.78
627.123	344.35
627.539	372.44
627.956	339.67
628.373	318.61
628.789	351.37
629.206	377.12
629.622	428.61
630.038	374.78
630.455	323.29
630.871	330.31
631.287	393.5
631.703	363.08
632.12	323.29
632.536	377.12
632.952	342.01
633.368	290.52
633.783	353.71
634.199	353.71
634.615	402.86
635.031	339.67
635.446	281.16
635.862	292.86
636.277	334.99
636.693	327.97
637.108	342.01
637.524	318.61
637.939	313.92
638.354	372.44
638.77	327.97
639.185	377.12
639.6	374.78
640.015	349.03
640.43	372.44
640.845	313.92
641.259	346.69
641.674	360.74
642.089	360.74
642.504	320.95
642.918	339.67
643.333	370.1
643.747	363.08
644.162	311.58
644.576	327.97
644.991	304.56
645.405	283.5
645.819	353.71
646.233	356.05
646.647	365.42
647.061	358.39
647.475	332.65
647.889	372.44
648.303	299.88
648.717	337.33
649.131	360.74
649.545	302.22
649.958	264.77
650.372	388.82
650.785	351.37
651.199	297.54
651.612	295.2
652.026	309.24
652.439	316.26
652.852	264.77
653.266	344.35
653.679	320.95
654.092	304.56
654.505	363.08
654.918	309.24
655.331	264.77
655.744	313.92
656.156	311.58
656.569	339.67
656.982	337.33
657.394	323.29
657.807	405.21
658.22	332.65
658.632	304.56
659.044	351.37
659.457	306.9
659.869	299.88
660.281	283.5
660.693	278.82
661.106	330.31
661.518	288.18
661.93	337.33
662.342	393.5
662.754	349.03
663.165	299.88
663.577	316.26
663.989	342.01
664.401	356.05
664.812	285.84
665.224	323.29
665.635	297.54
666.047	339.67
666.458	290.52
666.869	334.99
667.281	377.12
667.692	250.73
668.103	346.69
668.514	351.37
668.925	274.14
669.336	337.33
669.747	269.45
670.158	323.29
670.569	255.41
670.979	346.69
671.39	313.92
671.801	302.22
672.211	325.63
672.622	290.52
673.032	356.05
673.443	297.54
673.853	370.1
674.263	250.73
674.674	327.97
675.084	281.16
675.494	302.22
675.904	278.82
676.314	306.9
676.724	281.16
677.134	271.79
677.544	384.14
677.953	320.95
678.363	334.99
678.773	323.29
679.182	290.52
679.592	285.84
680.001	374.78
680.411	269.45
680.82	353.71
681.23	271.79
681.639	292.86
682.048	276.48
682.457	344.35
682.866	292.86
683.275	327.97
683.684	327.97
684.093	311.58
684.502	330.31
684.911	290.52
685.32	309.24
685.728	313.92
686.137	365.42
686.546	290.52
686.954	407.55
687.363	337.33
687.771	367.76
688.179	323.29
688.588	304.56
688.996	302.22
689.404	290.52
689.812	313.92
690.22	316.26
690.628	302.22
691.036	295.2
691.444	290.52
691.852	260.09
692.26	330.31
692.667	281.16
693.075	306.9
693.483	295.2
693.89	334.99
694.298	360.74
694.705	281.16
695.112	213.28
695.52	325.63
695.927	241.37
696.334	260.09
696.741	323.29
697.148	288.18
697.555	302.22
697.962	316.26
698.369	311.58
698.776	325.63
699.183	330.31
699.59	276.48
699.996	306.9
700.403	309.24
700.81	339.67
701.216	309.24
701.623	297.54
702.029	269.45
702.435	309.24
702.842	374.78
703.248	276.48
703.654	330.31
704.06	297.54
704.466	342.01
704.872	327.97
705.278	306.9
705.684	276.48
706.09	344.35
706.496	255.41
706.901	285.84
707.307	283.5
707.712	358.39
708.118	349.03
708.523	327.97
708.929	353.71
709.334	370.1
709.74	271.79
710.145	309.24
710.55	327.97
710.955	264.77
711.36	306.9
711.765	309.24
712.17	313.92
712.575	323.29
712.98	870.97
713.385	344.35
713.789	313.92
714.194	363.08
714.599	297.54
715.003	356.05
715.408	339.67
715.812	269.45
716.217	377.12
716.621	316.26
717.025	412.23
717.429	304.56
717.833	208.6
718.238	299.88
718.642	344.35
719.046	271.79
719.449	264.77
719.853	304.56
720.257	262.43
720.661	381.8
721.065	356.05
721.468	257.75
721.872	297.54
722.275	295.2
722.679	250.73
723.082	290.52
723.485	353.71
723.889	349.03
724.292	302.22
724.695	260.09
725.098	304.56
725.501	302.22
725.904	393.5
726.307	346.69
726.71	339.67
727.113	344.35
727.516	323.29
727.918	342.01
728.321	267.11
728.724	313.92
729.126	288.18
729.529	320.95
729.931	292.86
730.333	311.58
730.736	260.09
731.138	320.95
731.54	295.2
731.942	299.88
732.344	276.48
732.746	292.86
733.148	267.11
733.55	363.08
733.952	224.98
734.354	306.9
734.756	309.24
735.157	274.14
735.559	297.54
735.96	243.71
736.362	320.95
736.763	290.52
737.165	332.65
737.566	306.9
737.967	248.39
738.368	309.24
738.77	309.24
739.171	283.5
739.572	292.86
739.973	353.71
740.374	318.61
740.774	243.71
741.175	290.52
741.576	309.24
741.977	311.58
742.377	304.56
742.778	285.84
743.178	276.48
743.579	281.16
743.979	332.65
744.379	353.71
744.78	297.54
745.18	363.08
745.58	253.07
745.98	349.03
746.38	330.31
746.78	339.67
747.18	320.95
747.58	318.61
747.98	299.88
748.38	304.56
748.779	318.61
749.179	323.29
749.578	304.56
749.978	318.61
750.377	353.71
750.777	360.74
751.176	283.5
751.575	358.39
751.975	318.61
752.374	292.86
752.773	241.37
753.172	285.84
753.571	318.61
753.97	323.29
754.369	327.97
754.768	292.86
755.166	292.86
755.565	351.37
755.964	288.18
756.362	332.65
756.761	276.48
757.159	337.33
757.558	297.54
757.956	274.14
758.354	344.35
758.753	372.44
759.151	332.65
759.549	316.26
759.947	295.2
760.345	330.31
760.743	283.5
761.141	363.08
761.539	339.67
761.936	320.95
762.334	304.56
762.732	370.1
763.129	255.41
763.527	248.39
763.924	290.52
764.322	367.76
