Data from Al_FLMS009871__385__12-35-40-120.txt Node

Date: Fri Mar 08 12:35:40 CST 2024
User: pe5414po
Spectrometer: FLMS00987
Trigger mode: 0
Integration Time (sec): 1.000000E-1
Scans to average: 1
Electric dark correction enabled: true
Nonlinearity correction enabled: false
Boxcar width: 0
XAxis mode: Wavelengths
Number of Pixels in Spectrum: 2048
>>>>>Begin Spectral Data<<<<<
188.938	-28.96
189.409	-28.96
189.879	-28.96
190.349	-108.54
190.819	-80.46
191.29	-73.43
191.76	-78.12
192.23	-40.67
192.7	-145.99
193.17	-24.28
193.64	-28.96
194.109	-26.62
194.579	-78.12
195.049	-43.01
195.519	-38.33
195.988	38.91
196.458	55.3
196.927	81.04
197.397	125.51
197.866	104.45
198.336	172.32
198.805	141.89
199.274	99.77
199.744	205.09
200.213	167.64
200.682	167.64
201.151	242.54
201.62	249.56
202.089	249.56
202.558	212.11
203.027	226.15
203.495	277.65
203.964	244.88
204.433	235.52
204.902	287.01
205.37	336.16
205.839	287.01
206.307	279.99
206.776	345.52
207.244	357.22
207.712	301.05
208.181	258.92
208.649	268.28
209.117	254.24
209.585	345.52
210.053	289.35
210.521	324.46
210.989	329.14
211.457	228.49
211.925	263.6
212.393	282.33
212.861	254.24
213.328	279.99
213.796	322.12
214.264	298.71
214.731	265.94
215.199	359.56
215.666	343.18
216.133	270.62
216.601	291.69
217.068	284.67
217.535	270.62
218.003	371.27
218.47	272.96
218.937	214.45
219.404	275.31
219.871	319.78
220.338	235.52
220.805	279.99
221.271	240.2
221.738	251.9
222.205	214.45
222.671	209.77
223.138	301.05
223.605	277.65
224.071	301.05
224.538	240.2
225.004	186.37
225.47	331.48
225.937	254.24
226.403	336.16
226.869	291.69
227.335	258.92
227.801	247.22
228.267	261.26
228.733	301.05
229.199	284.67
229.665	258.92
230.131	275.31
230.597	315.09
231.062	214.45
231.528	279.99
231.994	258.92
232.459	312.75
232.925	268.28
233.39	230.84
233.856	319.78
234.321	235.52
234.786	289.35
235.252	235.52
235.717	291.69
236.182	279.99
236.647	350.2
237.112	282.33
237.577	261.26
238.042	270.62
238.507	315.09
238.972	242.54
239.436	265.94
239.901	263.6
240.366	338.5
240.83	287.01
241.295	301.05
241.76	326.8
242.224	294.03
242.688	251.9
243.153	301.05
243.617	284.67
244.081	272.96
244.545	261.26
245.01	263.6
245.474	275.31
245.938	303.39
246.402	256.58
246.866	216.79
247.33	294.03
247.793	265.94
248.257	336.16
248.721	317.44
249.185	219.13
249.648	242.54
250.112	261.26
250.575	230.84
251.039	324.46
251.502	265.94
251.965	305.73
252.429	296.37
252.892	296.37
253.355	333.82
253.818	303.39
254.281	296.37
254.744	305.73
255.207	282.33
255.67	263.6
256.133	289.35
256.596	319.78
257.059	338.5
257.522	265.94
257.984	275.31
258.447	287.01
258.909	270.62
259.372	172.32
259.834	247.22
260.297	294.03
260.759	305.73
261.221	329.14
261.684	298.71
262.146	322.12
262.608	331.48
263.07	296.37
263.532	294.03
263.994	249.56
264.456	303.39
264.918	247.22
265.38	272.96
265.842	233.18
266.303	207.43
266.765	284.67
267.227	284.67
267.688	298.71
268.15	179.34
268.611	308.07
269.072	317.44
269.534	247.22
269.995	277.65
270.456	326.8
270.918	361.91
271.379	244.88
271.84	261.26
272.301	258.92
272.762	347.86
273.223	301.05
273.684	247.22
274.144	296.37
274.605	333.82
275.066	322.12
275.527	317.44
275.987	233.18
276.448	310.41
276.908	319.78
277.369	317.44
277.829	249.56
278.289	319.78
278.75	298.71
279.21	284.67
279.67	319.78
280.13	319.78
280.59	275.31
281.05	296.37
281.51	373.61
281.97	294.03
282.43	312.75
282.89	294.03
283.35	240.2
283.809	305.73
284.269	279.99
284.729	289.35
285.188	219.13
285.648	272.96
286.107	272.96
286.567	338.5
287.026	352.54
287.485	237.86
287.944	382.97
288.404	303.39
288.863	294.03
289.322	361.91
289.781	312.75
290.24	305.73
290.699	265.94
291.158	279.99
291.616	343.18
292.075	275.31
292.534	296.37
292.992	317.44
293.451	287.01
293.91	333.82
294.368	270.62
294.827	272.96
295.285	315.09
295.743	305.73
296.202	287.01
296.66	272.96
297.118	317.44
297.576	310.41
298.034	343.18
298.492	277.65
298.95	331.48
299.408	310.41
299.866	275.31
300.324	315.09
300.781	277.65
301.239	354.88
301.697	284.67
302.154	322.12
302.612	329.14
303.069	357.22
303.527	249.56
303.984	368.93
304.441	322.12
304.899	336.16
305.356	340.84
305.813	282.33
306.27	336.16
306.727	289.35
307.184	263.6
307.641	261.26
308.098	345.52
308.555	291.69
309.012	301.05
309.468	279.99
309.925	268.28
310.382	361.91
310.838	345.52
311.295	345.52
311.751	324.46
312.208	277.65
312.664	315.09
313.12	319.78
313.577	240.2
314.033	272.96
314.489	301.05
314.945	301.05
315.401	331.48
315.857	282.33
316.313	322.12
316.769	326.8
317.225	350.2
317.681	303.39
318.136	275.31
318.592	275.31
319.048	343.18
319.503	284.67
319.959	326.8
320.414	270.62
320.869	312.75
321.325	366.59
321.78	265.94
322.235	347.86
322.691	254.24
323.146	317.44
323.601	275.31
324.056	251.9
324.511	340.84
324.966	317.44
325.421	357.22
325.875	256.58
326.33	254.24
326.785	308.07
327.24	310.41
327.694	340.84
328.149	270.62
328.603	312.75
329.058	324.46
329.512	322.12
329.966	279.99
330.421	301.05
330.875	265.94
331.329	277.65
331.783	298.71
332.237	310.41
332.691	256.58
333.145	317.44
333.599	244.88
334.053	315.09
334.507	354.88
334.96	336.16
335.414	305.73
335.868	284.67
336.321	296.37
336.775	287.01
337.228	310.41
337.682	366.59
338.135	303.39
338.588	263.6
339.042	324.46
339.495	289.35
339.948	242.54
340.401	336.16
340.854	275.31
341.307	272.96
341.76	315.09
342.213	338.5
342.666	333.82
343.119	340.84
343.571	340.84
344.024	315.09
344.477	303.39
344.929	333.82
345.382	322.12
345.834	345.52
346.287	263.6
346.739	284.67
347.191	291.69
347.644	336.16
348.096	352.54
348.548	322.12
349	270.62
349.452	308.07
349.904	277.65
350.356	301.05
350.808	308.07
351.26	277.65
351.711	357.22
352.163	282.33
352.615	289.35
353.066	324.46
353.518	291.69
353.969	303.39
354.421	359.56
354.872	371.27
355.324	352.54
355.775	289.35
356.226	298.71
356.677	387.65
357.128	380.63
357.579	380.63
358.03	277.65
358.481	282.33
358.932	294.03
359.383	282.33
359.834	277.65
360.285	315.09
360.735	359.56
361.186	284.67
361.637	322.12
362.087	287.01
362.538	291.69
362.988	308.07
363.438	303.39
363.889	261.26
364.339	371.27
364.789	279.99
365.239	296.37
365.689	308.07
366.139	366.59
366.589	352.54
367.039	301.05
367.489	375.95
367.939	343.18
368.389	326.8
368.839	268.28
369.288	345.52
369.738	270.62
370.187	352.54
370.637	319.78
371.086	371.27
371.536	287.01
371.985	343.18
372.434	272.96
372.884	336.16
373.333	296.37
373.782	305.73
374.231	235.52
374.68	345.52
375.129	301.05
375.578	347.86
376.027	343.18
376.475	256.58
376.924	361.91
377.373	265.94
377.822	303.39
378.27	305.73
378.719	336.16
379.167	291.69
379.616	359.56
380.064	340.84
380.512	305.73
380.961	357.22
381.409	397.01
381.857	279.99
382.305	308.07
382.753	329.14
383.201	406.38
383.649	326.8
384.097	315.09
384.545	301.05
384.992	336.16
385.44	322.12
385.888	263.6
386.335	394.67
386.783	345.52
387.231	324.46
387.678	275.31
388.125	322.12
388.573	336.16
389.02	263.6
389.467	324.46
389.914	373.61
390.362	373.61
390.809	347.86
391.256	303.39
391.703	319.78
392.15	361.91
392.596	319.78
393.043	326.8
393.49	359.56
393.937	279.99
394.383	254.24
394.83	331.48
395.276	305.73
395.723	294.03
396.169	324.46
396.616	308.07
397.062	270.62
397.508	263.6
397.954	279.99
398.401	263.6
398.847	329.14
399.293	352.54
399.739	256.58
400.185	240.2
400.631	326.8
401.076	326.8
401.522	343.18
401.968	326.8
402.414	319.78
402.859	352.54
403.305	324.46
403.75	352.54
404.196	380.63
404.641	350.2
405.086	347.86
405.532	394.67
405.977	277.65
406.422	385.31
406.867	242.54
407.312	317.44
407.757	378.29
408.202	361.91
408.647	331.48
409.092	319.78
409.537	301.05
409.982	308.07
410.426	310.41
410.871	326.8
411.316	294.03
411.76	322.12
412.205	287.01
412.649	322.12
413.093	235.52
413.538	364.25
413.982	322.12
414.426	324.46
414.87	373.61
415.314	382.97
415.758	277.65
416.202	397.01
416.646	333.82
417.09	347.86
417.534	404.03
417.978	404.03
418.421	298.71
418.865	357.22
419.309	317.44
419.752	336.16
420.196	331.48
420.639	305.73
421.083	345.52
421.526	404.03
421.969	319.78
422.412	350.2
422.856	338.5
423.299	357.22
423.742	359.56
424.185	354.88
424.628	331.48
425.071	308.07
425.513	350.2
425.956	289.35
426.399	347.86
426.842	364.25
427.284	394.67
427.727	336.16
428.169	380.63
428.612	303.39
429.054	343.18
429.497	368.93
429.939	450.85
430.381	338.5
430.823	312.75
431.265	404.03
431.707	467.23
432.149	382.97
432.591	425.1
433.033	387.65
433.475	397.01
433.917	380.63
434.359	450.85
434.8	523.4
435.242	476.59
435.684	532.76
436.125	483.61
436.567	439.14
437.008	446.16
437.449	418.08
437.891	404.03
438.332	478.93
438.773	460.21
439.214	521.06
439.656	507.02
440.097	476.59
440.538	481.27
440.978	481.27
441.419	483.61
441.86	495.32
442.301	525.74
442.742	467.23
443.182	523.4
443.623	474.25
444.063	460.21
444.504	476.59
444.944	535.1
445.385	474.25
445.825	450.85
446.265	537.45
446.706	488.29
447.146	490.63
447.586	511.7
448.026	514.04
448.466	485.95
448.906	495.32
449.346	490.63
449.786	549.15
450.225	539.79
450.665	488.29
451.105	544.47
451.544	523.4
451.984	507.02
452.424	460.21
452.863	471.91
453.302	457.87
453.742	408.72
454.181	434.46
454.62	485.95
455.059	392.33
455.499	511.7
455.938	432.12
456.377	429.78
456.816	366.59
457.254	455.53
457.693	418.08
458.132	485.95
458.571	413.4
459.01	420.42
459.448	404.03
459.887	385.31
460.325	478.93
460.764	448.51
461.202	422.76
461.641	462.55
462.079	397.01
462.517	448.51
462.955	502.34
463.393	382.97
463.832	434.46
464.27	397.01
464.708	357.22
465.145	408.72
465.583	380.63
466.021	462.55
466.459	448.51
466.897	364.25
467.334	347.86
467.772	418.08
468.209	382.97
468.647	404.03
469.084	352.54
469.522	434.46
469.959	408.72
470.396	408.72
470.833	434.46
471.271	385.31
471.708	411.06
472.145	371.27
472.582	371.27
473.019	457.87
473.456	298.71
473.892	371.27
474.329	343.18
474.766	427.44
475.202	399.35
475.639	450.85
476.076	338.5
476.512	357.22
476.949	347.86
477.385	394.67
477.821	359.56
478.258	359.56
478.694	368.93
479.13	364.25
479.566	439.14
480.002	359.56
480.438	359.56
480.874	420.42
481.31	375.95
481.746	408.72
482.181	345.52
482.617	359.56
483.053	422.76
483.488	350.2
483.924	394.67
484.36	375.95
484.795	397.01
485.23	439.14
485.666	448.51
486.101	392.33
486.536	387.65
486.971	434.46
487.407	422.76
487.842	450.85
488.277	497.66
488.712	439.14
489.146	411.06
489.581	434.46
490.016	420.42
490.451	471.91
490.885	404.03
491.32	399.35
491.755	359.56
492.189	413.4
492.624	392.33
493.058	467.23
493.492	413.4
493.927	406.38
494.361	415.74
494.795	427.44
495.229	446.16
495.663	373.61
496.097	448.51
496.531	411.06
496.965	455.53
497.399	375.95
497.833	375.95
498.266	455.53
498.7	361.91
499.134	441.48
499.567	397.01
500.001	448.51
500.434	394.67
500.868	357.22
501.301	415.74
501.734	406.38
502.168	394.67
502.601	411.06
503.034	387.65
503.467	382.97
503.9	392.33
504.333	420.42
504.766	343.18
505.199	392.33
505.632	478.93
506.064	460.21
506.497	375.95
506.93	436.8
507.362	408.72
507.795	453.19
508.227	364.25
508.66	397.01
509.092	399.35
509.524	375.95
509.956	443.82
510.389	422.76
510.821	382.97
511.253	310.41
511.685	471.91
512.117	373.61
512.549	415.74
512.981	464.89
513.412	434.46
513.844	382.97
514.276	516.38
514.707	378.29
515.139	389.99
515.571	439.14
516.002	427.44
516.433	392.33
516.865	448.51
517.296	450.85
517.727	460.21
518.159	455.53
518.59	455.53
519.021	427.44
519.452	350.2
519.883	485.95
520.314	464.89
520.744	432.12
521.175	394.67
521.606	387.65
522.037	413.4
522.467	380.63
522.898	382.97
523.328	448.51
523.759	411.06
524.189	387.65
524.62	469.57
525.05	418.08
525.48	399.35
525.91	422.76
526.341	434.46
526.771	457.87
527.201	380.63
527.631	413.4
528.061	401.69
528.49	401.69
528.92	455.53
529.35	450.85
529.78	481.27
530.209	469.57
530.639	418.08
531.068	418.08
531.498	481.27
531.927	495.32
532.357	429.78
532.786	483.61
533.215	394.67
533.644	485.95
534.074	399.35
534.503	385.31
534.932	464.89
535.361	434.46
535.79	446.16
536.218	516.38
536.647	429.78
537.076	422.76
537.505	481.27
537.933	469.57
538.362	448.51
538.79	427.44
539.219	504.68
539.647	514.04
540.076	523.4
540.504	539.79
540.932	581.92
541.36	666.17
541.788	600.64
542.217	661.49
542.645	708.3
543.073	734.05
543.5	687.24
543.928	752.77
544.356	675.54
544.784	680.22
545.211	776.18
545.639	748.09
546.067	710.65
546.494	607.66
546.922	628.73
547.349	605.32
547.776	502.34
548.204	558.51
548.631	502.34
549.058	490.63
549.485	488.29
549.912	478.93
550.339	567.87
550.766	549.15
551.193	495.32
551.62	476.59
552.047	504.68
552.474	450.85
552.9	483.61
553.327	464.89
553.754	441.48
554.18	464.89
554.607	364.25
555.033	446.16
555.459	441.48
555.886	434.46
556.312	455.53
556.738	460.21
557.164	450.85
557.59	485.95
558.016	462.55
558.442	464.89
558.868	420.42
559.294	439.14
559.72	408.72
560.145	420.42
560.571	408.72
560.997	385.31
561.422	366.59
561.848	418.08
562.273	394.67
562.699	413.4
563.124	350.2
563.549	425.1
563.974	385.31
564.4	467.23
564.825	429.78
565.25	411.06
565.675	453.19
566.1	406.38
566.525	432.12
566.95	441.48
567.374	422.76
567.799	467.23
568.224	425.1
568.648	485.95
569.073	471.91
569.497	462.55
569.922	404.03
570.346	373.61
570.771	436.8
571.195	378.29
571.619	397.01
572.043	425.1
572.467	389.99
572.891	432.12
573.315	425.1
573.739	429.78
574.163	467.23
574.587	389.99
575.011	345.52
575.435	382.97
575.858	464.89
576.282	478.93
576.705	441.48
577.129	455.53
577.552	422.76
577.976	408.72
578.399	457.87
578.822	443.82
579.245	436.8
579.669	401.69
580.092	436.8
580.515	450.85
580.938	401.69
581.361	539.79
581.784	436.8
582.206	432.12
582.629	453.19
583.052	469.57
583.474	483.61
583.897	455.53
584.32	434.46
584.742	518.72
585.165	462.55
585.587	418.08
586.009	446.16
586.431	434.46
586.854	490.63
587.276	457.87
587.698	432.12
588.12	441.48
588.542	453.19
588.964	481.27
589.386	483.61
589.807	411.06
590.229	434.46
590.651	368.93
591.073	382.97
591.494	343.18
591.916	427.44
592.337	420.42
592.759	345.52
593.18	380.63
593.601	432.12
594.022	436.8
594.444	389.99
594.865	380.63
595.286	380.63
595.707	378.29
596.128	464.89
596.549	432.12
596.97	375.95
597.39	404.03
597.811	382.97
598.232	413.4
598.652	401.69
599.073	420.42
599.494	406.38
599.914	361.91
600.334	387.65
600.755	408.72
601.175	371.27
601.595	406.38
602.015	394.67
602.436	415.74
602.856	483.61
603.276	404.03
603.696	425.1
604.115	364.25
604.535	453.19
604.955	436.8
605.375	368.93
605.794	411.06
606.214	394.67
606.634	354.88
607.053	389.99
607.473	406.38
607.892	446.16
608.311	312.75
608.731	375.95
609.15	450.85
609.569	551.49
609.988	642.77
610.407	687.24
610.826	780.86
611.245	804.27
611.664	839.37
612.083	689.58
612.501	668.52
612.92	659.15
613.339	591.28
613.757	591.28
614.176	549.15
614.594	485.95
615.013	485.95
615.431	495.32
615.85	457.87
616.268	450.85
616.686	432.12
617.104	441.48
617.522	464.89
617.94	450.85
618.358	420.42
618.776	439.14
619.194	411.06
619.612	366.59
620.03	420.42
620.447	394.67
620.865	455.53
621.282	427.44
621.7	382.97
622.117	380.63
622.535	420.42
622.952	385.31
623.369	361.91
623.787	380.63
624.204	408.72
624.621	375.95
625.038	378.29
625.455	352.54
625.872	361.91
626.289	399.35
626.706	439.14
627.123	378.29
627.539	371.27
627.956	366.59
628.373	399.35
628.789	408.72
629.206	331.48
629.622	408.72
630.038	401.69
630.455	375.95
630.871	408.72
631.287	387.65
631.703	404.03
632.12	380.63
632.536	378.29
632.952	347.86
633.368	298.71
633.783	401.69
634.199	343.18
634.615	397.01
635.031	373.61
635.446	380.63
635.862	301.05
636.277	436.8
636.693	350.2
637.108	361.91
637.524	399.35
637.939	284.67
638.354	301.05
638.77	322.12
639.185	394.67
639.6	329.14
640.015	397.01
640.43	382.97
640.845	322.12
641.259	359.56
641.674	397.01
642.089	350.2
642.504	319.78
642.918	326.8
643.333	270.62
643.747	326.8
644.162	340.84
644.576	275.31
644.991	347.86
645.405	338.5
645.819	315.09
646.233	392.33
646.647	397.01
647.061	397.01
647.475	289.35
647.889	315.09
648.303	357.22
648.717	294.03
649.131	331.48
649.545	315.09
649.958	329.14
650.372	284.67
650.785	308.07
651.199	340.84
651.612	385.31
652.026	345.52
652.439	345.52
652.852	333.82
653.266	457.87
653.679	382.97
654.092	343.18
654.505	366.59
654.918	343.18
655.331	389.99
655.744	366.59
656.156	399.35
656.569	378.29
656.982	333.82
657.394	329.14
657.807	354.88
658.22	389.99
658.632	289.35
659.044	375.95
659.457	265.94
659.869	366.59
660.281	357.22
660.693	385.31
661.106	350.2
661.518	373.61
661.93	298.71
662.342	350.2
662.754	368.93
663.165	350.2
663.577	380.63
663.989	263.6
664.401	312.75
664.812	359.56
665.224	294.03
665.635	315.09
666.047	345.52
666.458	345.52
666.869	345.52
667.281	265.94
667.692	305.73
668.103	343.18
668.514	305.73
668.925	333.82
669.336	378.29
669.747	347.86
670.158	347.86
670.569	333.82
670.979	324.46
671.39	322.12
671.801	373.61
672.211	354.88
672.622	380.63
673.032	366.59
673.443	331.48
673.853	352.54
674.263	338.5
674.674	352.54
675.084	336.16
675.494	345.52
675.904	357.22
676.314	308.07
676.724	329.14
677.134	366.59
677.544	371.27
677.953	359.56
678.363	371.27
678.773	326.8
679.182	336.16
679.592	389.99
680.001	373.61
680.411	338.5
680.82	272.96
681.23	338.5
681.639	296.37
682.048	315.09
682.457	354.88
682.866	322.12
683.275	294.03
683.684	324.46
684.093	329.14
684.502	343.18
684.911	298.71
685.32	312.75
685.728	333.82
686.137	340.84
686.546	301.05
686.954	338.5
687.363	289.35
687.771	338.5
688.179	308.07
688.588	331.48
688.996	368.93
689.404	343.18
689.812	336.16
690.22	324.46
690.628	326.8
691.036	270.62
691.444	333.82
691.852	287.01
692.26	343.18
692.667	291.69
693.075	310.41
693.483	361.91
693.89	357.22
694.298	375.95
694.705	303.39
695.112	336.16
695.52	338.5
695.927	336.16
696.334	345.52
696.741	303.39
697.148	296.37
697.555	279.99
697.962	347.86
698.369	385.31
698.776	289.35
699.183	315.09
699.59	319.78
699.996	312.75
700.403	378.29
700.81	319.78
701.216	329.14
701.623	308.07
702.029	336.16
702.435	350.2
702.842	387.65
703.248	284.67
703.654	352.54
704.06	343.18
704.466	322.12
704.872	308.07
705.278	247.22
705.684	394.67
706.09	310.41
706.496	340.84
706.901	310.41
707.307	326.8
707.712	294.03
708.118	392.33
708.523	340.84
708.929	382.97
709.334	380.63
709.74	425.1
710.145	338.5
710.55	326.8
710.955	352.54
711.36	310.41
711.765	392.33
712.17	336.16
712.575	371.27
712.98	914.27
713.385	350.2
713.789	291.69
714.194	333.82
714.599	291.69
715.003	287.01
715.408	340.84
715.812	322.12
716.217	380.63
716.621	275.31
717.025	343.18
717.429	392.33
717.833	364.25
718.238	291.69
718.642	359.56
719.046	389.99
719.449	291.69
719.853	333.82
720.257	312.75
720.661	340.84
721.065	319.78
721.468	279.99
721.872	375.95
722.275	364.25
722.679	317.44
723.082	312.75
723.485	319.78
723.889	308.07
724.292	296.37
724.695	310.41
725.098	387.65
725.501	275.31
725.904	287.01
726.307	319.78
726.71	289.35
727.113	298.71
727.516	317.44
727.918	319.78
728.321	359.56
728.724	324.46
729.126	277.65
729.529	329.14
729.931	382.97
730.333	345.52
730.736	291.69
731.138	371.27
731.54	294.03
731.942	366.59
732.344	305.73
732.746	303.39
733.148	305.73
733.55	303.39
733.952	364.25
734.354	296.37
734.756	336.16
735.157	301.05
735.559	251.9
735.96	338.5
736.362	343.18
736.763	305.73
737.165	289.35
737.566	329.14
737.967	326.8
738.368	329.14
738.77	291.69
739.171	254.24
739.572	265.94
739.973	347.86
740.374	326.8
740.774	303.39
741.175	359.56
741.576	340.84
741.977	317.44
742.377	343.18
742.778	270.62
743.178	368.93
743.579	345.52
743.979	315.09
744.379	291.69
744.78	296.37
745.18	308.07
745.58	301.05
745.98	296.37
746.38	326.8
746.78	272.96
747.18	324.46
747.58	284.67
747.98	315.09
748.38	347.86
748.779	378.29
749.179	287.01
749.578	387.65
749.978	291.69
750.377	373.61
750.777	279.99
751.176	352.54
751.575	317.44
751.975	326.8
752.374	329.14
752.773	319.78
753.172	319.78
753.571	319.78
753.97	301.05
754.369	378.29
754.768	331.48
755.166	322.12
755.565	331.48
755.964	294.03
756.362	279.99
756.761	345.52
757.159	336.16
757.558	368.93
757.956	312.75
758.354	394.67
758.753	338.5
759.151	301.05
759.549	326.8
759.947	261.26
760.345	359.56
760.743	350.2
761.141	308.07
761.539	324.46
761.936	277.65
762.334	303.39
762.732	340.84
763.129	282.33
763.527	329.14
763.924	329.14
764.322	303.39
