Data from Al_FLMS009871__386__12-35-40-221.txt Node

Date: Fri Mar 08 12:35:40 CST 2024
User: pe5414po
Spectrometer: FLMS00987
Trigger mode: 0
Integration Time (sec): 1.000000E-1
Scans to average: 1
Electric dark correction enabled: true
Nonlinearity correction enabled: false
Boxcar width: 0
XAxis mode: Wavelengths
Number of Pixels in Spectrum: 2048
>>>>>Begin Spectral Data<<<<<
188.938	-101.67
189.409	-101.67
189.879	-101.67
190.349	-73.58
190.819	-59.54
191.29	-111.03
191.76	-64.22
192.23	-92.3
192.7	-92.3
193.17	-75.92
193.64	-50.18
194.109	-12.73
194.579	38.77
195.049	29.4
195.519	48.13
195.988	-1.02
196.458	17.7
196.927	62.17
197.397	66.85
197.866	132.39
198.336	104.3
198.805	137.07
199.274	186.22
199.744	244.73
200.213	272.82
200.682	235.37
201.151	321.97
201.62	338.35
202.089	272.82
202.558	324.31
203.027	319.63
203.495	336.01
203.964	380.48
204.433	343.03
204.902	354.74
205.37	417.93
205.839	408.57
206.307	354.74
206.776	401.55
207.244	408.57
207.712	448.36
208.181	410.91
208.649	399.21
209.117	474.1
209.585	336.01
210.053	488.15
210.521	483.47
210.989	485.81
211.457	471.76
211.925	516.23
212.393	516.23
212.861	607.52
213.328	488.15
213.796	513.89
214.264	488.15
214.731	511.55
215.199	525.6
215.666	516.23
216.133	544.32
216.601	534.96
217.068	574.75
217.535	553.68
218.003	497.51
218.47	563.05
218.937	572.41
219.404	677.73
219.871	666.03
220.338	651.99
220.805	712.84
221.271	591.13
221.738	621.56
222.205	680.07
222.671	701.14
223.138	680.07
223.605	797.1
224.071	897.74
224.538	841.57
225.004	614.54
225.47	541.98
225.937	637.94
226.403	586.45
226.869	684.75
227.335	668.37
227.801	694.12
228.267	731.56
228.733	640.28
229.199	619.22
229.665	687.09
230.131	722.2
230.597	914.13
231.062	1005.41
231.528	890.72
231.994	879.02
232.459	886.04
232.925	776.03
233.39	757.31
233.856	680.07
234.321	609.86
234.786	733.9
235.252	726.88
235.717	750.29
236.182	785.4
236.647	731.56
237.112	738.59
237.577	761.99
238.042	839.23
238.507	778.37
238.972	750.29
239.436	759.65
239.901	846.25
240.366	902.42
240.83	1017.11
241.295	909.44
241.76	769.01
242.224	808.8
242.688	879.02
243.153	850.93
243.617	890.72
244.081	806.46
244.545	757.31
245.01	726.88
245.474	609.86
245.938	656.67
246.402	745.61
246.866	745.61
247.33	813.48
247.793	773.69
248.257	764.33
248.721	663.69
249.185	677.73
249.648	736.24
250.112	696.46
250.575	705.82
251.039	708.16
251.502	724.54
251.965	724.54
252.429	691.77
252.892	719.86
253.355	738.59
253.818	696.46
254.281	673.05
254.744	609.86
255.207	633.26
255.67	722.2
256.133	766.67
256.596	675.39
257.059	661.35
257.522	719.86
257.984	675.39
258.447	722.2
258.909	684.75
259.372	757.31
259.834	759.65
260.297	708.16
260.759	731.56
261.221	740.93
261.684	656.67
262.146	591.13
262.608	659.01
263.07	595.81
263.532	586.45
263.994	633.26
264.456	684.75
264.918	644.96
265.38	654.33
265.842	729.22
266.303	579.43
266.765	605.17
267.227	651.99
267.688	609.86
268.15	600.49
268.611	595.81
269.072	607.52
269.534	607.52
269.995	572.41
270.456	567.73
270.918	607.52
271.379	656.67
271.84	642.62
272.301	600.49
272.762	621.56
273.223	670.71
273.684	577.09
274.144	691.77
274.605	661.35
275.066	640.28
275.527	705.82
275.987	663.69
276.448	656.67
276.908	612.2
277.369	640.28
277.829	710.5
278.289	726.88
278.75	778.37
279.21	822.84
279.67	869.66
280.13	886.04
280.59	733.9
281.05	703.48
281.51	666.03
281.97	619.22
282.43	729.22
282.89	733.9
283.35	759.65
283.809	680.07
284.269	661.35
284.729	581.77
285.188	663.69
285.648	586.45
286.107	668.37
286.567	733.9
287.026	675.39
287.485	680.07
287.944	570.07
288.404	598.15
288.863	602.83
289.322	488.15
289.781	574.75
290.24	567.73
290.699	595.81
291.158	607.52
291.616	539.64
292.075	593.47
292.534	626.24
292.992	687.09
293.451	609.86
293.91	705.82
294.368	738.59
294.827	637.94
295.285	640.28
295.743	534.96
296.202	546.66
296.66	549
297.118	549
297.576	541.98
298.034	530.28
298.492	532.62
298.95	532.62
299.408	523.26
299.866	549
300.324	541.98
300.781	520.92
301.239	595.81
301.697	581.77
302.154	570.07
302.612	591.13
303.069	551.34
303.527	565.39
303.984	633.26
304.441	614.54
304.899	544.32
305.356	600.49
305.813	588.79
306.27	724.54
306.727	757.31
307.184	736.24
307.641	773.69
308.098	731.56
308.555	761.99
309.012	787.74
309.468	780.71
309.925	715.18
310.382	675.39
310.838	659.01
311.295	619.22
311.751	579.43
312.208	593.47
312.664	595.81
313.12	588.79
313.577	567.73
314.033	623.9
314.489	584.11
314.945	584.11
315.401	614.54
315.857	574.75
316.313	640.28
316.769	635.6
317.225	602.83
317.681	570.07
318.136	598.15
318.592	682.41
319.048	633.26
319.503	649.64
319.959	600.49
320.414	563.05
320.869	563.05
321.325	630.92
321.78	691.77
322.235	694.12
322.691	708.16
323.146	787.74
323.601	916.47
324.056	853.27
324.511	857.95
324.966	691.77
325.421	750.29
325.875	750.29
326.33	684.75
326.785	715.18
327.24	834.55
327.694	1110.73
328.149	1031.15
328.603	886.04
329.058	724.54
329.512	605.17
329.966	626.24
330.421	651.99
330.875	621.56
331.329	518.57
331.783	513.89
332.237	656.67
332.691	710.5
333.145	701.14
333.599	729.22
334.053	811.14
334.507	848.59
334.96	881.36
335.414	881.36
335.868	811.14
336.321	719.86
336.775	799.44
337.228	815.82
337.682	857.95
338.135	902.42
338.588	914.13
339.042	804.12
339.495	642.62
339.948	602.83
340.401	588.79
340.854	588.79
341.307	558.36
341.76	518.57
342.213	574.75
342.666	558.36
343.119	553.68
343.571	570.07
344.024	556.02
344.477	556.02
344.929	654.33
345.382	558.36
345.834	591.13
346.287	541.98
346.739	537.3
347.191	549
347.644	584.11
348.096	544.32
348.548	567.73
349	574.75
349.452	598.15
349.904	579.43
350.356	553.68
350.808	546.66
351.26	588.79
351.711	642.62
352.163	558.36
352.615	600.49
353.066	499.85
353.518	549
353.969	513.89
354.421	509.21
354.872	506.87
355.324	560.7
355.775	565.39
356.226	544.32
356.677	560.7
357.128	586.45
357.579	651.99
358.03	602.83
358.481	563.05
358.932	600.49
359.383	551.34
359.834	574.75
360.285	556.02
360.735	530.28
361.186	525.6
361.637	558.36
362.087	588.79
362.538	504.53
362.988	588.79
363.438	637.94
363.889	691.77
364.339	628.58
364.789	567.73
365.239	581.77
365.689	581.77
366.139	478.79
366.589	506.87
367.039	504.53
367.489	614.54
367.939	670.71
368.389	698.8
368.839	736.24
369.288	623.9
369.738	621.56
370.187	556.02
370.637	565.39
371.086	537.3
371.536	560.7
371.985	584.11
372.434	551.34
372.884	630.92
373.333	579.43
373.782	647.3
374.231	626.24
374.68	623.9
375.129	644.96
375.578	637.94
376.027	614.54
376.475	712.84
376.924	598.15
377.373	539.64
377.822	577.09
378.27	527.94
378.719	563.05
379.167	572.41
379.616	588.79
380.064	588.79
380.512	541.98
380.961	516.23
381.409	567.73
381.857	553.68
382.305	530.28
382.753	577.09
383.201	651.99
383.649	635.6
384.097	595.81
384.545	640.28
384.992	635.6
385.44	607.52
385.888	684.75
386.335	579.43
386.783	616.88
387.231	600.49
387.678	661.35
388.125	549
388.573	577.09
389.02	558.36
389.467	567.73
389.914	607.52
390.362	626.24
390.809	673.05
391.256	649.64
391.703	579.43
392.15	623.9
392.596	619.22
393.043	708.16
393.49	808.8
393.937	787.74
394.383	747.95
394.83	750.29
395.276	733.9
395.723	668.37
396.169	740.93
396.616	843.91
397.062	740.93
397.508	724.54
397.954	659.01
398.401	661.35
398.847	637.94
399.293	656.67
399.739	659.01
400.185	621.56
400.631	621.56
401.076	577.09
401.522	553.68
401.968	565.39
402.414	546.66
402.859	640.28
403.305	710.5
403.75	722.2
404.196	630.92
404.641	640.28
405.086	677.73
405.532	633.26
405.977	703.48
406.422	790.08
406.867	724.54
407.312	696.46
407.757	556.02
408.202	567.73
408.647	574.75
409.092	574.75
409.537	598.15
409.982	527.94
410.426	593.47
410.871	579.43
411.316	612.2
411.76	619.22
412.205	598.15
412.649	612.2
413.093	605.17
413.538	612.2
413.982	600.49
414.426	558.36
414.87	565.39
415.314	588.79
415.758	509.21
416.202	656.67
416.646	682.41
417.09	715.18
417.534	778.37
417.978	738.59
418.421	637.94
418.865	591.13
419.309	602.83
419.752	544.32
420.196	600.49
420.639	581.77
421.083	572.41
421.526	556.02
421.969	591.13
422.412	591.13
422.856	698.8
423.299	717.52
423.742	668.37
424.185	581.77
424.628	581.77
425.071	682.41
425.513	607.52
425.956	537.3
426.399	591.13
426.842	553.68
427.284	591.13
427.727	637.94
428.169	612.2
428.612	675.39
429.054	698.8
429.497	731.56
429.939	759.65
430.381	808.8
430.823	890.72
431.265	677.73
431.707	694.12
432.149	656.67
432.591	691.77
433.033	530.28
433.475	640.28
433.917	680.07
434.359	642.62
434.8	745.61
435.242	691.77
435.684	724.54
436.125	654.33
436.567	654.33
437.008	677.73
437.449	619.22
437.891	668.37
438.332	694.12
438.773	792.42
439.214	715.18
439.656	778.37
440.097	719.86
440.538	684.75
440.978	668.37
441.419	705.82
441.86	703.48
442.301	745.61
442.742	754.97
443.182	705.82
443.623	790.08
444.063	778.37
444.504	719.86
444.944	743.27
445.385	850.93
445.825	827.53
446.265	769.01
446.706	834.55
447.146	663.69
447.586	764.33
448.026	827.53
448.466	783.06
448.906	778.37
449.346	731.56
449.786	761.99
450.225	696.46
450.665	733.9
451.105	651.99
451.544	815.82
451.984	747.95
452.424	644.96
452.863	752.63
453.302	766.67
453.742	820.5
454.181	848.59
454.62	787.74
455.059	663.69
455.499	698.8
455.938	705.82
456.377	710.5
456.816	661.35
457.254	623.9
457.693	602.83
458.132	602.83
458.571	698.8
459.01	659.01
459.448	588.79
459.887	649.64
460.325	584.11
460.764	607.52
461.202	630.92
461.641	661.35
462.079	687.09
462.517	715.18
462.955	637.94
463.393	705.82
463.832	673.05
464.27	635.6
464.708	630.92
465.145	675.39
465.583	602.83
466.021	647.3
466.459	656.67
466.897	607.52
467.334	623.9
467.772	682.41
468.209	675.39
468.647	684.75
469.084	614.54
469.522	701.14
469.959	628.58
470.396	656.67
470.833	600.49
471.271	616.88
471.708	605.17
472.145	684.75
472.582	717.52
473.019	712.84
473.456	605.17
473.892	691.77
474.329	666.03
474.766	673.05
475.202	717.52
475.639	668.37
476.076	637.94
476.512	754.97
476.949	670.71
477.385	682.41
477.821	663.69
478.258	670.71
478.694	659.01
479.13	701.14
479.566	740.93
480.002	754.97
480.438	738.59
480.874	710.5
481.31	698.8
481.746	797.1
482.181	752.63
482.617	764.33
483.053	745.61
483.488	724.54
483.924	740.93
484.36	705.82
484.795	771.35
485.23	846.25
485.666	757.31
486.101	806.46
486.536	766.67
486.971	813.48
487.407	799.44
487.842	750.29
488.277	820.5
488.712	778.37
489.146	792.42
489.581	813.48
490.016	750.29
490.451	691.77
490.885	787.74
491.32	813.48
491.755	736.24
492.189	769.01
492.624	811.14
493.058	862.63
493.492	754.97
493.927	757.31
494.361	797.1
494.795	705.82
495.229	717.52
495.663	752.63
496.097	773.69
496.531	862.63
496.965	771.35
497.399	850.93
497.833	864.97
498.266	874.34
498.7	904.76
499.134	1014.77
499.567	965.62
500.001	1052.22
500.434	982
500.868	1028.81
501.301	1033.49
501.734	984.34
502.168	1089.67
502.601	1035.83
503.034	1045.2
503.467	921.15
503.9	956.26
504.333	1075.62
504.766	1070.94
505.199	1407.98
505.632	1787.15
506.064	1756.72
506.497	1396.28
506.93	1295.63
507.362	1801.19
507.795	1649.05
508.227	1248.82
508.66	974.98
509.092	949.23
509.524	1000.73
509.956	1017.11
510.389	850.93
510.821	984.34
511.253	982
511.685	923.49
512.117	1028.81
512.549	970.3
512.981	1012.43
513.412	998.38
513.844	1005.41
514.276	1021.79
514.707	1024.13
515.139	1049.88
515.571	1234.78
516.002	1070.94
516.433	1138.82
516.865	1131.8
517.296	1190.31
517.727	1237.12
518.159	1473.51
518.59	1342.44
519.021	1382.23
519.452	1400.96
519.883	1532.03
520.314	1627.99
520.744	1707.57
521.175	1791.83
521.606	1908.85
522.037	1950.98
522.467	2299.72
522.898	2194.4
523.328	2105.46
523.759	2163.97
524.189	2292.7
524.62	2484.62
525.05	2723.36
525.48	3240.62
525.91	3235.94
526.341	3596.38
526.771	3785.96
527.201	4518.55
527.631	5361.14
528.061	5752.01
528.49	6728.02
528.92	8190.85
529.35	11242.91
529.78	21677.02
530.209	63088.12
530.639	63088.12
531.068	63088.12
531.498	63088.12
531.927	63088.12
532.357	63088.12
532.786	63088.12
533.215	63088.12
533.644	63088.12
534.074	63088.12
534.503	63088.12
534.932	35378.51
535.361	17665.34
535.79	10643.73
536.218	7718.06
536.647	6058.62
537.076	5379.87
537.505	4663.66
537.933	3924.05
538.362	3205.51
538.79	2824
539.219	2395.68
539.647	1976.73
540.076	1826.93
540.504	1604.58
540.932	1637.35
541.36	1770.76
541.788	1578.84
542.217	1475.85
542.645	1698.2
543.073	1705.23
543.5	1742.68
543.928	1501.6
544.356	1333.08
544.784	1436.06
545.211	1527.35
545.639	1419.68
546.067	1300.31
546.494	1370.53
546.922	1202.01
547.349	1368.19
547.776	1272.23
548.204	1073.28
548.631	1000.73
549.058	1061.58
549.485	1026.47
549.912	1054.56
550.339	953.91
550.766	928.17
551.193	888.38
551.62	977.32
552.047	1014.77
552.474	923.49
552.9	857.95
553.327	890.72
553.754	855.61
554.18	780.71
554.607	846.25
555.033	860.29
555.459	848.59
555.886	818.16
556.312	776.03
556.738	719.86
557.164	783.06
557.59	719.86
558.016	832.21
558.442	792.42
558.868	778.37
559.294	799.44
559.72	829.87
560.145	811.14
560.571	799.44
560.997	792.42
561.422	743.27
561.848	733.9
562.273	710.5
562.699	687.09
563.124	785.4
563.549	757.31
563.974	771.35
564.4	764.33
564.825	682.41
565.25	740.93
565.675	731.56
566.1	715.18
566.525	719.86
566.95	759.65
567.374	666.03
567.799	694.12
568.224	710.5
568.648	698.8
569.073	694.12
569.497	754.97
569.922	694.12
570.346	684.75
570.771	682.41
571.195	712.84
571.619	696.46
572.043	600.49
572.467	689.43
572.891	666.03
573.315	666.03
573.739	677.73
574.163	712.84
574.587	659.01
575.011	651.99
575.435	633.26
575.858	644.96
576.282	722.2
576.705	649.64
577.129	654.33
577.552	626.24
577.976	680.07
578.399	647.3
578.822	640.28
579.245	642.62
579.669	637.94
580.092	687.09
580.515	628.58
580.938	715.18
581.361	616.88
581.784	633.26
582.206	659.01
582.629	609.86
583.052	654.33
583.474	600.49
583.897	612.2
584.32	663.69
584.742	623.9
585.165	614.54
585.587	549
586.009	626.24
586.431	637.94
586.854	626.24
587.276	701.14
587.698	691.77
588.12	670.71
588.542	637.94
588.964	778.37
589.386	843.91
589.807	867.31
590.229	836.89
590.651	857.95
591.073	661.35
591.494	666.03
591.916	719.86
592.337	677.73
592.759	724.54
593.18	677.73
593.601	750.29
594.022	698.8
594.444	785.4
594.865	621.56
595.286	640.28
595.707	586.45
596.128	640.28
596.549	628.58
596.97	626.24
597.39	640.28
597.811	551.34
598.232	598.15
598.652	558.36
599.073	577.09
599.494	565.39
599.914	614.54
600.334	525.6
600.755	574.75
601.175	593.47
601.595	626.24
602.015	593.47
602.436	483.47
602.856	696.46
603.276	616.88
603.696	558.36
604.115	584.11
604.535	616.88
604.955	565.39
605.375	609.86
605.794	546.66
606.214	518.57
606.634	534.96
607.053	570.07
607.473	619.22
607.892	588.79
608.311	602.83
608.731	642.62
609.15	666.03
609.569	680.07
609.988	825.19
610.407	879.02
610.826	907.1
611.245	1021.79
611.664	897.74
612.083	829.87
612.501	867.31
612.92	900.08
613.339	778.37
613.757	731.56
614.176	710.5
614.594	659.01
615.013	745.61
615.431	722.2
615.85	759.65
616.268	670.71
616.686	705.82
617.104	701.14
617.522	783.06
617.94	783.06
618.358	860.29
618.776	850.93
619.194	820.5
619.612	822.84
620.03	790.08
620.447	787.74
620.865	787.74
621.282	771.35
621.7	773.69
622.117	738.59
622.535	642.62
622.952	605.17
623.369	570.07
623.787	537.3
624.204	530.28
624.621	541.98
625.038	509.21
625.455	506.87
625.872	499.85
626.289	579.43
626.706	591.13
627.123	523.26
627.539	525.6
627.956	499.85
628.373	544.32
628.789	497.51
629.206	483.47
629.622	511.55
630.038	598.15
630.455	478.79
630.871	577.09
631.287	513.89
631.703	495.17
632.12	488.15
632.536	506.87
632.952	598.15
633.368	478.79
633.783	534.96
634.199	460.06
634.615	474.1
635.031	539.64
635.446	474.1
635.862	460.06
636.277	417.93
636.693	448.36
637.108	490.49
637.524	495.17
637.939	469.42
638.354	504.53
638.77	474.1
639.185	457.72
639.6	446.02
640.015	413.25
640.43	460.06
640.845	485.81
641.259	389.85
641.674	429.63
642.089	469.42
642.504	516.23
642.918	422.61
643.333	485.81
643.747	417.93
644.162	483.47
644.576	530.28
644.991	502.19
645.405	450.7
645.819	424.95
646.233	453.04
646.647	471.76
647.061	448.36
647.475	483.47
647.889	443.68
648.303	457.72
648.717	424.95
649.131	492.83
649.545	439
649.958	537.3
650.372	427.29
650.785	495.17
651.199	485.81
651.612	474.1
652.026	476.45
652.439	467.08
652.852	455.38
653.266	399.21
653.679	424.95
654.092	506.87
654.505	474.1
654.918	495.17
655.331	523.26
655.744	499.85
656.156	492.83
656.569	513.89
656.982	525.6
657.394	591.13
657.807	495.17
658.22	467.08
658.632	497.51
659.044	525.6
659.457	460.06
659.869	544.32
660.281	511.55
660.693	506.87
661.106	478.79
661.518	403.89
661.93	469.42
662.342	434.32
662.754	474.1
663.165	520.92
663.577	516.23
663.989	502.19
664.401	448.36
664.812	392.19
665.224	481.13
665.635	431.98
666.047	443.68
666.458	436.66
666.869	413.25
667.281	448.36
667.692	469.42
668.103	364.1
668.514	429.63
668.925	385.16
669.336	380.48
669.747	394.53
670.158	403.89
670.569	464.74
670.979	441.34
671.39	396.87
671.801	417.93
672.211	361.76
672.622	387.5
673.032	450.7
673.443	424.95
673.853	392.19
674.263	382.82
674.674	364.1
675.084	408.57
675.494	364.1
675.904	347.72
676.314	417.93
676.724	417.93
677.134	401.55
677.544	366.44
677.953	347.72
678.363	359.42
678.773	448.36
679.182	413.25
679.592	394.53
680.001	431.98
680.411	406.23
680.82	441.34
681.23	389.85
681.639	422.61
682.048	389.85
682.457	429.63
682.866	427.29
683.275	345.38
683.684	417.93
684.093	387.5
684.502	431.98
684.911	439
685.32	366.44
685.728	340.69
686.137	429.63
686.546	436.66
686.954	455.38
687.363	380.48
687.771	364.1
688.179	394.53
688.588	443.68
688.996	392.19
689.404	378.14
689.812	413.25
690.22	352.4
690.628	387.5
691.036	380.48
691.444	387.5
691.852	380.48
692.26	340.69
692.667	350.06
693.075	298.56
693.483	401.55
693.89	321.97
694.298	406.23
694.705	284.52
695.112	375.8
695.52	389.85
695.927	326.65
696.334	490.49
696.741	293.88
697.148	333.67
697.555	410.91
697.962	347.72
698.369	387.5
698.776	331.33
699.183	350.06
699.59	300.91
699.996	361.76
700.403	401.55
700.81	373.46
701.216	373.46
701.623	338.35
702.029	396.87
702.435	371.12
702.842	441.34
703.248	399.21
703.654	380.48
704.06	321.97
704.466	382.82
704.872	352.4
705.278	331.33
705.684	364.1
706.09	350.06
706.496	427.29
706.901	378.14
707.307	410.91
707.712	380.48
708.118	378.14
708.523	359.42
708.929	401.55
709.334	352.4
709.74	373.46
710.145	293.88
710.55	410.91
710.955	427.29
711.36	387.5
711.765	385.16
712.17	354.74
712.575	319.63
712.98	883.7
713.385	406.23
713.789	385.16
714.194	431.98
714.599	375.8
715.003	373.46
715.408	392.19
715.812	314.95
716.217	314.95
716.621	338.35
717.025	357.08
717.429	343.03
717.833	359.42
718.238	336.01
718.642	361.76
719.046	333.67
719.449	387.5
719.853	387.5
720.257	319.63
720.661	420.27
721.065	237.71
721.468	350.06
721.872	340.69
722.275	296.22
722.679	272.82
723.082	293.88
723.485	368.78
723.889	345.38
724.292	242.39
724.695	314.95
725.098	303.25
725.501	420.27
725.904	314.95
726.307	310.27
726.71	350.06
727.113	373.46
727.516	319.63
727.918	364.1
728.321	296.22
728.724	410.91
729.126	352.4
729.529	436.66
729.931	375.8
730.333	303.25
730.736	314.95
731.138	345.38
731.54	340.69
731.942	319.63
732.344	336.01
732.746	289.2
733.148	343.03
733.55	354.74
733.952	343.03
734.354	300.91
734.756	310.27
735.157	415.59
735.559	352.4
735.96	321.97
736.362	347.72
736.763	343.03
737.165	293.88
737.566	279.84
737.967	293.88
738.368	385.16
738.77	298.56
739.171	317.29
739.572	347.72
739.973	317.29
740.374	357.08
740.774	333.67
741.175	319.63
741.576	324.31
741.977	352.4
742.377	338.35
742.778	331.33
743.178	324.31
743.579	307.93
743.979	336.01
744.379	333.67
744.78	387.5
745.18	368.78
745.58	328.99
745.98	328.99
746.38	279.84
746.78	345.38
747.18	265.8
747.58	282.18
747.98	296.22
748.38	328.99
748.779	282.18
749.179	354.74
749.578	333.67
749.978	336.01
750.377	333.67
750.777	282.18
751.176	282.18
751.575	326.65
751.975	357.08
752.374	307.93
752.773	324.31
753.172	385.16
753.571	408.57
753.97	296.22
754.369	286.86
754.768	331.33
755.166	343.03
755.565	364.1
755.964	275.16
756.362	336.01
756.761	340.69
757.159	247.07
757.558	310.27
757.956	331.33
758.354	333.67
758.753	354.74
759.151	359.42
759.549	343.03
759.947	354.74
760.345	340.69
760.743	300.91
761.141	298.56
761.539	350.06
761.936	282.18
762.334	256.43
