Data from Al_FLMS009871__380__12-35-39-621.txt Node

Date: Fri Mar 08 12:35:39 CST 2024
User: pe5414po
Spectrometer: FLMS00987
Trigger mode: 0
Integration Time (sec): 1.000000E-1
Scans to average: 1
Electric dark correction enabled: true
Nonlinearity correction enabled: false
Boxcar width: 0
XAxis mode: Wavelengths
Number of Pixels in Spectrum: 2048
>>>>>Begin Spectral Data<<<<<
188.938	-122.73
189.409	-122.73
189.879	-122.73
190.349	-80.6
190.819	-57.2
191.29	-82.94
191.76	-80.6
192.23	-89.96
192.7	-71.24
193.17	-87.62
193.64	-75.92
194.109	-75.92
194.579	-29.11
195.049	13.02
195.519	108.98
195.988	1.32
196.458	52.81
196.927	99.62
197.397	106.64
197.866	66.85
198.336	144.09
198.805	226.01
199.274	263.46
199.744	209.62
200.213	228.35
200.682	186.22
201.151	223.67
201.62	237.71
202.089	247.07
202.558	261.12
203.027	282.18
203.495	305.59
203.964	289.2
204.433	354.74
204.902	282.18
205.37	289.2
205.839	328.99
206.307	343.03
206.776	352.4
207.244	368.78
207.712	300.91
208.181	298.56
208.649	343.03
209.117	319.63
209.585	350.06
210.053	331.33
210.521	347.72
210.989	324.31
211.457	317.29
211.925	350.06
212.393	298.56
212.861	331.33
213.328	338.35
213.796	296.22
214.264	256.43
214.731	305.59
215.199	336.01
215.666	303.25
216.133	296.22
216.601	251.75
217.068	347.72
217.535	282.18
218.003	289.2
218.47	366.44
218.937	268.14
219.404	368.78
219.871	345.38
220.338	277.5
220.805	284.52
221.271	305.59
221.738	307.93
222.205	310.27
222.671	338.35
223.138	298.56
223.605	263.46
224.071	282.18
224.538	321.97
225.004	279.84
225.47	319.63
225.937	275.16
226.403	359.42
226.869	303.25
227.335	263.46
227.801	317.29
228.267	303.25
228.733	331.33
229.199	317.29
229.665	307.93
230.131	296.22
230.597	265.8
231.062	293.88
231.528	347.72
231.994	254.09
232.459	263.46
232.925	307.93
233.39	321.97
233.856	275.16
234.321	237.71
234.786	298.56
235.252	277.5
235.717	256.43
236.182	303.25
236.647	307.93
237.112	328.99
237.577	282.18
238.042	317.29
238.507	293.88
238.972	291.54
239.436	293.88
239.901	307.93
240.366	371.12
240.83	401.55
241.295	298.56
241.76	326.65
242.224	282.18
242.688	310.27
243.153	296.22
243.617	291.54
244.081	300.91
244.545	326.65
245.01	326.65
245.474	277.5
245.938	331.33
246.402	307.93
246.866	310.27
247.33	338.35
247.793	300.91
248.257	293.88
248.721	282.18
249.185	331.33
249.648	317.29
250.112	326.65
250.575	307.93
251.039	336.01
251.502	340.69
251.965	328.99
252.429	380.48
252.892	361.76
253.355	413.25
253.818	303.25
254.281	396.87
254.744	282.18
255.207	324.31
255.67	242.39
256.133	307.93
256.596	321.97
257.059	307.93
257.522	244.73
257.984	324.31
258.447	310.27
258.909	350.06
259.372	291.54
259.834	307.93
260.297	268.14
260.759	326.65
261.221	293.88
261.684	317.29
262.146	296.22
262.608	319.63
263.07	343.03
263.532	293.88
263.994	361.76
264.456	371.12
264.918	275.16
265.38	296.22
265.842	279.84
266.303	277.5
266.765	343.03
267.227	359.42
267.688	352.4
268.15	314.95
268.611	314.95
269.072	319.63
269.534	345.38
269.995	249.41
270.456	324.31
270.918	314.95
271.379	317.29
271.84	319.63
272.301	366.44
272.762	272.82
273.223	338.35
273.684	314.95
274.144	326.65
274.605	321.97
275.066	387.5
275.527	284.52
275.987	328.99
276.448	361.76
276.908	256.43
277.369	336.01
277.829	312.61
278.289	293.88
278.75	343.03
279.21	364.1
279.67	282.18
280.13	350.06
280.59	336.01
281.05	291.54
281.51	263.46
281.97	336.01
282.43	279.84
282.89	343.03
283.35	331.33
283.809	251.75
284.269	333.67
284.729	385.16
285.188	389.85
285.648	392.19
286.107	282.18
286.567	399.21
287.026	359.42
287.485	399.21
287.944	371.12
288.404	350.06
288.863	300.91
289.322	307.93
289.781	310.27
290.24	389.85
290.699	303.25
291.158	303.25
291.616	310.27
292.075	321.97
292.534	286.86
292.992	298.56
293.451	326.65
293.91	340.69
294.368	275.16
294.827	272.82
295.285	338.35
295.743	272.82
296.202	368.78
296.66	331.33
297.118	354.74
297.576	298.56
298.034	350.06
298.492	368.78
298.95	373.46
299.408	357.08
299.866	300.91
300.324	289.2
300.781	373.46
301.239	328.99
301.697	410.91
302.154	303.25
302.612	361.76
303.069	333.67
303.527	326.65
303.984	352.4
304.441	261.12
304.899	314.95
305.356	319.63
305.813	319.63
306.27	263.46
306.727	291.54
307.184	333.67
307.641	279.84
308.098	331.33
308.555	261.12
309.012	331.33
309.468	375.8
309.925	328.99
310.382	321.97
310.838	333.67
311.295	331.33
311.751	340.69
312.208	279.84
312.664	289.2
313.12	347.72
313.577	326.65
314.033	350.06
314.489	300.91
314.945	310.27
315.401	345.38
315.857	268.14
316.313	251.75
316.769	378.14
317.225	307.93
317.681	324.31
318.136	310.27
318.592	357.08
319.048	317.29
319.503	347.72
319.959	258.78
320.414	265.8
320.869	289.2
321.325	338.35
321.78	340.69
322.235	319.63
322.691	336.01
323.146	375.8
323.601	350.06
324.056	336.01
324.511	331.33
324.966	343.03
325.421	326.65
325.875	326.65
326.33	333.67
326.785	326.65
327.24	310.27
327.694	347.72
328.149	319.63
328.603	371.12
329.058	263.46
329.512	331.33
329.966	392.19
330.421	373.46
330.875	324.31
331.329	326.65
331.783	331.33
332.237	389.85
332.691	361.76
333.145	319.63
333.599	319.63
334.053	387.5
334.507	431.98
334.96	314.95
335.414	303.25
335.868	354.74
336.321	312.61
336.775	321.97
337.228	371.12
337.682	270.48
338.135	343.03
338.588	279.84
339.042	368.78
339.495	319.63
339.948	375.8
340.401	333.67
340.854	352.4
341.307	368.78
341.76	373.46
342.213	368.78
342.666	357.08
343.119	347.72
343.571	364.1
344.024	305.59
344.477	331.33
344.929	354.74
345.382	340.69
345.834	389.85
346.287	296.22
346.739	331.33
347.191	347.72
347.644	326.65
348.096	324.31
348.548	385.16
349	345.38
349.452	373.46
349.904	314.95
350.356	286.86
350.808	326.65
351.26	226.01
351.711	347.72
352.163	333.67
352.615	357.08
353.066	343.03
353.518	307.93
353.969	307.93
354.421	328.99
354.872	368.78
355.324	371.12
355.775	352.4
356.226	319.63
356.677	424.95
357.128	373.46
357.579	319.63
358.03	352.4
358.481	387.5
358.932	340.69
359.383	319.63
359.834	289.2
360.285	347.72
360.735	368.78
361.186	336.01
361.637	345.38
362.087	357.08
362.538	350.06
362.988	373.46
363.438	366.44
363.889	371.12
364.339	307.93
364.789	279.84
365.239	385.16
365.689	317.29
366.139	291.54
366.589	343.03
367.039	375.8
367.489	303.25
367.939	343.03
368.389	354.74
368.839	282.18
369.288	326.65
369.738	392.19
370.187	347.72
370.637	366.44
371.086	312.61
371.536	286.86
371.985	338.35
372.434	298.56
372.884	350.06
373.333	340.69
373.782	408.57
374.231	387.5
374.68	343.03
375.129	345.38
375.578	368.78
376.027	305.59
376.475	326.65
376.924	361.76
377.373	366.44
377.822	340.69
378.27	314.95
378.719	310.27
379.167	300.91
379.616	312.61
380.064	265.8
380.512	361.76
380.961	382.82
381.409	326.65
381.857	275.16
382.305	326.65
382.753	324.31
383.201	300.91
383.649	328.99
384.097	368.78
384.545	408.57
384.992	319.63
385.44	331.33
385.888	331.33
386.335	331.33
386.783	286.86
387.231	354.74
387.678	345.38
388.125	321.97
388.573	350.06
389.02	357.08
389.467	305.59
389.914	282.18
390.362	401.55
390.809	392.19
391.256	289.2
391.703	352.4
392.15	368.78
392.596	357.08
393.043	385.16
393.49	343.03
393.937	324.31
394.383	364.1
394.83	331.33
395.276	340.69
395.723	314.95
396.169	300.91
396.616	343.03
397.062	364.1
397.508	307.93
397.954	324.31
398.401	279.84
398.847	324.31
399.293	333.67
399.739	338.35
400.185	314.95
400.631	357.08
401.076	333.67
401.522	385.16
401.968	307.93
402.414	417.93
402.859	354.74
403.305	380.48
403.75	336.01
404.196	305.59
404.641	371.12
405.086	314.95
405.532	366.44
405.977	394.53
406.422	371.12
406.867	310.27
407.312	296.22
407.757	321.97
408.202	368.78
408.647	328.99
409.092	321.97
409.537	258.78
409.982	331.33
410.426	392.19
410.871	354.74
411.316	345.38
411.76	258.78
412.205	340.69
412.649	333.67
413.093	282.18
413.538	338.35
413.982	310.27
414.426	424.95
414.87	375.8
415.314	326.65
415.758	382.82
416.202	340.69
416.646	331.33
417.09	410.91
417.534	343.03
417.978	385.16
418.421	373.46
418.865	359.42
419.309	361.76
419.752	375.8
420.196	345.38
420.639	357.08
421.083	317.29
421.526	394.53
421.969	354.74
422.412	338.35
422.856	373.46
423.299	375.8
423.742	382.82
424.185	357.08
424.628	359.42
425.071	371.12
425.513	420.27
425.956	300.91
426.399	364.1
426.842	396.87
427.284	408.57
427.727	488.15
428.169	406.23
428.612	417.93
429.054	429.63
429.497	417.93
429.939	457.72
430.381	373.46
430.823	427.29
431.265	446.02
431.707	464.74
432.149	427.29
432.591	399.21
433.033	408.57
433.475	511.55
433.917	427.29
434.359	506.87
434.8	488.15
435.242	549
435.684	534.96
436.125	516.23
436.567	495.17
437.008	467.08
437.449	483.47
437.891	471.76
438.332	490.49
438.773	474.1
439.214	455.38
439.656	506.87
440.097	546.66
440.538	396.87
440.978	497.51
441.419	488.15
441.86	490.49
442.301	509.21
442.742	499.85
443.182	509.21
443.623	499.85
444.063	467.08
444.504	579.43
444.944	565.39
445.385	584.11
445.825	499.85
446.265	506.87
446.706	558.36
447.146	541.98
447.586	541.98
448.026	635.6
448.466	537.3
448.906	558.36
449.346	544.32
449.786	502.19
450.225	530.28
450.665	574.75
451.105	572.41
451.544	490.49
451.984	525.6
452.424	544.32
452.863	527.94
453.302	499.85
453.742	467.08
454.181	551.34
454.62	499.85
455.059	448.36
455.499	457.72
455.938	450.7
456.377	464.74
456.816	485.81
457.254	549
457.693	450.7
458.132	495.17
458.571	431.98
459.01	492.83
459.448	464.74
459.887	443.68
460.325	516.23
460.764	382.82
461.202	474.1
461.641	460.06
462.079	415.59
462.517	415.59
462.955	460.06
463.393	399.21
463.832	457.72
464.27	462.4
464.708	406.23
465.145	490.49
465.583	460.06
466.021	441.34
466.459	499.85
466.897	429.63
467.334	410.91
467.772	471.76
468.209	448.36
468.647	364.1
469.084	441.34
469.522	413.25
469.959	429.63
470.396	431.98
470.833	389.85
471.271	340.69
471.708	326.65
472.145	464.74
472.582	453.04
473.019	436.66
473.456	429.63
473.892	441.34
474.329	314.95
474.766	336.01
475.202	403.89
475.639	328.99
476.076	415.59
476.512	371.12
476.949	389.85
477.385	406.23
477.821	434.32
478.258	368.78
478.694	300.91
479.13	417.93
479.566	350.06
480.002	415.59
480.438	420.27
480.874	420.27
481.31	455.38
481.746	387.5
482.181	462.4
482.617	403.89
483.053	394.53
483.488	413.25
483.924	434.32
484.36	443.68
484.795	443.68
485.23	382.82
485.666	485.81
486.101	504.53
486.536	420.27
486.971	434.32
487.407	492.83
487.842	483.47
488.277	375.8
488.712	464.74
489.146	518.57
489.581	403.89
490.016	497.51
490.451	420.27
490.885	455.38
491.32	523.26
491.755	429.63
492.189	504.53
492.624	431.98
493.058	403.89
493.492	488.15
493.927	422.61
494.361	422.61
494.795	476.45
495.229	448.36
495.663	439
496.097	490.49
496.531	467.08
496.965	394.53
497.399	413.25
497.833	422.61
498.266	396.87
498.7	436.66
499.134	443.68
499.567	439
500.001	448.36
500.434	420.27
500.868	446.02
501.301	424.95
501.734	366.44
502.168	427.29
502.601	399.21
503.034	399.21
503.467	406.23
503.9	406.23
504.333	436.66
504.766	417.93
505.199	436.66
505.632	410.91
506.064	490.49
506.497	371.12
506.93	460.06
507.362	408.57
507.795	375.8
508.227	420.27
508.66	441.34
509.092	523.26
509.524	413.25
509.956	467.08
510.389	488.15
510.821	401.55
511.253	455.38
511.685	453.04
512.117	483.47
512.549	420.27
512.981	492.83
513.412	483.47
513.844	415.59
514.276	446.02
514.707	446.02
515.139	394.53
515.571	436.66
516.002	453.04
516.433	502.19
516.865	492.83
517.296	448.36
517.727	427.29
518.159	420.27
518.59	464.74
519.021	446.02
519.452	474.1
519.883	464.74
520.314	427.29
520.744	469.42
521.175	460.06
521.606	450.7
522.037	488.15
522.467	455.38
522.898	481.13
523.328	392.19
523.759	490.49
524.189	490.49
524.62	403.89
525.05	509.21
525.48	455.38
525.91	401.55
526.341	378.14
526.771	485.81
527.201	490.49
527.631	460.06
528.061	403.89
528.49	462.4
528.92	413.25
529.35	462.4
529.78	406.23
530.209	448.36
530.639	485.81
531.068	485.81
531.498	424.95
531.927	429.63
532.357	460.06
532.786	436.66
533.215	455.38
533.644	453.04
534.074	511.55
534.503	406.23
534.932	446.02
535.361	464.74
535.79	509.21
536.218	460.06
536.647	513.89
537.076	422.61
537.505	464.74
537.933	509.21
538.362	499.85
538.79	497.51
539.219	490.49
539.647	436.66
540.076	523.26
540.504	570.07
540.932	616.88
541.36	630.92
541.788	633.26
542.217	736.24
542.645	684.75
543.073	778.37
543.5	696.46
543.928	783.06
544.356	717.52
544.784	761.99
545.211	771.35
545.639	719.86
546.067	778.37
546.494	675.39
546.922	635.6
547.349	570.07
547.776	600.49
548.204	504.53
548.631	574.75
549.058	558.36
549.485	530.28
549.912	504.53
550.339	516.23
550.766	448.36
551.193	488.15
551.62	591.13
552.047	506.87
552.474	541.98
552.9	464.74
553.327	495.17
553.754	448.36
554.18	453.04
554.607	502.19
555.033	497.51
555.459	525.6
555.886	450.7
556.312	481.13
556.738	511.55
557.164	462.4
557.59	434.32
558.016	429.63
558.442	439
558.868	431.98
559.294	485.81
559.72	439
560.145	403.89
560.571	417.93
560.997	396.87
561.422	464.74
561.848	464.74
562.273	513.89
562.699	446.02
563.124	537.3
563.549	399.21
563.974	422.61
564.4	408.57
564.825	497.51
565.25	401.55
565.675	394.53
566.1	485.81
566.525	460.06
566.95	415.59
567.374	431.98
567.799	467.08
568.224	525.6
568.648	443.68
569.073	415.59
569.497	527.94
569.922	488.15
570.346	448.36
570.771	457.72
571.195	387.5
571.619	448.36
572.043	453.04
572.467	408.57
572.891	460.06
573.315	410.91
573.739	474.1
574.163	467.08
574.587	399.21
575.011	467.08
575.435	446.02
575.858	530.28
576.282	431.98
576.705	446.02
577.129	455.38
577.552	516.23
577.976	431.98
578.399	467.08
578.822	469.42
579.245	488.15
579.669	523.26
580.092	401.55
580.515	488.15
580.938	481.13
581.361	513.89
581.784	474.1
582.206	511.55
582.629	504.53
583.052	471.76
583.474	455.38
583.897	525.6
584.32	441.34
584.742	422.61
585.165	490.49
585.587	502.19
586.009	481.13
586.431	499.85
586.854	518.57
587.276	495.17
587.698	441.34
588.12	509.21
588.542	490.49
588.964	499.85
589.386	417.93
589.807	499.85
590.229	485.81
590.651	499.85
591.073	485.81
591.494	446.02
591.916	509.21
592.337	399.21
592.759	415.59
593.18	464.74
593.601	450.7
594.022	420.27
594.444	385.16
594.865	467.08
595.286	488.15
595.707	387.5
596.128	343.03
596.549	429.63
596.97	403.89
597.39	424.95
597.811	392.19
598.232	460.06
598.652	464.74
599.073	424.95
599.494	401.55
599.914	389.85
600.334	410.91
600.755	431.98
601.175	481.13
601.595	516.23
602.015	502.19
602.436	417.93
602.856	607.52
603.276	429.63
603.696	401.55
604.115	427.29
604.535	399.21
604.955	431.98
605.375	375.8
605.794	483.47
606.214	441.34
606.634	455.38
607.053	406.23
607.473	434.32
607.892	455.38
608.311	485.81
608.731	464.74
609.15	509.21
609.569	523.26
609.988	623.9
610.407	633.26
610.826	745.61
611.245	794.76
611.664	867.31
612.083	764.33
612.501	684.75
612.92	628.58
613.339	591.13
613.757	619.22
614.176	511.55
614.594	551.34
615.013	453.04
615.431	453.04
615.85	476.45
616.268	464.74
616.686	460.06
617.104	453.04
617.522	439
617.94	502.19
618.358	464.74
618.776	396.87
619.194	481.13
619.612	417.93
620.03	441.34
620.447	394.53
620.865	406.23
621.282	443.68
621.7	520.92
622.117	448.36
622.535	485.81
622.952	406.23
623.369	382.82
623.787	446.02
624.204	441.34
624.621	417.93
625.038	424.95
625.455	408.57
625.872	413.25
626.289	420.27
626.706	403.89
627.123	401.55
627.539	474.1
627.956	392.19
628.373	352.4
628.789	415.59
629.206	385.16
629.622	375.8
630.038	427.29
630.455	422.61
630.871	485.81
631.287	410.91
631.703	382.82
632.12	399.21
632.536	406.23
632.952	394.53
633.368	394.53
633.783	319.63
634.199	389.85
634.615	401.55
635.031	364.1
635.446	364.1
635.862	354.74
636.277	371.12
636.693	366.44
637.108	361.76
637.524	375.8
637.939	380.48
638.354	380.48
638.77	401.55
639.185	380.48
639.6	321.97
640.015	361.76
640.43	385.16
640.845	324.31
641.259	338.35
641.674	401.55
642.089	352.4
642.504	382.82
642.918	357.08
643.333	307.93
643.747	408.57
644.162	417.93
644.576	394.53
644.991	396.87
645.405	357.08
645.819	352.4
646.233	394.53
646.647	392.19
647.061	401.55
647.475	340.69
647.889	436.66
648.303	396.87
648.717	314.95
649.131	357.08
649.545	336.01
649.958	324.31
650.372	382.82
650.785	352.4
651.199	387.5
651.612	417.93
652.026	352.4
652.439	375.8
652.852	347.72
653.266	401.55
653.679	417.93
654.092	343.03
654.505	410.91
654.918	410.91
655.331	413.25
655.744	343.03
656.156	328.99
656.569	338.35
656.982	366.44
657.394	345.38
657.807	361.76
658.22	307.93
658.632	354.74
659.044	396.87
659.457	380.48
659.869	357.08
660.281	352.4
660.693	366.44
661.106	359.42
661.518	319.63
661.93	420.27
662.342	357.08
662.754	317.29
663.165	429.63
663.577	387.5
663.989	385.16
664.401	392.19
664.812	328.99
665.224	305.59
665.635	359.42
666.047	410.91
666.458	408.57
666.869	401.55
667.281	333.67
667.692	350.06
668.103	258.78
668.514	385.16
668.925	324.31
669.336	352.4
669.747	345.38
670.158	357.08
670.569	392.19
670.979	352.4
671.39	385.16
671.801	305.59
672.211	378.14
672.622	357.08
673.032	389.85
673.443	350.06
673.853	422.61
674.263	373.46
674.674	382.82
675.084	389.85
675.494	387.5
675.904	382.82
676.314	366.44
676.724	361.76
677.134	375.8
677.544	326.65
677.953	380.48
678.363	415.59
678.773	417.93
679.182	382.82
679.592	375.8
680.001	413.25
680.411	331.33
680.82	403.89
681.23	380.48
681.639	293.88
682.048	368.78
682.457	350.06
682.866	340.69
683.275	338.35
683.684	364.1
684.093	336.01
684.502	354.74
684.911	321.97
685.32	326.65
685.728	380.48
686.137	286.86
686.546	389.85
686.954	321.97
687.363	385.16
687.771	385.16
688.179	357.08
688.588	385.16
688.996	382.82
689.404	307.93
689.812	303.25
690.22	410.91
690.628	340.69
691.036	338.35
691.444	286.86
691.852	368.78
692.26	357.08
692.667	392.19
693.075	345.38
693.483	352.4
693.89	336.01
694.298	434.32
694.705	385.16
695.112	324.31
695.52	319.63
695.927	352.4
696.334	298.56
696.741	326.65
697.148	347.72
697.555	340.69
697.962	286.86
698.369	389.85
698.776	357.08
699.183	378.14
699.59	392.19
699.996	347.72
700.403	357.08
700.81	321.97
701.216	359.42
701.623	347.72
702.029	261.12
702.435	345.38
702.842	387.5
703.248	289.2
703.654	364.1
704.06	347.72
704.466	450.7
704.872	336.01
705.278	357.08
705.684	343.03
706.09	382.82
706.496	336.01
706.901	375.8
707.307	392.19
707.712	328.99
708.118	296.22
708.523	385.16
708.929	387.5
709.334	385.16
709.74	345.38
710.145	375.8
710.55	321.97
710.955	382.82
711.36	373.46
711.765	347.72
712.17	359.42
712.575	256.43
712.98	956.26
713.385	361.76
713.789	350.06
714.194	350.06
714.599	382.82
715.003	359.42
715.408	380.48
715.812	364.1
716.217	340.69
716.621	286.86
717.025	410.91
717.429	333.67
717.833	366.44
718.238	345.38
718.642	333.67
719.046	338.35
719.449	310.27
719.853	303.25
720.257	361.76
720.661	328.99
721.065	392.19
721.468	326.65
721.872	350.06
722.275	361.76
722.679	350.06
723.082	385.16
723.485	347.72
723.889	378.14
724.292	343.03
724.695	331.33
725.098	331.33
725.501	312.61
725.904	387.5
726.307	417.93
726.71	364.1
727.113	359.42
727.516	368.78
727.918	350.06
728.321	361.76
728.724	371.12
729.126	298.56
729.529	359.42
729.931	354.74
730.333	357.08
730.736	394.53
731.138	422.61
731.54	364.1
731.942	282.18
732.344	317.29
732.746	340.69
733.148	354.74
733.55	403.89
733.952	378.14
734.354	286.86
734.756	378.14
735.157	343.03
735.559	364.1
735.96	321.97
736.362	371.12
736.763	373.46
737.165	417.93
737.566	361.76
737.967	298.56
738.368	343.03
738.77	357.08
739.171	305.59
739.572	366.44
739.973	333.67
740.374	352.4
740.774	340.69
741.175	305.59
741.576	326.65
741.977	324.31
742.377	314.95
742.778	359.42
743.178	413.25
743.579	357.08
743.979	333.67
744.379	319.63
744.78	321.97
745.18	368.78
745.58	340.69
745.98	333.67
746.38	378.14
746.78	312.61
747.18	340.69
747.58	279.84
747.98	347.72
748.38	317.29
748.779	345.38
749.179	387.5
749.578	291.54
749.978	340.69
750.377	366.44
750.777	333.67
751.176	284.52
751.575	298.56
751.975	336.01
752.374	336.01
752.773	343.03
753.172	359.42
753.571	319.63
753.97	343.03
754.369	319.63
754.768	314.95
755.166	368.78
755.565	359.42
755.964	380.48
756.362	392.19
756.761	375.8
757.159	354.74
757.558	350.06
757.956	385.16
758.354	333.67
758.753	345.38
759.151	282.18
759.549	317.29
759.947	350.06
760.345	352.4
760.743	338.35
761.141	354.74
761.539	328.99
761.936	345.38
762.334	371.12
762.732	378.14
763.129	403.89
763.527	326.65
763.924	399.21
764.322	347.72
764.719	293.88
765.117	336.01
