Data from Al_FLMS009871__107__11-49-27-094.txt Node

Date: Fri Mar 08 11:49:27 CST 2024
User: pe5414po
Spectrometer: FLMS00987
Trigger mode: 0
Integration Time (sec): 1.000000E-1
Scans to average: 1
Electric dark correction enabled: true
Nonlinearity correction enabled: false
Boxcar width: 0
XAxis mode: Wavelengths
Number of Pixels in Spectrum: 2048
>>>>>Begin Spectral Data<<<<<
188.938	-33.06
189.409	-33.06
189.879	-33.06
190.349	-89.23
190.819	-140.72
191.29	-89.23
191.76	-117.32
192.23	-114.98
192.7	-84.55
193.17	-26.04
193.64	-33.06
194.109	-65.83
194.579	-30.72
195.049	-54.12
195.519	37.16
195.988	37.16
196.458	105.03
196.927	76.95
197.397	60.56
197.866	165.89
198.336	133.12
198.805	149.5
199.274	135.46
199.744	229.08
200.213	203.33
200.682	200.99
201.151	278.23
201.62	261.85
202.089	210.36
202.558	254.83
203.027	252.49
203.495	273.55
203.964	212.7
204.433	303.98
204.902	252.49
205.37	236.1
205.839	266.53
206.307	339.09
206.776	360.15
207.244	287.59
207.712	299.3
208.181	280.57
208.649	275.89
209.117	280.57
209.585	278.23
210.053	311
210.521	329.72
210.989	257.17
211.457	287.59
211.925	339.09
212.393	275.89
212.861	271.21
213.328	266.53
213.796	273.55
214.264	318.02
214.731	289.93
215.199	259.51
215.666	243.12
216.133	219.72
216.601	268.87
217.068	329.72
217.535	240.78
218.003	306.32
218.47	261.85
218.937	259.51
219.404	229.08
219.871	236.1
220.338	329.72
220.805	259.51
221.271	240.78
221.738	289.93
222.205	219.72
222.671	266.53
223.138	226.74
223.605	282.91
224.071	292.27
224.538	285.25
225.004	196.31
225.47	243.12
225.937	247.8
226.403	252.49
226.869	275.89
227.335	212.7
227.801	250.14
228.267	313.34
228.733	306.32
229.199	266.53
229.665	287.59
230.131	268.87
230.597	252.49
231.062	306.32
231.528	318.02
231.994	240.78
232.459	250.14
232.925	259.51
233.39	268.87
233.856	208.02
234.321	273.55
234.786	282.91
235.252	296.96
235.717	306.32
236.182	229.08
236.647	303.98
237.112	252.49
237.577	268.87
238.042	320.36
238.507	285.25
238.972	322.7
239.436	362.49
239.901	231.42
240.366	294.61
240.83	233.76
241.295	219.72
241.76	236.1
242.224	320.36
242.688	266.53
243.153	311
243.617	285.25
244.081	336.74
244.545	261.85
245.01	336.74
245.474	289.93
245.938	261.85
246.402	311
246.866	268.87
247.33	282.91
247.793	315.68
248.257	264.19
248.721	336.74
249.185	343.77
249.648	318.02
250.112	306.32
250.575	303.98
251.039	339.09
251.502	325.04
251.965	236.1
252.429	306.32
252.892	285.25
253.355	350.79
253.818	273.55
254.281	299.3
254.744	296.96
255.207	289.93
255.67	266.53
256.133	294.61
256.596	296.96
257.059	273.55
257.522	268.87
257.984	318.02
258.447	318.02
258.909	381.21
259.372	266.53
259.834	353.13
260.297	217.38
260.759	278.23
261.221	278.23
261.684	341.43
262.146	292.27
262.608	299.3
263.07	306.32
263.532	320.36
263.994	327.38
264.456	327.38
264.918	268.87
265.38	334.4
265.842	261.85
266.303	306.32
266.765	254.83
267.227	339.09
267.688	259.51
268.15	226.74
268.611	250.14
269.072	332.06
269.534	299.3
269.995	320.36
270.456	289.93
270.918	343.77
271.379	322.7
271.84	320.36
272.301	318.02
272.762	292.27
273.223	315.68
273.684	247.8
274.144	294.61
274.605	311
275.066	243.12
275.527	282.91
275.987	257.17
276.448	257.17
276.908	327.38
277.369	222.06
277.829	294.61
278.289	257.17
278.75	280.57
279.21	362.49
279.67	306.32
280.13	243.12
280.59	336.74
281.05	301.64
281.51	339.09
281.97	334.4
282.43	311
282.89	292.27
283.35	318.02
283.809	355.47
284.269	273.55
284.729	308.66
285.188	327.38
285.648	339.09
286.107	311
286.567	261.85
287.026	325.04
287.485	343.77
287.944	285.25
288.404	327.38
288.863	367.17
289.322	259.51
289.781	278.23
290.24	303.98
290.699	329.72
291.158	299.3
291.616	371.85
292.075	339.09
292.534	322.7
292.992	275.89
293.451	329.72
293.91	287.59
294.368	294.61
294.827	275.89
295.285	313.34
295.743	332.06
296.202	334.4
296.66	313.34
297.118	308.66
297.576	299.3
298.034	280.57
298.492	301.64
298.95	299.3
299.408	287.59
299.866	301.64
300.324	292.27
300.781	346.11
301.239	311
301.697	334.4
302.154	322.7
302.612	318.02
303.069	353.13
303.527	285.25
303.984	306.32
304.441	378.87
304.899	236.1
305.356	306.32
305.813	332.06
306.27	296.96
306.727	313.34
307.184	355.47
307.641	273.55
308.098	261.85
308.555	362.49
309.012	313.34
309.468	301.64
309.925	266.53
310.382	296.96
310.838	236.1
311.295	275.89
311.751	271.21
312.208	346.11
312.664	259.51
313.12	294.61
313.577	303.98
314.033	320.36
314.489	278.23
314.945	311
315.401	406.96
315.857	322.7
316.313	336.74
316.769	278.23
317.225	299.3
317.681	261.85
318.136	336.74
318.592	301.64
319.048	320.36
319.503	306.32
319.959	334.4
320.414	334.4
320.869	303.98
321.325	285.25
321.78	367.17
322.235	325.04
322.691	325.04
323.146	271.21
323.601	346.11
324.056	318.02
324.511	353.13
324.966	292.27
325.421	320.36
325.875	306.32
326.33	287.59
326.785	296.96
327.24	355.47
327.694	285.25
328.149	320.36
328.603	381.21
329.058	296.96
329.512	282.91
329.966	299.3
330.421	308.66
330.875	287.59
331.329	306.32
331.783	355.47
332.237	362.49
332.691	306.32
333.145	334.4
333.599	329.72
334.053	357.81
334.507	320.36
334.96	343.77
335.414	325.04
335.868	397.6
336.321	327.38
336.775	327.38
337.228	301.64
337.682	343.77
338.135	271.21
338.588	236.1
339.042	381.21
339.495	275.89
339.948	320.36
340.401	282.91
340.854	308.66
341.307	301.64
341.76	313.34
342.213	266.53
342.666	285.25
343.119	329.72
343.571	289.93
344.024	346.11
344.477	252.49
344.929	271.21
345.382	289.93
345.834	348.45
346.287	301.64
346.739	264.19
347.191	320.36
347.644	273.55
348.096	378.87
348.548	332.06
349	388.24
349.452	336.74
349.904	332.06
350.356	299.3
350.808	280.57
351.26	285.25
351.711	301.64
352.163	299.3
352.615	273.55
353.066	292.27
353.518	336.74
353.969	308.66
354.421	287.59
354.872	303.98
355.324	332.06
355.775	268.87
356.226	306.32
356.677	325.04
357.128	313.34
357.579	350.79
358.03	329.72
358.481	339.09
358.932	311
359.383	289.93
359.834	303.98
360.285	299.3
360.735	313.34
361.186	303.98
361.637	371.85
362.087	294.61
362.538	339.09
362.988	257.17
363.438	341.43
363.889	315.68
364.339	318.02
364.789	364.83
365.239	299.3
365.689	350.79
366.139	399.94
366.589	353.13
367.039	325.04
367.489	362.49
367.939	346.11
368.389	311
368.839	282.91
369.288	278.23
369.738	357.81
370.187	315.68
370.637	318.02
371.086	341.43
371.536	320.36
371.985	378.87
372.434	348.45
372.884	334.4
373.333	294.61
373.782	308.66
374.231	299.3
374.68	327.38
375.129	320.36
375.578	271.21
376.027	301.64
376.475	367.17
376.924	315.68
377.373	313.34
377.822	320.36
378.27	355.47
378.719	299.3
379.167	320.36
379.616	294.61
380.064	280.57
380.512	292.27
380.961	339.09
381.409	336.74
381.857	327.38
382.305	282.91
382.753	271.21
383.201	266.53
383.649	325.04
384.097	292.27
384.545	355.47
384.992	315.68
385.44	332.06
385.888	315.68
386.335	275.89
386.783	357.81
387.231	367.17
387.678	332.06
388.125	339.09
388.573	430.37
389.02	313.34
389.467	336.74
389.914	369.51
390.362	369.51
390.809	357.81
391.256	313.34
391.703	334.4
392.15	322.7
392.596	378.87
393.043	299.3
393.49	280.57
393.937	306.32
394.383	243.12
394.83	303.98
395.276	320.36
395.723	395.26
396.169	278.23
396.616	254.83
397.062	243.12
397.508	257.17
397.954	332.06
398.401	325.04
398.847	360.15
399.293	362.49
399.739	318.02
400.185	313.34
400.631	353.13
401.076	341.43
401.522	343.77
401.968	395.26
402.414	322.7
402.859	339.09
403.305	318.02
403.75	343.77
404.196	360.15
404.641	346.11
405.086	355.47
405.532	334.4
405.977	325.04
406.422	322.7
406.867	390.58
407.312	353.13
407.757	292.27
408.202	292.27
408.647	332.06
409.092	325.04
409.537	329.72
409.982	425.68
410.426	313.34
410.871	252.49
411.316	334.4
411.76	336.74
412.205	341.43
412.649	318.02
413.093	343.77
413.538	334.4
413.982	311
414.426	350.79
414.87	357.81
415.314	315.68
415.758	320.36
416.202	318.02
416.646	350.79
417.09	360.15
417.534	395.26
417.978	346.11
418.421	334.4
418.865	299.3
419.309	313.34
419.752	303.98
420.196	343.77
420.639	278.23
421.083	343.77
421.526	318.02
421.969	346.11
422.412	376.53
422.856	404.62
423.299	343.77
423.742	362.49
424.185	334.4
424.628	336.74
425.071	374.19
425.513	395.26
425.956	381.21
426.399	371.85
426.842	329.72
427.284	362.49
427.727	355.47
428.169	390.58
428.612	343.77
429.054	383.56
429.497	315.68
429.939	404.62
430.381	296.96
430.823	371.85
431.265	329.72
431.707	357.81
432.149	355.47
432.591	390.58
433.033	329.72
433.475	355.47
433.917	392.92
434.359	432.71
434.8	479.52
435.242	523.99
435.684	535.69
436.125	460.79
436.567	444.41
437.008	435.05
437.449	470.16
437.891	495.9
438.332	397.6
438.773	425.68
439.214	425.68
439.656	439.73
440.097	432.71
440.538	444.41
440.978	378.87
441.419	402.28
441.86	442.07
442.301	458.45
442.742	444.41
443.182	444.41
443.623	470.16
444.063	388.24
444.504	502.92
444.944	519.31
445.385	435.05
445.825	388.24
446.265	477.18
446.706	507.6
447.146	435.05
447.586	505.26
448.026	481.86
448.466	516.97
448.906	542.71
449.346	458.45
449.786	488.88
450.225	435.05
450.665	411.64
451.105	428.03
451.544	432.71
451.984	439.73
452.424	467.81
452.863	442.07
453.302	484.2
453.742	406.96
454.181	493.56
454.62	423.34
455.059	416.32
455.499	418.66
455.938	430.37
456.377	339.09
456.816	369.51
457.254	397.6
457.693	395.26
458.132	404.62
458.571	481.86
459.01	439.73
459.448	369.51
459.887	430.37
460.325	378.87
460.764	374.19
461.202	376.53
461.641	435.05
462.079	479.52
462.517	341.43
462.955	376.53
463.393	449.09
463.832	374.19
464.27	364.83
464.708	378.87
465.145	388.24
465.583	390.58
466.021	376.53
466.459	390.58
466.897	421
467.334	388.24
467.772	357.81
468.209	360.15
468.647	343.77
469.084	292.27
469.522	411.64
469.959	467.81
470.396	336.74
470.833	381.21
471.271	406.96
471.708	428.03
472.145	442.07
472.582	367.17
473.019	390.58
473.456	327.38
473.892	390.58
474.329	392.92
474.766	364.83
475.202	395.26
475.639	339.09
476.076	362.49
476.512	404.62
476.949	339.09
477.385	374.19
477.821	402.28
478.258	371.85
478.694	406.96
479.13	392.92
479.566	442.07
480.002	409.3
480.438	367.17
480.874	402.28
481.31	348.45
481.746	374.19
482.181	395.26
482.617	388.24
483.053	399.94
483.488	458.45
483.924	451.43
484.36	360.15
484.795	383.56
485.23	428.03
485.666	404.62
486.101	397.6
486.536	397.6
486.971	451.43
487.407	399.94
487.842	449.09
488.277	430.37
488.712	397.6
489.146	439.73
489.581	428.03
490.016	371.85
490.451	315.68
490.885	383.56
491.32	428.03
491.755	371.85
492.189	367.17
492.624	395.26
493.058	484.2
493.492	376.53
493.927	409.3
494.361	341.43
494.795	421
495.229	367.17
495.663	430.37
496.097	428.03
496.531	360.15
496.965	428.03
497.399	327.38
497.833	418.66
498.266	353.13
498.7	425.68
499.134	404.62
499.567	371.85
500.001	367.17
500.434	432.71
500.868	369.51
501.301	369.51
501.734	381.21
502.168	411.64
502.601	406.96
503.034	388.24
503.467	392.92
503.9	381.21
504.333	362.49
504.766	430.37
505.199	355.47
505.632	311
506.064	376.53
506.497	339.09
506.93	395.26
507.362	399.94
507.795	425.68
508.227	318.02
508.66	383.56
509.092	378.87
509.524	413.98
509.956	378.87
510.389	362.49
510.821	404.62
511.253	402.28
511.685	402.28
512.117	406.96
512.549	418.66
512.981	388.24
513.412	399.94
513.844	390.58
514.276	491.22
514.707	507.6
515.139	430.37
515.571	399.94
516.002	399.94
516.433	435.05
516.865	374.19
517.296	329.72
517.727	409.3
518.159	367.17
518.59	369.51
519.021	371.85
519.452	411.64
519.883	381.21
520.314	350.79
520.744	383.56
521.175	385.9
521.606	385.9
522.037	376.53
522.467	430.37
522.898	399.94
523.328	397.6
523.759	463.13
524.189	439.73
524.62	432.71
525.05	418.66
525.48	383.56
525.91	374.19
526.341	413.98
526.771	449.09
527.201	446.75
527.631	418.66
528.061	376.53
528.49	519.31
528.92	428.03
529.35	418.66
529.78	315.68
530.209	397.6
530.639	355.47
531.068	451.43
531.498	371.85
531.927	418.66
532.357	392.92
532.786	395.26
533.215	421
533.644	385.9
534.074	404.62
534.503	287.59
534.932	406.96
535.361	437.39
535.79	374.19
536.218	369.51
536.647	516.97
537.076	458.45
537.505	399.94
537.933	399.94
538.362	528.67
538.79	477.18
539.219	456.11
539.647	531.01
540.076	516.97
540.504	523.99
540.932	521.65
541.36	629.31
541.788	643.35
542.217	711.23
542.645	694.85
543.073	718.25
543.5	687.82
543.928	760.38
544.356	648.04
544.784	767.4
545.211	741.66
545.639	669.1
546.067	626.97
546.494	687.82
546.922	662.08
547.349	533.35
547.776	505.26
548.204	479.52
548.631	472.5
549.058	409.3
549.485	474.84
549.912	488.88
550.339	444.41
550.766	444.41
551.193	470.16
551.62	442.07
552.047	481.86
552.474	463.13
552.9	430.37
553.327	519.31
553.754	486.54
554.18	439.73
554.607	416.32
555.033	432.71
555.459	491.22
555.886	413.98
556.312	409.3
556.738	388.24
557.164	411.64
557.59	514.63
558.016	430.37
558.442	395.26
558.868	383.56
559.294	470.16
559.72	371.85
560.145	428.03
560.571	378.87
560.997	348.45
561.422	378.87
561.848	376.53
562.273	362.49
562.699	378.87
563.124	364.83
563.549	444.41
563.974	435.05
564.4	437.39
564.825	430.37
565.25	339.09
565.675	449.09
566.1	472.5
566.525	371.85
566.95	357.81
567.374	411.64
567.799	418.66
568.224	350.79
568.648	353.13
569.073	411.64
569.497	413.98
569.922	404.62
570.346	392.92
570.771	409.3
571.195	395.26
571.619	364.83
572.043	378.87
572.467	371.85
572.891	362.49
573.315	350.79
573.739	385.9
574.163	383.56
574.587	357.81
575.011	423.34
575.435	383.56
575.858	439.73
576.282	409.3
576.705	383.56
577.129	406.96
577.552	357.81
577.976	460.79
578.399	385.9
578.822	385.9
579.245	383.56
579.669	406.96
580.092	458.45
580.515	369.51
580.938	453.77
581.361	456.11
581.784	430.37
582.206	404.62
582.629	463.13
583.052	467.81
583.474	442.07
583.897	413.98
584.32	406.96
584.742	481.86
585.165	484.2
585.587	439.73
586.009	491.22
586.431	467.81
586.854	477.18
587.276	484.2
587.698	404.62
588.12	472.5
588.542	493.56
588.964	451.43
589.386	409.3
589.807	449.09
590.229	435.05
590.651	451.43
591.073	458.45
591.494	357.81
591.916	390.58
592.337	378.87
592.759	378.87
593.18	395.26
593.601	402.28
594.022	339.09
594.444	392.92
594.865	364.83
595.286	481.86
595.707	404.62
596.128	453.77
596.549	381.21
596.97	446.75
597.39	336.74
597.811	397.6
598.232	388.24
598.652	399.94
599.073	395.26
599.494	376.53
599.914	392.92
600.334	332.06
600.755	348.45
601.175	355.47
601.595	392.92
602.015	385.9
602.436	402.28
602.856	505.26
603.276	460.79
603.696	362.49
604.115	322.7
604.535	376.53
604.955	381.21
605.375	392.92
605.794	399.94
606.214	411.64
606.634	421
607.053	474.84
607.473	418.66
607.892	442.07
608.311	432.71
608.731	442.07
609.15	535.69
609.569	573.14
609.988	641.01
610.407	687.82
610.826	804.85
611.245	772.08
611.664	781.45
612.083	603.57
612.501	622.29
612.92	582.5
613.339	561.44
613.757	528.67
614.176	556.75
614.594	495.9
615.013	523.99
615.431	413.98
615.85	472.5
616.268	406.96
616.686	423.34
617.104	437.39
617.522	421
617.94	327.38
618.358	444.41
618.776	369.51
619.194	442.07
619.612	413.98
620.03	381.21
620.447	444.41
620.865	369.51
621.282	411.64
621.7	435.05
622.117	413.98
622.535	392.92
622.952	463.13
623.369	404.62
623.787	388.24
624.204	346.11
624.621	432.71
625.038	327.38
625.455	327.38
625.872	313.34
626.289	371.85
626.706	364.83
627.123	334.4
627.539	371.85
627.956	280.57
628.373	362.49
628.789	367.17
629.206	493.56
629.622	376.53
630.038	395.26
630.455	376.53
630.871	388.24
631.287	395.26
631.703	332.06
632.12	435.05
632.536	341.43
632.952	355.47
633.368	355.47
633.783	313.34
634.199	374.19
634.615	378.87
635.031	329.72
635.446	404.62
635.862	378.87
636.277	325.04
636.693	369.51
637.108	350.79
637.524	360.15
637.939	346.11
638.354	301.64
638.77	355.47
639.185	341.43
639.6	271.21
640.015	348.45
640.43	341.43
640.845	301.64
641.259	341.43
641.674	329.72
642.089	355.47
642.504	318.02
642.918	266.53
643.333	322.7
643.747	318.02
644.162	348.45
644.576	343.77
644.991	275.89
645.405	336.74
645.819	376.53
646.233	388.24
646.647	306.32
647.061	364.83
647.475	301.64
647.889	299.3
648.303	280.57
648.717	343.77
649.131	371.85
649.545	313.34
649.958	334.4
650.372	385.9
650.785	348.45
651.199	353.13
651.612	280.57
652.026	357.81
652.439	318.02
652.852	275.89
653.266	292.27
653.679	315.68
654.092	355.47
654.505	334.4
654.918	318.02
655.331	397.6
655.744	273.55
656.156	371.85
656.569	339.09
656.982	339.09
657.394	397.6
657.807	299.3
658.22	432.71
658.632	336.74
659.044	313.34
659.457	364.83
659.869	301.64
660.281	360.15
660.693	278.23
661.106	322.7
661.518	292.27
661.93	383.56
662.342	322.7
662.754	367.17
663.165	327.38
663.577	327.38
663.989	404.62
664.401	355.47
664.812	346.11
665.224	301.64
665.635	339.09
666.047	341.43
666.458	334.4
666.869	315.68
667.281	360.15
667.692	355.47
668.103	336.74
668.514	306.32
668.925	381.21
669.336	378.87
669.747	301.64
670.158	339.09
670.569	339.09
670.979	339.09
671.39	341.43
671.801	257.17
672.211	275.89
672.622	346.11
673.032	397.6
673.443	313.34
673.853	369.51
674.263	275.89
674.674	353.13
675.084	355.47
675.494	336.74
675.904	280.57
676.314	285.25
676.724	329.72
677.134	376.53
677.544	287.59
677.953	348.45
678.363	299.3
678.773	336.74
679.182	308.66
679.592	329.72
680.001	332.06
680.411	339.09
680.82	357.81
681.23	339.09
681.639	280.57
682.048	369.51
682.457	322.7
682.866	299.3
683.275	313.34
683.684	287.59
684.093	280.57
684.502	346.11
684.911	292.27
685.32	308.66
685.728	296.96
686.137	306.32
686.546	371.85
686.954	341.43
687.363	287.59
687.771	329.72
688.179	334.4
688.588	325.04
688.996	364.83
689.404	362.49
689.812	397.6
690.22	292.27
690.628	381.21
691.036	329.72
691.444	273.55
691.852	350.79
692.26	360.15
692.667	343.77
693.075	332.06
693.483	392.92
693.89	299.3
694.298	313.34
694.705	329.72
695.112	346.11
695.52	357.81
695.927	278.23
696.334	294.61
696.741	327.38
697.148	306.32
697.555	275.89
697.962	306.32
698.369	332.06
698.776	353.13
699.183	325.04
699.59	360.15
699.996	273.55
700.403	266.53
700.81	296.96
701.216	339.09
701.623	308.66
702.029	285.25
702.435	308.66
702.842	301.64
703.248	313.34
703.654	334.4
704.06	313.34
704.466	236.1
704.872	336.74
705.278	308.66
705.684	315.68
706.09	350.79
706.496	322.7
706.901	367.17
707.307	343.77
707.712	343.77
708.118	360.15
708.523	397.6
708.929	346.11
709.334	334.4
709.74	334.4
710.145	341.43
710.55	346.11
710.955	362.49
711.36	353.13
711.765	353.13
712.17	360.15
712.575	339.09
712.98	1125.51
713.385	311
713.789	367.17
714.194	327.38
714.599	374.19
715.003	299.3
715.408	252.49
715.812	233.76
716.217	287.59
716.621	259.51
717.025	292.27
717.429	296.96
717.833	273.55
718.238	306.32
718.642	268.87
719.046	271.21
719.449	357.81
719.853	322.7
720.257	334.4
720.661	273.55
721.065	315.68
721.468	346.11
721.872	289.93
722.275	320.36
722.679	388.24
723.082	315.68
723.485	296.96
723.889	296.96
724.292	322.7
724.695	322.7
725.098	339.09
725.501	273.55
725.904	296.96
726.307	266.53
726.71	327.38
727.113	336.74
727.516	294.61
727.918	399.94
728.321	308.66
728.724	296.96
729.126	254.83
729.529	369.51
729.931	343.77
730.333	320.36
730.736	325.04
731.138	289.93
731.54	289.93
731.942	348.45
732.344	336.74
732.746	362.49
733.148	325.04
733.55	334.4
733.952	318.02
734.354	329.72
734.756	315.68
735.157	329.72
735.559	306.32
735.96	329.72
736.362	360.15
736.763	311
737.165	332.06
737.566	343.77
737.967	318.02
738.368	355.47
738.77	322.7
739.171	350.79
739.572	296.96
739.973	311
740.374	315.68
740.774	299.3
741.175	341.43
741.576	245.46
741.977	289.93
742.377	311
742.778	282.91
743.178	289.93
743.579	294.61
743.979	315.68
744.379	346.11
744.78	383.56
745.18	311
745.58	280.57
745.98	292.27
746.38	362.49
746.78	287.59
747.18	308.66
747.58	381.21
747.98	327.38
748.38	282.91
748.779	292.27
749.179	278.23
749.578	348.45
749.978	339.09
750.377	327.38
750.777	322.7
751.176	320.36
751.575	369.51
751.975	341.43
752.374	311
752.773	280.57
753.172	350.79
753.571	299.3
753.97	346.11
754.369	303.98
754.768	287.59
755.166	299.3
755.565	301.64
755.964	306.32
756.362	332.06
756.761	282.91
757.159	287.59
757.558	336.74
757.956	282.91
758.354	341.43
758.753	378.87
759.151	367.17
759.549	339.09
759.947	303.98
760.345	289.93
760.743	332.06
761.141	341.43
761.539	327.38
761.936	294.61
762.334	315.68
762.732	303.98
763.129	303.98
763.527	282.91
763.924	303.98
764.322	301.64
764.719	332.06
765.117	327.38
765.514	275.89
765.911	303.98
766.308	355.47
766.705	313.34
