Data from Al_FLMS009871__102__11-49-26-594.txt Node

Date: Fri Mar 08 11:49:26 CST 2024
User: pe5414po
Spectrometer: FLMS00987
Trigger mode: 0
Integration Time (sec): 1.000000E-1
Scans to average: 1
Electric dark correction enabled: true
Nonlinearity correction enabled: false
Boxcar width: 0
XAxis mode: Wavelengths
Number of Pixels in Spectrum: 2048
>>>>>Begin Spectral Data<<<<<
188.938	-137.21
189.409	-137.21
189.879	-137.21
190.349	-81.04
190.819	-127.85
191.29	-120.83
191.76	-45.93
192.23	-88.06
192.7	-102.11
193.17	-78.7
193.64	-13.17
194.109	-3.8
194.579	-10.82
195.049	10.24
195.519	-1.46
195.988	68.75
196.458	35.99
196.927	50.03
197.397	80.46
197.866	92.16
198.336	127.27
198.805	120.25
199.274	141.31
199.744	162.37
200.213	237.27
200.682	167.06
201.151	213.87
201.62	183.44
202.089	211.53
202.558	216.21
203.027	167.06
203.495	284.08
203.964	223.23
204.433	246.63
204.902	267.7
205.37	293.44
205.839	286.42
206.307	209.19
206.776	281.74
207.244	312.17
207.712	216.21
208.181	307.49
208.649	272.38
209.117	314.51
209.585	291.1
210.053	300.47
210.521	256
210.989	263.02
211.457	246.63
211.925	300.47
212.393	239.61
212.861	216.21
213.328	267.7
213.796	197.48
214.264	291.1
214.731	256
215.199	300.47
215.666	312.17
216.133	197.48
216.601	319.19
217.068	258.34
217.535	188.12
218.003	248.97
218.47	216.21
218.937	211.53
219.404	274.72
219.871	253.66
220.338	279.4
220.805	206.84
221.271	270.04
221.738	267.7
222.205	248.97
222.671	227.91
223.138	192.8
223.605	153.01
224.071	312.17
224.538	213.87
225.004	188.12
225.47	344.94
225.937	286.42
226.403	239.61
226.869	204.5
227.335	263.02
227.801	373.02
228.267	274.72
228.733	274.72
229.199	246.63
229.665	234.93
230.131	270.04
230.597	211.53
231.062	370.68
231.528	216.21
231.994	314.51
232.459	321.53
232.925	302.81
233.39	213.87
233.856	225.57
234.321	241.95
234.786	295.79
235.252	323.87
235.717	330.89
236.182	248.97
236.647	349.62
237.112	316.85
237.577	293.44
238.042	258.34
238.507	265.36
238.972	267.7
239.436	293.44
239.901	295.79
240.366	274.72
240.83	206.84
241.295	246.63
241.76	300.47
242.224	298.13
242.688	244.29
243.153	314.51
243.617	277.06
244.081	267.7
244.545	312.17
245.01	267.7
245.474	265.36
245.938	293.44
246.402	223.23
246.866	309.83
247.33	321.53
247.793	309.83
248.257	356.64
248.721	256
249.185	337.91
249.648	309.83
250.112	281.74
250.575	206.84
251.039	248.97
251.502	300.47
251.965	286.42
252.429	281.74
252.892	277.06
253.355	293.44
253.818	277.06
254.281	284.08
254.744	281.74
255.207	260.68
255.67	281.74
256.133	241.95
256.596	305.15
257.059	286.42
257.522	260.68
257.984	263.02
258.447	241.95
258.909	316.85
259.372	316.85
259.834	307.49
260.297	305.15
260.759	241.95
261.221	190.46
261.684	307.49
262.146	274.72
262.608	218.55
263.07	284.08
263.532	337.91
263.994	358.98
264.456	291.1
264.918	239.61
265.38	239.61
265.842	342.6
266.303	263.02
266.765	295.79
267.227	227.91
267.688	335.57
268.15	218.55
268.611	230.25
269.072	298.13
269.534	319.19
269.995	307.49
270.456	323.87
270.918	298.13
271.379	293.44
271.84	286.42
272.301	312.17
272.762	241.95
273.223	256
273.684	258.34
274.144	298.13
274.605	277.06
275.066	227.91
275.527	272.38
275.987	256
276.448	330.89
276.908	260.68
277.369	253.66
277.829	309.83
278.289	347.28
278.75	281.74
279.21	363.66
279.67	267.7
280.13	333.23
280.59	314.51
281.05	272.38
281.51	349.62
281.97	316.85
282.43	321.53
282.89	227.91
283.35	300.47
283.809	319.19
284.269	279.4
284.729	216.21
285.188	263.02
285.648	234.93
286.107	263.02
286.567	288.76
287.026	291.1
287.485	277.06
287.944	267.7
288.404	356.64
288.863	204.5
289.322	272.38
289.781	246.63
290.24	274.72
290.699	277.06
291.158	284.08
291.616	337.91
292.075	295.79
292.534	305.15
292.992	279.4
293.451	328.55
293.91	277.06
294.368	321.53
294.827	241.95
295.285	241.95
295.743	291.1
296.202	298.13
296.66	263.02
297.118	260.68
297.576	321.53
298.034	277.06
298.492	279.4
298.95	267.7
299.408	237.27
299.866	305.15
300.324	284.08
300.781	321.53
301.239	316.85
301.697	323.87
302.154	213.87
302.612	281.74
303.069	319.19
303.527	293.44
303.984	298.13
304.441	312.17
304.899	300.47
305.356	286.42
305.813	230.25
306.27	307.49
306.727	319.19
307.184	244.29
307.641	284.08
308.098	377.7
308.555	270.04
309.012	253.66
309.468	291.1
309.925	351.96
310.382	263.02
310.838	335.57
311.295	351.96
311.751	281.74
312.208	358.98
312.664	272.38
313.12	312.17
313.577	321.53
314.033	309.83
314.489	286.42
314.945	286.42
315.401	267.7
315.857	272.38
316.313	272.38
316.769	312.17
317.225	330.89
317.681	330.89
318.136	323.87
318.592	291.1
319.048	248.97
319.503	239.61
319.959	342.6
320.414	363.66
320.869	300.47
321.325	279.4
321.78	260.68
322.235	274.72
322.691	265.36
323.146	305.15
323.601	307.49
324.056	335.57
324.511	300.47
324.966	300.47
325.421	302.81
325.875	293.44
326.33	302.81
326.785	347.28
327.24	342.6
327.694	380.04
328.149	309.83
328.603	286.42
329.058	281.74
329.512	382.39
329.966	256
330.421	314.51
330.875	293.44
331.329	361.32
331.783	326.21
332.237	342.6
332.691	302.81
333.145	314.51
333.599	256
334.053	321.53
334.507	293.44
334.96	272.38
335.414	293.44
335.868	286.42
336.321	342.6
336.775	351.96
337.228	300.47
337.682	337.91
338.135	316.85
338.588	326.21
339.042	358.98
339.495	309.83
339.948	319.19
340.401	340.26
340.854	293.44
341.307	328.55
341.76	333.23
342.213	309.83
342.666	337.91
343.119	314.51
343.571	234.93
344.024	326.21
344.477	272.38
344.929	295.79
345.382	344.94
345.834	300.47
346.287	340.26
346.739	319.19
347.191	284.08
347.644	349.62
348.096	286.42
348.548	253.66
349	295.79
349.452	328.55
349.904	253.66
350.356	307.49
350.808	361.32
351.26	279.4
351.711	356.64
352.163	305.15
352.615	326.21
353.066	288.76
353.518	354.3
353.969	337.91
354.421	340.26
354.872	340.26
355.324	270.04
355.775	326.21
356.226	328.55
356.677	281.74
357.128	342.6
357.579	298.13
358.03	274.72
358.481	314.51
358.932	253.66
359.383	284.08
359.834	260.68
360.285	342.6
360.735	330.89
361.186	328.55
361.637	291.1
362.087	326.21
362.538	335.57
362.988	272.38
363.438	370.68
363.889	272.38
364.339	312.17
364.789	302.81
365.239	375.36
365.689	349.62
366.139	380.04
366.589	309.83
367.039	305.15
367.489	319.19
367.939	277.06
368.389	279.4
368.839	291.1
369.288	354.3
369.738	370.68
370.187	321.53
370.637	260.68
371.086	375.36
371.536	265.36
371.985	302.81
372.434	272.38
372.884	288.76
373.333	398.77
373.782	263.02
374.231	314.51
374.68	328.55
375.129	326.21
375.578	298.13
376.027	328.55
376.475	373.02
376.924	412.81
377.373	302.81
377.822	274.72
378.27	342.6
378.719	279.4
379.167	230.25
379.616	277.06
380.064	277.06
380.512	279.4
380.961	265.36
381.409	373.02
381.857	293.44
382.305	260.68
382.753	349.62
383.201	291.1
383.649	344.94
384.097	267.7
384.545	302.81
384.992	337.91
385.44	333.23
385.888	298.13
386.335	373.02
386.783	309.83
387.231	314.51
387.678	321.53
388.125	312.17
388.573	265.36
389.02	225.57
389.467	298.13
389.914	286.42
390.362	361.32
390.809	319.19
391.256	295.79
391.703	312.17
392.15	302.81
392.596	321.53
393.043	277.06
393.49	279.4
393.937	309.83
394.383	351.96
394.83	375.36
395.276	279.4
395.723	293.44
396.169	309.83
396.616	265.36
397.062	314.51
397.508	312.17
397.954	258.34
398.401	366
398.847	380.04
399.293	312.17
399.739	309.83
400.185	302.81
400.631	300.47
401.076	363.66
401.522	366
401.968	333.23
402.414	337.91
402.859	328.55
403.305	330.89
403.75	361.32
404.196	382.39
404.641	309.83
405.086	272.38
405.532	337.91
405.977	298.13
406.422	246.63
406.867	234.93
407.312	333.23
407.757	309.83
408.202	321.53
408.647	328.55
409.092	337.91
409.537	335.57
409.982	347.28
410.426	333.23
410.871	244.29
411.316	370.68
411.76	349.62
412.205	319.19
412.649	298.13
413.093	309.83
413.538	312.17
413.982	244.29
414.426	305.15
414.87	312.17
415.314	384.73
415.758	281.74
416.202	351.96
416.646	307.49
417.09	305.15
417.534	323.87
417.978	351.96
418.421	293.44
418.865	279.4
419.309	340.26
419.752	354.3
420.196	330.89
420.639	309.83
421.083	312.17
421.526	375.36
421.969	335.57
422.412	370.68
422.856	314.51
423.299	314.51
423.742	319.19
424.185	330.89
424.628	335.57
425.071	335.57
425.513	368.34
425.956	375.36
426.399	366
426.842	330.89
427.284	391.75
427.727	389.41
428.169	412.81
428.612	361.32
429.054	337.91
429.497	387.07
429.939	368.34
430.381	361.32
430.823	302.81
431.265	417.49
431.707	366
432.149	403.45
432.591	312.17
433.033	370.68
433.475	396.43
433.917	375.36
434.359	436.22
434.8	525.16
435.242	522.82
435.684	487.71
436.125	478.35
436.567	373.02
437.008	375.36
437.449	405.79
437.891	445.58
438.332	370.68
438.773	358.98
439.214	454.94
439.656	440.9
440.097	396.43
440.538	447.92
440.978	403.45
441.419	461.96
441.86	436.22
442.301	412.81
442.742	433.88
443.182	520.48
443.623	483.03
444.063	447.92
444.504	483.03
444.944	487.71
445.385	499.41
445.825	419.83
446.265	466.64
446.706	429.2
447.146	464.3
447.586	426.86
448.026	518.14
448.466	419.83
448.906	391.75
449.346	471.33
449.786	438.56
450.225	483.03
450.665	447.92
451.105	447.92
451.544	520.48
451.984	485.37
452.424	522.82
452.863	457.28
453.302	452.6
453.742	443.24
454.181	457.28
454.62	377.7
455.059	358.98
455.499	361.32
455.938	450.26
456.377	387.07
456.816	417.49
457.254	380.04
457.693	405.79
458.132	370.68
458.571	389.41
459.01	354.3
459.448	363.66
459.887	342.6
460.325	396.43
460.764	391.75
461.202	410.47
461.641	410.47
462.079	447.92
462.517	389.41
462.955	415.15
463.393	433.88
463.832	410.47
464.27	429.2
464.708	391.75
465.145	408.13
465.583	351.96
466.021	391.75
466.459	335.57
466.897	358.98
467.334	363.66
467.772	344.94
468.209	401.11
468.647	330.89
469.084	370.68
469.522	344.94
469.959	340.26
470.396	373.02
470.833	426.86
471.271	387.07
471.708	354.3
472.145	286.42
472.582	340.26
473.019	349.62
473.456	361.32
473.892	312.17
474.329	349.62
474.766	426.86
475.202	389.41
475.639	382.39
476.076	333.23
476.512	384.73
476.949	373.02
477.385	391.75
477.821	302.81
478.258	377.7
478.694	361.32
479.13	363.66
479.566	391.75
480.002	417.49
480.438	333.23
480.874	354.3
481.31	326.21
481.746	316.85
482.181	382.39
482.617	368.34
483.053	363.66
483.488	344.94
483.924	401.11
484.36	438.56
484.795	412.81
485.23	340.26
485.666	485.37
486.101	452.6
486.536	401.11
486.971	361.32
487.407	342.6
487.842	358.98
488.277	351.96
488.712	340.26
489.146	471.33
489.581	373.02
490.016	436.22
490.451	354.3
490.885	398.77
491.32	408.13
491.755	363.66
492.189	377.7
492.624	410.47
493.058	410.47
493.492	358.98
493.927	447.92
494.361	366
494.795	424.51
495.229	391.75
495.663	408.13
496.097	368.34
496.531	417.49
496.965	422.17
497.399	377.7
497.833	419.83
498.266	375.36
498.7	391.75
499.134	408.13
499.567	450.26
500.001	349.62
500.434	408.13
500.868	410.47
501.301	419.83
501.734	328.55
502.168	323.87
502.601	410.47
503.034	401.11
503.467	298.13
503.9	328.55
504.333	391.75
504.766	410.47
505.199	396.43
505.632	354.3
506.064	408.13
506.497	415.15
506.93	354.3
507.362	426.86
507.795	382.39
508.227	396.43
508.66	370.68
509.092	401.11
509.524	424.51
509.956	373.02
510.389	412.81
510.821	387.07
511.253	321.53
511.685	351.96
512.117	354.3
512.549	394.09
512.981	389.41
513.412	356.64
513.844	363.66
514.276	354.3
514.707	426.86
515.139	373.02
515.571	426.86
516.002	429.2
516.433	410.47
516.865	382.39
517.296	377.7
517.727	358.98
518.159	382.39
518.59	373.02
519.021	373.02
519.452	408.13
519.883	366
520.314	373.02
520.744	405.79
521.175	387.07
521.606	396.43
522.037	417.49
522.467	344.94
522.898	412.81
523.328	328.55
523.759	454.94
524.189	358.98
524.62	438.56
525.05	380.04
525.48	417.49
525.91	401.11
526.341	417.49
526.771	368.34
527.201	424.51
527.631	391.75
528.061	415.15
528.49	387.07
528.92	492.39
529.35	403.45
529.78	391.75
530.209	403.45
530.639	370.68
531.068	387.07
531.498	412.81
531.927	461.96
532.357	408.13
532.786	396.43
533.215	426.86
533.644	436.22
534.074	412.81
534.503	382.39
534.932	440.9
535.361	457.28
535.79	429.2
536.218	450.26
536.647	424.51
537.076	445.58
537.505	391.75
537.933	410.47
538.362	445.58
538.79	398.77
539.219	480.69
539.647	471.33
540.076	490.05
540.504	536.86
540.932	616.44
541.36	600.05
541.788	609.42
542.217	651.55
542.645	703.04
543.073	719.42
543.5	745.17
543.928	623.46
544.356	686.65
544.784	693.68
545.211	728.78
545.639	681.97
546.067	639.84
546.494	604.74
546.922	525.16
547.349	546.22
547.776	485.37
548.204	548.56
548.631	518.14
549.058	553.24
549.485	478.35
549.912	466.64
550.339	433.88
550.766	492.39
551.193	473.67
551.62	445.58
552.047	466.64
552.474	431.54
552.9	401.11
553.327	405.79
553.754	405.79
554.18	415.15
554.607	445.58
555.033	405.79
555.459	370.68
555.886	445.58
556.312	422.17
556.738	344.94
557.164	426.86
557.59	461.96
558.016	391.75
558.442	394.09
558.868	424.51
559.294	396.43
559.72	426.86
560.145	424.51
560.571	351.96
560.997	375.36
561.422	417.49
561.848	358.98
562.273	370.68
562.699	405.79
563.124	445.58
563.549	461.96
563.974	412.81
564.4	419.83
564.825	394.09
565.25	410.47
565.675	361.32
566.1	380.04
566.525	363.66
566.95	351.96
567.374	363.66
567.799	433.88
568.224	410.47
568.648	387.07
569.073	443.24
569.497	363.66
569.922	459.62
570.346	490.05
570.771	366
571.195	366
571.619	415.15
572.043	347.28
572.467	422.17
572.891	356.64
573.315	398.77
573.739	333.23
574.163	342.6
574.587	394.09
575.011	398.77
575.435	415.15
575.858	391.75
576.282	373.02
576.705	398.77
577.129	377.7
577.552	436.22
577.976	387.07
578.399	373.02
578.822	373.02
579.245	408.13
579.669	447.92
580.092	384.73
580.515	419.83
580.938	419.83
581.361	391.75
581.784	447.92
582.206	473.67
582.629	452.6
583.052	518.14
583.474	387.07
583.897	443.24
584.32	457.28
584.742	450.26
585.165	422.17
585.587	408.13
586.009	422.17
586.431	471.33
586.854	417.49
587.276	412.81
587.698	424.51
588.12	389.41
588.542	431.54
588.964	419.83
589.386	440.9
589.807	380.04
590.229	401.11
590.651	422.17
591.073	419.83
591.494	464.3
591.916	396.43
592.337	424.51
592.759	497.07
593.18	476.01
593.601	415.15
594.022	370.68
594.444	417.49
594.865	389.41
595.286	363.66
595.707	323.87
596.128	344.94
596.549	429.2
596.97	316.85
597.39	419.83
597.811	344.94
598.232	377.7
598.652	396.43
599.073	471.33
599.494	410.47
599.914	363.66
600.334	380.04
600.755	436.22
601.175	370.68
601.595	396.43
602.015	424.51
602.436	368.34
602.856	550.9
603.276	396.43
603.696	398.77
604.115	384.73
604.535	445.58
604.955	410.47
605.375	361.32
605.794	344.94
606.214	417.49
606.634	326.21
607.053	401.11
607.473	433.88
607.892	387.07
608.311	424.51
608.731	508.77
609.15	471.33
609.569	525.16
609.988	632.82
610.407	670.27
610.826	749.85
611.245	712.4
611.664	712.4
612.083	705.38
612.501	653.89
612.92	600.05
613.339	571.97
613.757	534.52
614.176	501.75
614.594	443.24
615.013	454.94
615.431	426.86
615.85	436.22
616.268	513.46
616.686	403.45
617.104	405.79
617.522	368.34
617.94	363.66
618.358	391.75
618.776	370.68
619.194	384.73
619.612	394.09
620.03	447.92
620.447	396.43
620.865	433.88
621.282	361.32
621.7	375.36
622.117	410.47
622.535	454.94
622.952	450.26
623.369	415.15
623.787	398.77
624.204	368.34
624.621	326.21
625.038	337.91
625.455	361.32
625.872	387.07
626.289	384.73
626.706	396.43
627.123	328.55
627.539	340.26
627.956	337.91
628.373	375.36
628.789	422.17
629.206	314.51
629.622	342.6
630.038	342.6
630.455	380.04
630.871	342.6
631.287	358.98
631.703	279.4
632.12	344.94
632.536	349.62
632.952	382.39
633.368	323.87
633.783	368.34
634.199	293.44
634.615	300.47
635.031	358.98
635.446	251.32
635.862	337.91
636.277	380.04
636.693	351.96
637.108	305.15
637.524	363.66
637.939	361.32
638.354	312.17
638.77	312.17
639.185	349.62
639.6	363.66
640.015	391.75
640.43	337.91
640.845	305.15
641.259	380.04
641.674	429.2
642.089	307.49
642.504	351.96
642.918	344.94
643.333	405.79
643.747	340.26
644.162	316.85
644.576	377.7
644.991	279.4
645.405	263.02
645.819	361.32
646.233	265.36
646.647	323.87
647.061	241.95
647.475	347.28
647.889	349.62
648.303	403.45
648.717	340.26
649.131	284.08
649.545	380.04
649.958	417.49
650.372	351.96
650.785	384.73
651.199	370.68
651.612	354.3
652.026	373.02
652.439	387.07
652.852	347.28
653.266	344.94
653.679	270.04
654.092	396.43
654.505	366
654.918	328.55
655.331	321.53
655.744	312.17
656.156	286.42
656.569	323.87
656.982	328.55
657.394	356.64
657.807	351.96
658.22	288.76
658.632	387.07
659.044	384.73
659.457	253.66
659.869	358.98
660.281	363.66
660.693	323.87
661.106	356.64
661.518	366
661.93	347.28
662.342	335.57
662.754	284.08
663.165	342.6
663.577	319.19
663.989	356.64
664.401	316.85
664.812	370.68
665.224	349.62
665.635	356.64
666.047	314.51
666.458	312.17
666.869	335.57
667.281	347.28
667.692	286.42
668.103	377.7
668.514	309.83
668.925	335.57
669.336	375.36
669.747	330.89
670.158	351.96
670.569	328.55
670.979	256
671.39	319.19
671.801	380.04
672.211	312.17
672.622	347.28
673.032	286.42
673.443	305.15
673.853	284.08
674.263	295.79
674.674	384.73
675.084	260.68
675.494	288.76
675.904	263.02
676.314	368.34
676.724	272.38
677.134	312.17
677.544	373.02
677.953	361.32
678.363	333.23
678.773	398.77
679.182	342.6
679.592	382.39
680.001	316.85
680.411	246.63
680.82	321.53
681.23	391.75
681.639	279.4
682.048	326.21
682.457	384.73
682.866	258.34
683.275	354.3
683.684	274.72
684.093	209.19
684.502	277.06
684.911	251.32
685.32	321.53
685.728	263.02
686.137	370.68
686.546	321.53
686.954	321.53
687.363	366
687.771	389.41
688.179	344.94
688.588	286.42
688.996	295.79
689.404	328.55
689.812	246.63
690.22	335.57
690.628	246.63
691.036	256
691.444	328.55
691.852	333.23
692.26	316.85
692.667	305.15
693.075	319.19
693.483	323.87
693.89	293.44
694.298	335.57
694.705	312.17
695.112	342.6
695.52	288.76
695.927	342.6
696.334	396.43
696.741	319.19
697.148	302.81
697.555	330.89
697.962	335.57
698.369	347.28
698.776	337.91
699.183	333.23
699.59	286.42
699.996	307.49
700.403	309.83
700.81	272.38
701.216	302.81
701.623	321.53
702.029	321.53
702.435	239.61
702.842	309.83
703.248	300.47
703.654	309.83
704.06	347.28
704.466	363.66
704.872	319.19
705.278	337.91
705.684	328.55
706.09	375.36
706.496	288.76
706.901	337.91
707.307	342.6
707.712	277.06
708.118	351.96
708.523	340.26
708.929	337.91
709.334	424.51
709.74	256
710.145	340.26
710.55	314.51
710.955	370.68
711.36	309.83
711.765	286.42
712.17	408.13
712.575	256
712.98	1056.46
713.385	431.54
713.789	344.94
714.194	382.39
714.599	328.55
715.003	354.3
715.408	291.1
715.812	288.76
716.217	358.98
716.621	295.79
717.025	330.89
717.429	300.47
717.833	274.72
718.238	300.47
718.642	288.76
719.046	248.97
719.449	319.19
719.853	300.47
720.257	258.34
720.661	344.94
721.065	326.21
721.468	295.79
721.872	333.23
722.275	274.72
722.679	265.36
723.082	279.4
723.485	335.57
723.889	316.85
724.292	263.02
724.695	291.1
725.098	274.72
725.501	293.44
725.904	377.7
726.307	305.15
726.71	291.1
727.113	323.87
727.516	291.1
727.918	319.19
728.321	195.14
728.724	347.28
729.126	316.85
729.529	347.28
729.931	328.55
730.333	288.76
730.736	286.42
731.138	265.36
731.54	319.19
731.942	267.7
732.344	312.17
732.746	284.08
733.148	319.19
733.55	366
733.952	284.08
734.354	361.32
734.756	323.87
735.157	337.91
735.559	389.41
735.96	300.47
736.362	368.34
736.763	335.57
737.165	286.42
737.566	307.49
737.967	263.02
738.368	253.66
738.77	307.49
739.171	288.76
739.572	312.17
739.973	277.06
740.374	291.1
740.774	363.66
741.175	298.13
741.576	342.6
741.977	293.44
742.377	314.51
742.778	326.21
743.178	302.81
743.579	265.36
743.979	305.15
744.379	335.57
744.78	321.53
745.18	239.61
745.58	267.7
745.98	293.44
746.38	312.17
746.78	337.91
747.18	330.89
747.58	251.32
747.98	272.38
748.38	286.42
748.779	323.87
749.179	281.74
749.578	302.81
749.978	398.77
750.377	302.81
750.777	293.44
751.176	295.79
751.575	267.7
751.975	298.13
752.374	356.64
752.773	295.79
753.172	293.44
753.571	335.57
753.97	344.94
754.369	333.23
754.768	270.04
755.166	281.74
755.565	274.72
755.964	288.76
756.362	330.89
756.761	260.68
757.159	272.38
757.558	380.04
757.956	298.13
758.354	319.19
758.753	279.4
759.151	342.6
759.549	344.94
759.947	316.85
760.345	300.47
760.743	358.98
761.141	274.72
761.539	298.13
761.936	321.53
762.334	347.28
762.732	380.04
763.129	328.55
763.527	270.04
763.924	384.73
764.322	309.83
764.719	326.21
765.117	286.42
765.514	321.53
765.911	337.91
766.308	281.74
