Data from Al_FLMS009871__109__11-49-27-294.txt Node

Date: Fri Mar 08 11:49:27 CST 2024
User: pe5414po
Spectrometer: FLMS00987
Trigger mode: 0
Integration Time (sec): 1.000000E-1
Scans to average: 1
Electric dark correction enabled: true
Nonlinearity correction enabled: false
Boxcar width: 0
XAxis mode: Wavelengths
Number of Pixels in Spectrum: 2048
>>>>>Begin Spectral Data<<<<<
188.938	-126.1
189.409	-126.1
189.879	-126.1
190.349	-105.03
190.819	-32.47
191.29	-112.05
191.76	-149.5
192.23	-60.56
192.7	-53.54
193.17	-88.65
193.64	-48.86
194.109	-67.58
194.579	-46.52
195.049	-13.75
195.519	19.02
195.988	44.76
196.458	96.25
196.927	91.57
197.397	122
197.866	129.02
198.336	138.38
198.805	145.41
199.274	152.43
199.744	203.92
200.213	180.51
200.682	222.64
201.151	239.03
201.62	234.35
202.089	264.77
202.558	229.67
203.027	288.18
203.495	271.79
203.964	260.09
204.433	337.33
204.902	281.16
205.37	269.45
205.839	292.86
206.307	311.58
206.776	320.95
207.244	236.69
207.712	255.41
208.181	374.78
208.649	267.11
209.117	299.88
209.585	243.71
210.053	295.2
210.521	255.41
210.989	262.43
211.457	269.45
211.925	297.54
212.393	271.79
212.861	248.39
213.328	292.86
213.796	278.82
214.264	334.99
214.731	208.6
215.199	248.39
215.666	313.92
216.133	278.82
216.601	241.37
217.068	262.43
217.535	210.94
218.003	267.11
218.47	306.9
218.937	302.22
219.404	222.64
219.871	304.56
220.338	248.39
220.805	222.64
221.271	295.2
221.738	278.82
222.205	224.98
222.671	220.3
223.138	288.18
223.605	168.81
224.071	283.5
224.538	232.01
225.004	304.56
225.47	213.28
225.937	213.28
226.403	243.71
226.869	222.64
227.335	281.16
227.801	241.37
228.267	297.54
228.733	320.95
229.199	302.22
229.665	269.45
230.131	222.64
230.597	283.5
231.062	295.2
231.528	267.11
231.994	306.9
232.459	283.5
232.925	304.56
233.39	267.11
233.856	248.39
234.321	227.32
234.786	257.75
235.252	290.52
235.717	224.98
236.182	239.03
236.647	262.43
237.112	210.94
237.577	283.5
238.042	274.14
238.507	276.48
238.972	306.9
239.436	253.07
239.901	276.48
240.366	243.71
240.83	248.39
241.295	288.18
241.76	278.82
242.224	243.71
242.688	208.6
243.153	276.48
243.617	241.37
244.081	246.05
244.545	255.41
245.01	239.03
245.474	253.07
245.938	250.73
246.402	257.75
246.866	285.84
247.33	206.26
247.793	236.69
248.257	278.82
248.721	304.56
249.185	290.52
249.648	316.26
250.112	257.75
250.575	246.05
251.039	271.79
251.502	325.63
251.965	311.58
252.429	234.35
252.892	271.79
253.355	269.45
253.818	283.5
254.281	295.2
254.744	292.86
255.207	250.73
255.67	306.9
256.133	318.61
256.596	267.11
257.059	337.33
257.522	320.95
257.984	349.03
258.447	306.9
258.909	290.52
259.372	232.01
259.834	304.56
260.297	257.75
260.759	260.09
261.221	339.67
261.684	260.09
262.146	370.1
262.608	332.65
263.07	302.22
263.532	309.24
263.994	372.44
264.456	299.88
264.918	253.07
265.38	290.52
265.842	260.09
266.303	269.45
266.765	334.99
267.227	320.95
267.688	241.37
268.15	236.69
268.611	236.69
269.072	288.18
269.534	309.24
269.995	297.54
270.456	243.71
270.918	276.48
271.379	264.77
271.84	353.71
272.301	288.18
272.762	264.77
273.223	290.52
273.684	327.97
274.144	325.63
274.605	260.09
275.066	332.65
275.527	283.5
275.987	311.58
276.448	189.88
276.908	302.22
277.369	318.61
277.829	323.29
278.289	290.52
278.75	370.1
279.21	323.29
279.67	288.18
280.13	271.79
280.59	302.22
281.05	290.52
281.51	281.16
281.97	264.77
282.43	363.08
282.89	285.84
283.35	274.14
283.809	255.41
284.269	281.16
284.729	264.77
285.188	309.24
285.648	271.79
286.107	309.24
286.567	283.5
287.026	323.29
287.485	250.73
287.944	349.03
288.404	260.09
288.863	299.88
289.322	248.39
289.781	255.41
290.24	299.88
290.699	274.14
291.158	292.86
291.616	313.92
292.075	295.2
292.534	358.39
292.992	299.88
293.451	220.3
293.91	271.79
294.368	281.16
294.827	332.65
295.285	288.18
295.743	360.74
296.202	316.26
296.66	278.82
297.118	281.16
297.576	320.95
298.034	285.84
298.492	278.82
298.95	255.41
299.408	302.22
299.866	290.52
300.324	360.74
300.781	311.58
301.239	304.56
301.697	271.79
302.154	292.86
302.612	332.65
303.069	337.33
303.527	342.01
303.984	288.18
304.441	276.48
304.899	257.75
305.356	311.58
305.813	299.88
306.27	316.26
306.727	276.48
307.184	327.97
307.641	309.24
308.098	325.63
308.555	208.6
309.012	304.56
309.468	302.22
309.925	274.14
310.382	320.95
310.838	248.39
311.295	327.97
311.751	318.61
312.208	304.56
312.664	295.2
313.12	257.75
313.577	292.86
314.033	344.35
314.489	262.43
314.945	257.75
315.401	253.07
315.857	337.33
316.313	269.45
316.769	236.69
317.225	257.75
317.681	283.5
318.136	260.09
318.592	316.26
319.048	299.88
319.503	271.79
319.959	276.48
320.414	330.31
320.869	311.58
321.325	353.71
321.78	334.99
322.235	342.01
322.691	271.79
323.146	327.97
323.601	264.77
324.056	297.54
324.511	290.52
324.966	339.67
325.421	292.86
325.875	304.56
326.33	232.01
326.785	316.26
327.24	290.52
327.694	271.79
328.149	356.05
328.603	297.54
329.058	241.37
329.512	292.86
329.966	222.64
330.421	325.63
330.875	400.52
331.329	334.99
331.783	309.24
332.237	274.14
332.691	217.96
333.145	255.41
333.599	320.95
334.053	264.77
334.507	370.1
334.96	351.37
335.414	262.43
335.868	243.71
336.321	327.97
336.775	309.24
337.228	346.69
337.682	264.77
338.135	283.5
338.588	255.41
339.042	311.58
339.495	353.71
339.948	379.46
340.401	267.11
340.854	299.88
341.307	295.2
341.76	311.58
342.213	365.42
342.666	299.88
343.119	325.63
343.571	304.56
344.024	313.92
344.477	283.5
344.929	311.58
345.382	353.71
345.834	299.88
346.287	299.88
346.739	332.65
347.191	332.65
347.644	353.71
348.096	334.99
348.548	278.82
349	313.92
349.452	346.69
349.904	255.41
350.356	302.22
350.808	283.5
351.26	295.2
351.711	292.86
352.163	248.39
352.615	290.52
353.066	337.33
353.518	290.52
353.969	299.88
354.421	262.43
354.872	330.31
355.324	334.99
355.775	297.54
356.226	363.08
356.677	334.99
357.128	299.88
357.579	405.21
358.03	316.26
358.481	250.73
358.932	278.82
359.383	358.39
359.834	234.35
360.285	302.22
360.735	316.26
361.186	311.58
361.637	304.56
362.087	311.58
362.538	309.24
362.988	260.09
363.438	346.69
363.889	360.74
364.339	295.2
364.789	297.54
365.239	311.58
365.689	330.31
366.139	337.33
366.589	210.94
367.039	292.86
367.489	327.97
367.939	332.65
368.389	358.39
368.839	346.69
369.288	356.05
369.738	320.95
370.187	262.43
370.637	281.16
371.086	288.18
371.536	302.22
371.985	337.33
372.434	316.26
372.884	334.99
373.333	288.18
373.782	299.88
374.231	306.9
374.68	283.5
375.129	320.95
375.578	283.5
376.027	292.86
376.475	330.31
376.924	379.46
377.373	295.2
377.822	257.75
378.27	248.39
378.719	313.92
379.167	299.88
379.616	257.75
380.064	342.01
380.512	304.56
380.961	327.97
381.409	372.44
381.857	304.56
382.305	304.56
382.753	262.43
383.201	302.22
383.649	292.86
384.097	360.74
384.545	318.61
384.992	325.63
385.44	262.43
385.888	370.1
386.335	295.2
386.783	367.76
387.231	274.14
387.678	311.58
388.125	313.92
388.573	304.56
389.02	318.61
389.467	323.29
389.914	313.92
390.362	262.43
390.809	346.69
391.256	334.99
391.703	285.84
392.15	346.69
392.596	339.67
393.043	377.12
393.49	311.58
393.937	374.78
394.383	325.63
394.83	243.71
395.276	337.33
395.723	290.52
396.169	288.18
396.616	353.71
397.062	302.22
397.508	264.77
397.954	302.22
398.401	386.48
398.847	344.35
399.293	295.2
399.739	332.65
400.185	342.01
400.631	318.61
401.076	269.45
401.522	374.78
401.968	313.92
402.414	318.61
402.859	311.58
403.305	344.35
403.75	372.44
404.196	309.24
404.641	334.99
405.086	323.29
405.532	320.95
405.977	311.58
406.422	274.14
406.867	297.54
407.312	309.24
407.757	374.78
408.202	295.2
408.647	309.24
409.092	349.03
409.537	302.22
409.982	306.9
410.426	318.61
410.871	297.54
411.316	327.97
411.76	346.69
412.205	311.58
412.649	316.26
413.093	334.99
413.538	330.31
413.982	325.63
414.426	304.56
414.87	316.26
415.314	306.9
415.758	327.97
416.202	311.58
416.646	290.52
417.09	241.37
417.534	334.99
417.978	363.08
418.421	285.84
418.865	297.54
419.309	377.12
419.752	320.95
420.196	353.71
420.639	271.79
421.083	386.48
421.526	323.29
421.969	356.05
422.412	330.31
422.856	320.95
423.299	351.37
423.742	351.37
424.185	325.63
424.628	281.16
425.071	360.74
425.513	346.69
425.956	337.33
426.399	367.76
426.842	339.67
427.284	356.05
427.727	358.39
428.169	391.16
428.612	407.55
429.054	365.42
429.497	358.39
429.939	426.27
430.381	278.82
430.823	323.29
431.265	363.08
431.707	304.56
432.149	360.74
432.591	395.84
433.033	421.59
433.475	349.03
433.917	421.59
434.359	477.76
434.8	370.1
435.242	489.46
435.684	482.44
436.125	452.02
436.567	363.08
437.008	407.55
437.449	426.27
437.891	402.86
438.332	440.31
438.773	503.51
439.214	356.05
439.656	416.91
440.097	498.83
440.538	480.1
440.978	344.35
441.419	428.61
441.86	379.46
442.301	440.31
442.742	477.76
443.182	414.57
443.623	419.25
444.063	454.36
444.504	489.46
444.944	484.78
445.385	440.31
445.825	414.57
446.265	468.4
446.706	454.36
447.146	433.29
447.586	414.57
448.026	449.68
448.466	456.7
448.906	444.99
449.346	430.95
449.786	459.04
450.225	437.97
450.665	456.7
451.105	468.4
451.544	461.38
451.984	480.1
452.424	470.74
452.863	489.46
453.302	367.76
453.742	487.12
454.181	351.37
454.62	407.55
455.059	393.5
455.499	435.63
455.938	405.21
456.377	421.59
456.816	416.91
457.254	419.25
457.693	440.31
458.132	430.95
458.571	386.48
459.01	379.46
459.448	433.29
459.887	419.25
460.325	377.12
460.764	351.37
461.202	374.78
461.641	365.42
462.079	400.52
462.517	416.91
462.955	360.74
463.393	419.25
463.832	358.39
464.27	367.76
464.708	351.37
465.145	379.46
465.583	358.39
466.021	370.1
466.459	332.65
466.897	402.86
467.334	398.18
467.772	309.24
468.209	384.14
468.647	402.86
469.084	419.25
469.522	402.86
469.959	395.84
470.396	367.76
470.833	283.5
471.271	363.08
471.708	334.99
472.145	309.24
472.582	356.05
473.019	323.29
473.456	349.03
473.892	395.84
474.329	325.63
474.766	405.21
475.202	360.74
475.639	342.01
476.076	323.29
476.512	353.71
476.949	342.01
477.385	365.42
477.821	370.1
478.258	384.14
478.694	377.12
479.13	332.65
479.566	363.08
480.002	384.14
480.438	334.99
480.874	412.23
481.31	318.61
481.746	372.44
482.181	423.93
482.617	353.71
483.053	484.78
483.488	334.99
483.924	400.52
484.36	407.55
484.795	367.76
485.23	372.44
485.666	414.57
486.101	372.44
486.536	463.72
486.971	430.95
487.407	437.97
487.842	374.78
488.277	437.97
488.712	444.99
489.146	414.57
489.581	409.89
490.016	363.08
490.451	405.21
490.885	379.46
491.32	444.99
491.755	391.16
492.189	414.57
492.624	295.2
493.058	402.86
493.492	454.36
493.927	428.61
494.361	384.14
494.795	351.37
495.229	386.48
495.663	421.59
496.097	381.8
496.531	334.99
496.965	388.82
497.399	393.5
497.833	311.58
498.266	419.25
498.7	391.16
499.134	351.37
499.567	372.44
500.001	332.65
500.434	437.97
500.868	372.44
501.301	374.78
501.734	395.84
502.168	360.74
502.601	377.12
503.034	405.21
503.467	353.71
503.9	304.56
504.333	435.63
504.766	356.05
505.199	407.55
505.632	419.25
506.064	365.42
506.497	365.42
506.93	302.22
507.362	337.33
507.795	372.44
508.227	339.67
508.66	367.76
509.092	360.74
509.524	353.71
509.956	475.42
510.389	360.74
510.821	384.14
511.253	393.5
511.685	363.08
512.117	456.7
512.549	426.27
512.981	381.8
513.412	405.21
513.844	367.76
514.276	367.76
514.707	454.36
515.139	428.61
515.571	388.82
516.002	346.69
516.433	430.95
516.865	370.1
517.296	386.48
517.727	342.01
518.159	419.25
518.59	391.16
519.021	346.69
519.452	318.61
519.883	426.27
520.314	339.67
520.744	405.21
521.175	381.8
521.606	423.93
522.037	412.23
522.467	426.27
522.898	393.5
523.328	339.67
523.759	384.14
524.189	405.21
524.62	421.59
525.05	367.76
525.48	430.95
525.91	386.48
526.341	407.55
526.771	325.63
527.201	449.68
527.631	456.7
528.061	393.5
528.49	365.42
528.92	461.38
529.35	381.8
529.78	391.16
530.209	400.52
530.639	400.52
531.068	407.55
531.498	391.16
531.927	353.71
532.357	419.25
532.786	391.16
533.215	356.05
533.644	344.35
534.074	391.16
534.503	391.16
534.932	363.08
535.361	419.25
535.79	395.84
536.218	414.57
536.647	372.44
537.076	437.97
537.505	386.48
537.933	444.99
538.362	412.23
538.79	339.67
539.219	498.83
539.647	393.5
540.076	454.36
540.504	466.06
540.932	547.98
541.36	529.25
541.788	643.94
542.217	697.77
542.645	732.88
543.073	744.58
543.5	725.86
543.928	732.88
544.356	697.77
544.784	716.5
545.211	739.9
545.639	636.92
546.067	697.77
546.494	636.92
546.922	510.53
547.349	540.96
547.776	508.19
548.204	491.81
548.631	508.19
549.058	529.25
549.485	452.02
549.912	459.04
550.339	533.93
550.766	444.99
551.193	435.63
551.62	454.36
552.047	395.84
552.474	447.33
552.9	463.72
553.327	426.27
553.754	407.55
554.18	435.63
554.607	409.89
555.033	337.33
555.459	444.99
555.886	444.99
556.312	459.04
556.738	428.61
557.164	447.33
557.59	388.82
558.016	374.78
558.442	358.39
558.868	395.84
559.294	372.44
559.72	421.59
560.145	339.67
560.571	449.68
560.997	318.61
561.422	377.12
561.848	409.89
562.273	435.63
562.699	367.76
563.124	391.16
563.549	426.27
563.974	363.08
564.4	365.42
564.825	435.63
565.25	400.52
565.675	416.91
566.1	363.08
566.525	363.08
566.95	402.86
567.374	386.48
567.799	365.42
568.224	330.31
568.648	377.12
569.073	400.52
569.497	426.27
569.922	414.57
570.346	351.37
570.771	398.18
571.195	405.21
571.619	365.42
572.043	332.65
572.467	379.46
572.891	398.18
573.315	449.68
573.739	377.12
574.163	435.63
574.587	388.82
575.011	421.59
575.435	381.8
575.858	388.82
576.282	440.31
576.705	384.14
577.129	433.29
577.552	428.61
577.976	370.1
578.399	386.48
578.822	480.1
579.245	463.72
579.669	456.7
580.092	388.82
580.515	407.55
580.938	430.95
581.361	398.18
581.784	480.1
582.206	356.05
582.629	393.5
583.052	498.83
583.474	491.81
583.897	449.68
584.32	391.16
584.742	363.08
585.165	416.91
585.587	435.63
586.009	480.1
586.431	423.93
586.854	489.46
587.276	440.31
587.698	416.91
588.12	412.23
588.542	435.63
588.964	402.86
589.386	423.93
589.807	454.36
590.229	405.21
590.651	473.08
591.073	358.39
591.494	360.74
591.916	384.14
592.337	398.18
592.759	477.76
593.18	407.55
593.601	384.14
594.022	419.25
594.444	327.97
594.865	391.16
595.286	393.5
595.707	395.84
596.128	395.84
596.549	428.61
596.97	405.21
597.39	428.61
597.811	365.42
598.232	393.5
598.652	363.08
599.073	435.63
599.494	419.25
599.914	442.65
600.334	405.21
600.755	302.22
601.175	365.42
601.595	358.39
602.015	402.86
602.436	393.5
602.856	524.57
603.276	414.57
603.696	356.05
604.115	349.03
604.535	423.93
604.955	372.44
605.375	309.24
605.794	349.03
606.214	360.74
606.634	346.69
607.053	395.84
607.473	447.33
607.892	379.46
608.311	402.86
608.731	349.03
609.15	440.31
609.569	536.28
609.988	693.09
610.407	700.11
610.826	735.22
611.245	784.37
611.664	669.69
612.083	597.13
612.501	662.66
612.92	576.06
613.339	569.04
613.757	519.89
614.176	508.19
614.594	503.51
615.013	547.98
615.431	391.16
615.85	501.17
616.268	416.91
616.686	437.97
617.104	384.14
617.522	334.99
617.94	384.14
618.358	374.78
618.776	278.82
619.194	484.78
619.612	442.65
620.03	423.93
620.447	405.21
620.865	400.52
621.282	381.8
621.7	444.99
622.117	435.63
622.535	388.82
622.952	325.63
623.369	423.93
623.787	388.82
624.204	388.82
624.621	412.23
625.038	316.26
625.455	416.91
625.872	342.01
626.289	346.69
626.706	334.99
627.123	339.67
627.539	388.82
627.956	379.46
628.373	386.48
628.789	363.08
629.206	374.78
629.622	365.42
630.038	318.61
630.455	356.05
630.871	395.84
631.287	466.06
631.703	363.08
632.12	381.8
632.536	339.67
632.952	398.18
633.368	372.44
633.783	391.16
634.199	344.35
634.615	342.01
635.031	356.05
635.446	377.12
635.862	334.99
636.277	320.95
636.693	365.42
637.108	363.08
637.524	426.27
637.939	372.44
638.354	318.61
638.77	353.71
639.185	339.67
639.6	304.56
640.015	381.8
640.43	386.48
640.845	330.31
641.259	337.33
641.674	346.69
642.089	344.35
642.504	295.2
642.918	299.88
643.333	278.82
643.747	288.18
644.162	311.58
644.576	356.05
644.991	325.63
645.405	325.63
645.819	400.52
646.233	295.2
646.647	367.76
647.061	302.22
647.475	330.31
647.889	260.09
648.303	309.24
648.717	299.88
649.131	323.29
649.545	332.65
649.958	386.48
650.372	311.58
650.785	269.45
651.199	318.61
651.612	299.88
652.026	323.29
652.439	323.29
652.852	325.63
653.266	353.71
653.679	386.48
654.092	332.65
654.505	346.69
654.918	349.03
655.331	260.09
655.744	309.24
656.156	337.33
656.569	330.31
656.982	356.05
657.394	363.08
657.807	419.25
658.22	344.35
658.632	327.97
659.044	363.08
659.457	367.76
659.869	316.26
660.281	297.54
660.693	325.63
661.106	381.8
661.518	281.16
661.93	367.76
662.342	316.26
662.754	367.76
663.165	269.45
663.577	330.31
663.989	304.56
664.401	353.71
664.812	342.01
665.224	325.63
665.635	299.88
666.047	276.48
666.458	320.95
666.869	309.24
667.281	311.58
667.692	330.31
668.103	257.75
668.514	337.33
668.925	339.67
669.336	285.84
669.747	299.88
670.158	313.92
670.569	283.5
670.979	327.97
671.39	304.56
671.801	325.63
672.211	337.33
672.622	299.88
673.032	311.58
673.443	323.29
673.853	283.5
674.263	363.08
674.674	395.84
675.084	332.65
675.494	253.07
675.904	276.48
676.314	320.95
676.724	257.75
677.134	271.79
677.544	353.71
677.953	332.65
678.363	304.56
678.773	295.2
679.182	339.67
679.592	292.86
680.001	267.11
680.411	323.29
680.82	337.33
681.23	323.29
681.639	346.69
682.048	290.52
682.457	309.24
682.866	344.35
683.275	309.24
683.684	349.03
684.093	292.86
684.502	264.77
684.911	377.12
685.32	217.96
685.728	309.24
686.137	299.88
686.546	290.52
686.954	379.46
687.363	318.61
687.771	250.73
688.179	283.5
688.588	367.76
688.996	342.01
689.404	292.86
689.812	269.45
690.22	351.37
690.628	271.79
691.036	276.48
691.444	327.97
691.852	320.95
692.26	313.92
692.667	297.54
693.075	327.97
693.483	353.71
693.89	379.46
694.298	351.37
694.705	353.71
695.112	353.71
695.52	288.18
695.927	393.5
696.334	295.2
696.741	246.05
697.148	302.22
697.555	260.09
697.962	353.71
698.369	332.65
698.776	271.79
699.183	304.56
699.59	288.18
699.996	306.9
700.403	290.52
700.81	297.54
701.216	239.03
701.623	320.95
702.029	353.71
702.435	334.99
702.842	325.63
703.248	318.61
703.654	304.56
704.06	269.45
704.466	306.9
704.872	339.67
705.278	316.26
705.684	281.16
706.09	353.71
706.496	353.71
706.901	318.61
707.307	339.67
707.712	395.84
708.118	400.52
708.523	381.8
708.929	292.86
709.334	356.05
709.74	379.46
710.145	306.9
710.55	344.35
710.955	351.37
711.36	363.08
711.765	318.61
712.17	283.5
712.575	278.82
712.98	1044.17
713.385	367.76
713.789	264.77
714.194	323.29
714.599	302.22
715.003	346.69
715.408	276.48
715.812	370.1
716.217	299.88
716.621	327.97
717.025	349.03
717.429	318.61
717.833	210.94
718.238	349.03
718.642	297.54
719.046	327.97
719.449	264.77
719.853	332.65
720.257	342.01
720.661	320.95
721.065	283.5
721.468	295.2
721.872	309.24
722.275	342.01
722.679	356.05
723.082	313.92
723.485	267.11
723.889	363.08
724.292	323.29
724.695	292.86
725.098	285.84
725.501	346.69
725.904	311.58
726.307	276.48
726.71	365.42
727.113	267.11
727.516	264.77
727.918	243.71
728.321	295.2
728.724	250.73
729.126	384.14
729.529	379.46
729.931	283.5
730.333	323.29
730.736	316.26
731.138	274.14
731.54	318.61
731.942	346.69
732.344	323.29
732.746	339.67
733.148	342.01
733.55	283.5
733.952	288.18
734.354	271.79
734.756	285.84
735.157	285.84
735.559	267.11
735.96	358.39
736.362	255.41
736.763	304.56
737.165	342.01
737.566	309.24
737.967	323.29
738.368	304.56
738.77	299.88
739.171	318.61
739.572	250.73
739.973	370.1
740.374	327.97
740.774	292.86
741.175	302.22
741.576	306.9
741.977	327.97
742.377	302.22
742.778	290.52
743.178	327.97
743.579	349.03
743.979	316.26
744.379	271.79
744.78	302.22
745.18	349.03
745.58	342.01
745.98	358.39
746.38	316.26
746.78	257.75
747.18	276.48
747.58	285.84
747.98	234.35
748.38	288.18
748.779	356.05
749.179	313.92
749.578	309.24
749.978	236.69
750.377	311.58
750.777	241.37
751.176	276.48
751.575	264.77
751.975	276.48
752.374	248.39
752.773	283.5
753.172	304.56
753.571	323.29
753.97	281.16
754.369	318.61
754.768	360.74
755.166	356.05
755.565	388.82
755.964	358.39
756.362	278.82
756.761	290.52
757.159	344.35
757.558	309.24
757.956	318.61
758.354	339.67
758.753	278.82
759.151	320.95
759.549	302.22
759.947	264.77
760.345	267.11
760.743	353.71
761.141	313.92
761.539	304.56
761.936	295.2
762.334	295.2
762.732	334.99
763.129	365.42
763.527	304.56
763.924	342.01
764.322	299.88
