Data from Al_FLMS009871__101__11-49-26-494.txt Node

Date: Fri Mar 08 11:49:26 CST 2024
User: pe5414po
Spectrometer: FLMS00987
Trigger mode: 0
Integration Time (sec): 1.000000E-1
Scans to average: 1
Electric dark correction enabled: true
Nonlinearity correction enabled: false
Boxcar width: 0
XAxis mode: Wavelengths
Number of Pixels in Spectrum: 2048
>>>>>Begin Spectral Data<<<<<
188.938	-33.65
189.409	-33.65
189.879	-33.65
190.349	-47.69
190.819	-50.03
191.29	-145.99
191.76	-134.29
192.23	-26.62
192.7	-92.16
193.17	-45.35
193.64	-61.73
194.109	20.19
194.579	8.48
195.049	-28.96
195.519	17.85
195.988	-24.28
196.458	45.93
196.927	85.72
197.397	118.49
197.866	146.58
198.336	116.15
198.805	137.21
199.274	172.32
199.744	193.39
200.213	198.07
200.682	186.37
201.151	169.98
201.62	205.09
202.089	179.34
202.558	279.99
203.027	235.52
203.495	279.99
203.964	301.05
204.433	275.31
204.902	277.65
205.37	279.99
205.839	343.18
206.307	261.26
206.776	237.86
207.244	287.01
207.712	249.56
208.181	263.6
208.649	329.14
209.117	312.75
209.585	287.01
210.053	277.65
210.521	261.26
210.989	270.62
211.457	279.99
211.925	277.65
212.393	287.01
212.861	230.84
213.328	240.2
213.796	333.82
214.264	277.65
214.731	235.52
215.199	310.41
215.666	230.84
216.133	296.37
216.601	254.24
217.068	270.62
217.535	265.94
218.003	226.15
218.47	263.6
218.937	167.64
219.404	305.73
219.871	251.9
220.338	261.26
220.805	251.9
221.271	282.33
221.738	263.6
222.205	263.6
222.671	301.05
223.138	263.6
223.605	275.31
224.071	284.67
224.538	209.77
225.004	270.62
225.47	298.71
225.937	219.13
226.403	261.26
226.869	312.75
227.335	282.33
227.801	221.47
228.267	200.41
228.733	305.73
229.199	205.09
229.665	298.71
230.131	305.73
230.597	284.67
231.062	272.96
231.528	315.09
231.994	249.56
232.459	268.28
232.925	312.75
233.39	275.31
233.856	244.88
234.321	301.05
234.786	310.41
235.252	279.99
235.717	298.71
236.182	237.86
236.647	265.94
237.112	223.81
237.577	244.88
238.042	235.52
238.507	378.29
238.972	261.26
239.436	263.6
239.901	251.9
240.366	228.49
240.83	223.81
241.295	296.37
241.76	359.56
242.224	258.92
242.688	270.62
243.153	212.11
243.617	287.01
244.081	205.09
244.545	263.6
245.01	338.5
245.474	258.92
245.938	296.37
246.402	226.15
246.866	242.54
247.33	191.05
247.793	272.96
248.257	235.52
248.721	270.62
249.185	230.84
249.648	209.77
250.112	270.62
250.575	242.54
251.039	287.01
251.502	254.24
251.965	275.31
252.429	235.52
252.892	235.52
253.355	333.82
253.818	265.94
254.281	209.77
254.744	279.99
255.207	270.62
255.67	319.78
256.133	261.26
256.596	275.31
257.059	226.15
257.522	287.01
257.984	247.22
258.447	230.84
258.909	298.71
259.372	289.35
259.834	301.05
260.297	219.13
260.759	263.6
261.221	221.47
261.684	305.73
262.146	279.99
262.608	354.88
263.07	350.2
263.532	287.01
263.994	310.41
264.456	291.69
264.918	235.52
265.38	279.99
265.842	282.33
266.303	312.75
266.765	261.26
267.227	303.39
267.688	319.78
268.15	247.22
268.611	289.35
269.072	244.88
269.534	251.9
269.995	279.99
270.456	289.35
270.918	315.09
271.379	308.07
271.84	268.28
272.301	305.73
272.762	338.5
273.223	277.65
273.684	235.52
274.144	268.28
274.605	263.6
275.066	261.26
275.527	258.92
275.987	303.39
276.448	301.05
276.908	265.94
277.369	301.05
277.829	310.41
278.289	298.71
278.75	289.35
279.21	247.22
279.67	326.8
280.13	228.49
280.59	296.37
281.05	291.69
281.51	275.31
281.97	319.78
282.43	303.39
282.89	268.28
283.35	265.94
283.809	298.71
284.269	354.88
284.729	261.26
285.188	305.73
285.648	284.67
286.107	301.05
286.567	221.47
287.026	333.82
287.485	357.22
287.944	303.39
288.404	261.26
288.863	333.82
289.322	291.69
289.781	219.13
290.24	233.18
290.699	268.28
291.158	249.56
291.616	312.75
292.075	279.99
292.534	272.96
292.992	296.37
293.451	338.5
293.91	317.44
294.368	319.78
294.827	308.07
295.285	310.41
295.743	279.99
296.202	277.65
296.66	331.48
297.118	268.28
297.576	303.39
298.034	305.73
298.492	385.31
298.95	279.99
299.408	357.22
299.866	345.52
300.324	347.86
300.781	289.35
301.239	380.63
301.697	261.26
302.154	329.14
302.612	308.07
303.069	287.01
303.527	324.46
303.984	296.37
304.441	298.71
304.899	324.46
305.356	352.54
305.813	315.09
306.27	319.78
306.727	282.33
307.184	310.41
307.641	324.46
308.098	305.73
308.555	261.26
309.012	242.54
309.468	308.07
309.925	315.09
310.382	296.37
310.838	287.01
311.295	319.78
311.751	343.18
312.208	305.73
312.664	319.78
313.12	329.14
313.577	317.44
314.033	272.96
314.489	301.05
314.945	219.13
315.401	368.93
315.857	282.33
316.313	336.16
316.769	345.52
317.225	354.88
317.681	308.07
318.136	317.44
318.592	315.09
319.048	310.41
319.503	272.96
319.959	310.41
320.414	282.33
320.869	291.69
321.325	317.44
321.78	340.84
322.235	350.2
322.691	378.29
323.146	308.07
323.601	291.69
324.056	294.03
324.511	294.03
324.966	298.71
325.421	366.59
325.875	331.48
326.33	261.26
326.785	317.44
327.24	296.37
327.694	228.49
328.149	350.2
328.603	347.86
329.058	268.28
329.512	315.09
329.966	289.35
330.421	312.75
330.875	303.39
331.329	315.09
331.783	301.05
332.237	338.5
332.691	326.8
333.145	298.71
333.599	282.33
334.053	294.03
334.507	317.44
334.96	249.56
335.414	272.96
335.868	359.56
336.321	359.56
336.775	352.54
337.228	258.92
337.682	289.35
338.135	336.16
338.588	242.54
339.042	315.09
339.495	315.09
339.948	268.28
340.401	277.65
340.854	277.65
341.307	244.88
341.76	347.86
342.213	291.69
342.666	263.6
343.119	315.09
343.571	256.58
344.024	354.88
344.477	294.03
344.929	308.07
345.382	291.69
345.834	261.26
346.287	343.18
346.739	354.88
347.191	287.01
347.644	242.54
348.096	347.86
348.548	404.03
349	254.24
349.452	263.6
349.904	310.41
350.356	284.67
350.808	322.12
351.26	270.62
351.711	317.44
352.163	354.88
352.615	275.31
353.066	326.8
353.518	347.86
353.969	315.09
354.421	305.73
354.872	289.35
355.324	305.73
355.775	279.99
356.226	310.41
356.677	315.09
357.128	357.22
357.579	244.88
358.03	249.56
358.481	308.07
358.932	296.37
359.383	303.39
359.834	284.67
360.285	347.86
360.735	301.05
361.186	315.09
361.637	289.35
362.087	289.35
362.538	298.71
362.988	284.67
363.438	352.54
363.889	333.82
364.339	319.78
364.789	315.09
365.239	312.75
365.689	404.03
366.139	277.65
366.589	303.39
367.039	352.54
367.489	340.84
367.939	340.84
368.389	296.37
368.839	336.16
369.288	343.18
369.738	317.44
370.187	336.16
370.637	338.5
371.086	343.18
371.536	277.65
371.985	287.01
372.434	357.22
372.884	336.16
373.333	329.14
373.782	338.5
374.231	301.05
374.68	331.48
375.129	277.65
375.578	312.75
376.027	350.2
376.475	256.58
376.924	298.71
377.373	315.09
377.822	284.67
378.27	294.03
378.719	336.16
379.167	352.54
379.616	385.31
380.064	312.75
380.512	261.26
380.961	291.69
381.409	301.05
381.857	289.35
382.305	308.07
382.753	319.78
383.201	336.16
383.649	331.48
384.097	343.18
384.545	282.33
384.992	279.99
385.44	301.05
385.888	303.39
386.335	296.37
386.783	242.54
387.231	277.65
387.678	331.48
388.125	364.25
388.573	291.69
389.02	324.46
389.467	319.78
389.914	317.44
390.362	301.05
390.809	340.84
391.256	282.33
391.703	368.93
392.15	333.82
392.596	331.48
393.043	256.58
393.49	308.07
393.937	336.16
394.383	287.01
394.83	308.07
395.276	242.54
395.723	319.78
396.169	301.05
396.616	343.18
397.062	258.92
397.508	343.18
397.954	275.31
398.401	354.88
398.847	389.99
399.293	305.73
399.739	296.37
400.185	345.52
400.631	291.69
401.076	240.2
401.522	310.41
401.968	268.28
402.414	347.86
402.859	387.65
403.305	301.05
403.75	364.25
404.196	343.18
404.641	387.65
405.086	340.84
405.532	308.07
405.977	296.37
406.422	263.6
406.867	317.44
407.312	345.52
407.757	287.01
408.202	282.33
408.647	331.48
409.092	315.09
409.537	338.5
409.982	301.05
410.426	251.9
410.871	340.84
411.316	258.92
411.76	298.71
412.205	345.52
412.649	301.05
413.093	336.16
413.538	324.46
413.982	212.11
414.426	338.5
414.87	279.99
415.314	347.86
415.758	333.82
416.202	338.5
416.646	303.39
417.09	310.41
417.534	298.71
417.978	305.73
418.421	354.88
418.865	350.2
419.309	294.03
419.752	329.14
420.196	282.33
420.639	310.41
421.083	279.99
421.526	359.56
421.969	336.16
422.412	326.8
422.856	331.48
423.299	329.14
423.742	345.52
424.185	352.54
424.628	357.22
425.071	373.61
425.513	279.99
425.956	361.91
426.399	319.78
426.842	336.16
427.284	343.18
427.727	333.82
428.169	333.82
428.612	364.25
429.054	315.09
429.497	333.82
429.939	347.86
430.381	347.86
430.823	343.18
431.265	329.14
431.707	418.08
432.149	406.38
432.591	350.2
433.033	361.91
433.475	368.93
433.917	399.35
434.359	481.27
434.8	462.55
435.242	525.74
435.684	504.68
436.125	492.98
436.567	471.91
437.008	425.1
437.449	420.42
437.891	357.22
438.332	394.67
438.773	350.2
439.214	378.29
439.656	455.53
440.097	439.14
440.538	490.63
440.978	462.55
441.419	429.78
441.86	389.99
442.301	488.29
442.742	509.36
443.182	462.55
443.623	436.8
444.063	446.16
444.504	471.91
444.944	457.87
445.385	457.87
445.825	418.08
446.265	441.48
446.706	495.32
447.146	535.1
447.586	441.48
448.026	507.02
448.466	467.23
448.906	478.93
449.346	439.14
449.786	457.87
450.225	518.72
450.665	399.35
451.105	471.91
451.544	455.53
451.984	441.48
452.424	439.14
452.863	455.53
453.302	467.23
453.742	408.72
454.181	471.91
454.62	469.57
455.059	347.86
455.499	389.99
455.938	380.63
456.377	453.19
456.816	392.33
457.254	397.01
457.693	455.53
458.132	436.8
458.571	406.38
459.01	427.44
459.448	397.01
459.887	404.03
460.325	385.31
460.764	326.8
461.202	361.91
461.641	373.61
462.079	382.97
462.517	331.48
462.955	389.99
463.393	385.31
463.832	380.63
464.27	361.91
464.708	411.06
465.145	361.91
465.583	382.97
466.021	394.67
466.459	347.86
466.897	352.54
467.334	352.54
467.772	413.4
468.209	368.93
468.647	397.01
469.084	371.27
469.522	357.22
469.959	382.97
470.396	411.06
470.833	354.88
471.271	361.91
471.708	350.2
472.145	418.08
472.582	357.22
473.019	371.27
473.456	352.54
473.892	331.48
474.329	380.63
474.766	359.56
475.202	357.22
475.639	399.35
476.076	373.61
476.512	357.22
476.949	270.62
477.385	387.65
477.821	399.35
478.258	324.46
478.694	392.33
479.13	329.14
479.566	382.97
480.002	385.31
480.438	333.82
480.874	422.76
481.31	317.44
481.746	366.59
482.181	336.16
482.617	436.8
483.053	378.29
483.488	347.86
483.924	368.93
484.36	399.35
484.795	357.22
485.23	397.01
485.666	429.78
486.101	378.29
486.536	357.22
486.971	392.33
487.407	429.78
487.842	394.67
488.277	392.33
488.712	411.06
489.146	404.03
489.581	455.53
490.016	411.06
490.451	446.16
490.885	408.72
491.32	467.23
491.755	464.89
492.189	347.86
492.624	413.4
493.058	436.8
493.492	380.63
493.927	352.54
494.361	368.93
494.795	406.38
495.229	441.48
495.663	394.67
496.097	394.67
496.531	397.01
496.965	373.61
497.399	368.93
497.833	397.01
498.266	350.2
498.7	443.82
499.134	441.48
499.567	397.01
500.001	317.44
500.434	387.65
500.868	359.56
501.301	368.93
501.734	373.61
502.168	380.63
502.601	359.56
503.034	345.52
503.467	354.88
503.9	371.27
504.333	427.44
504.766	354.88
505.199	404.03
505.632	385.31
506.064	432.12
506.497	399.35
506.93	413.4
507.362	368.93
507.795	420.42
508.227	387.65
508.66	375.95
509.092	378.29
509.524	392.33
509.956	375.95
510.389	359.56
510.821	457.87
511.253	364.25
511.685	361.91
512.117	378.29
512.549	350.2
512.981	357.22
513.412	352.54
513.844	422.76
514.276	378.29
514.707	448.51
515.139	345.52
515.571	399.35
516.002	420.42
516.433	397.01
516.865	413.4
517.296	357.22
517.727	441.48
518.159	413.4
518.59	392.33
519.021	411.06
519.452	378.29
519.883	415.74
520.314	359.56
520.744	324.46
521.175	408.72
521.606	373.61
522.037	401.69
522.467	317.44
522.898	371.27
523.328	422.76
523.759	441.48
524.189	385.31
524.62	427.44
525.05	371.27
525.48	453.19
525.91	457.87
526.341	401.69
526.771	399.35
527.201	385.31
527.631	443.82
528.061	408.72
528.49	380.63
528.92	385.31
529.35	411.06
529.78	392.33
530.209	389.99
530.639	408.72
531.068	401.69
531.498	394.67
531.927	385.31
532.357	375.95
532.786	380.63
533.215	343.18
533.644	373.61
534.074	411.06
534.503	439.14
534.932	422.76
535.361	404.03
535.79	385.31
536.218	389.99
536.647	399.35
537.076	401.69
537.505	406.38
537.933	429.78
538.362	404.03
538.79	441.48
539.219	497.66
539.647	485.95
540.076	525.74
540.504	546.81
540.932	635.75
541.36	617.02
541.788	680.22
542.217	691.92
542.645	729.37
543.073	708.3
543.5	694.26
543.928	722.35
544.356	708.3
544.784	727.03
545.211	736.39
545.639	663.83
546.067	654.47
546.494	614.68
546.922	614.68
547.349	488.29
547.776	492.98
548.204	516.38
548.631	539.79
549.058	464.89
549.485	481.27
549.912	422.76
550.339	509.36
550.766	436.8
551.193	474.25
551.62	471.91
552.047	509.36
552.474	453.19
552.9	511.7
553.327	492.98
553.754	406.38
554.18	392.33
554.607	401.69
555.033	441.48
555.459	460.21
555.886	406.38
556.312	460.21
556.738	371.27
557.164	378.29
557.59	364.25
558.016	373.61
558.442	378.29
558.868	375.95
559.294	364.25
559.72	399.35
560.145	371.27
560.571	392.33
560.997	415.74
561.422	315.09
561.848	361.91
562.273	427.44
562.699	389.99
563.124	425.1
563.549	432.12
563.974	338.5
564.4	394.67
564.825	408.72
565.25	382.97
565.675	471.91
566.1	392.33
566.525	378.29
566.95	371.27
567.374	460.21
567.799	434.46
568.224	408.72
568.648	387.65
569.073	436.8
569.497	429.78
569.922	397.01
570.346	361.91
570.771	434.46
571.195	404.03
571.619	380.63
572.043	397.01
572.467	408.72
572.891	401.69
573.315	448.51
573.739	366.59
574.163	373.61
574.587	408.72
575.011	432.12
575.435	441.48
575.858	401.69
576.282	474.25
576.705	418.08
577.129	462.55
577.552	406.38
577.976	460.21
578.399	427.44
578.822	422.76
579.245	434.46
579.669	443.82
580.092	382.97
580.515	394.67
580.938	434.46
581.361	471.91
581.784	373.61
582.206	357.22
582.629	439.14
583.052	429.78
583.474	425.1
583.897	469.57
584.32	471.91
584.742	418.08
585.165	441.48
585.587	411.06
586.009	504.68
586.431	429.78
586.854	492.98
587.276	429.78
587.698	436.8
588.12	385.31
588.542	460.21
588.964	352.54
589.386	464.89
589.807	441.48
590.229	443.82
590.651	382.97
591.073	371.27
591.494	385.31
591.916	364.25
592.337	397.01
592.759	375.95
593.18	408.72
593.601	448.51
594.022	361.91
594.444	359.56
594.865	485.95
595.286	404.03
595.707	446.16
596.128	404.03
596.549	368.93
596.97	413.4
597.39	308.07
597.811	352.54
598.232	387.65
598.652	411.06
599.073	443.82
599.494	333.82
599.914	385.31
600.334	354.88
600.755	404.03
601.175	368.93
601.595	352.54
602.015	368.93
602.436	432.12
602.856	495.32
603.276	382.97
603.696	361.91
604.115	322.12
604.535	326.8
604.955	352.54
605.375	371.27
605.794	394.67
606.214	354.88
606.634	399.35
607.053	464.89
607.473	394.67
607.892	415.74
608.311	361.91
608.731	352.54
609.15	408.72
609.569	551.49
609.988	645.11
610.407	684.9
610.826	750.43
611.245	825.33
611.664	722.35
612.083	638.09
612.501	598.3
612.92	560.85
613.339	598.3
613.757	462.55
614.176	537.45
614.594	408.72
615.013	492.98
615.431	450.85
615.85	471.91
616.268	448.51
616.686	418.08
617.104	408.72
617.522	359.56
617.94	364.25
618.358	436.8
618.776	338.5
619.194	404.03
619.612	429.78
620.03	502.34
620.447	399.35
620.865	415.74
621.282	340.84
621.7	389.99
622.117	333.82
622.535	371.27
622.952	354.88
623.369	354.88
623.787	404.03
624.204	380.63
624.621	394.67
625.038	389.99
625.455	394.67
625.872	382.97
626.289	352.54
626.706	298.71
627.123	375.95
627.539	350.2
627.956	347.86
628.373	427.44
628.789	385.31
629.206	382.97
629.622	326.8
630.038	373.61
630.455	418.08
630.871	350.2
631.287	389.99
631.703	277.65
632.12	413.4
632.536	310.41
632.952	392.33
633.368	366.59
633.783	427.44
634.199	279.99
634.615	345.52
635.031	324.46
635.446	303.39
635.862	324.46
636.277	352.54
636.693	361.91
637.108	296.37
637.524	308.07
637.939	385.31
638.354	343.18
638.77	347.86
639.185	371.27
639.6	347.86
640.015	373.61
640.43	394.67
640.845	359.56
641.259	347.86
641.674	289.35
642.089	319.78
642.504	387.65
642.918	364.25
643.333	312.75
643.747	343.18
644.162	359.56
644.576	289.35
644.991	347.86
645.405	406.38
645.819	352.54
646.233	387.65
646.647	347.86
647.061	326.8
647.475	312.75
647.889	352.54
648.303	373.61
648.717	279.99
649.131	324.46
649.545	326.8
649.958	319.78
650.372	371.27
650.785	352.54
651.199	385.31
651.612	366.59
652.026	322.12
652.439	310.41
652.852	315.09
653.266	279.99
653.679	336.16
654.092	392.33
654.505	275.31
654.918	338.5
655.331	375.95
655.744	366.59
656.156	329.14
656.569	284.67
656.982	326.8
657.394	331.48
657.807	308.07
658.22	275.31
658.632	350.2
659.044	333.82
659.457	397.01
659.869	338.5
660.281	312.75
660.693	336.16
661.106	315.09
661.518	331.48
661.93	345.52
662.342	261.26
662.754	296.37
663.165	310.41
663.577	373.61
663.989	371.27
664.401	249.56
664.812	282.33
665.224	312.75
665.635	347.86
666.047	324.46
666.458	301.05
666.869	364.25
667.281	336.16
667.692	294.03
668.103	310.41
668.514	331.48
668.925	282.33
669.336	324.46
669.747	354.88
670.158	317.44
670.569	294.03
670.979	294.03
671.39	385.31
671.801	249.56
672.211	305.73
672.622	284.67
673.032	350.2
673.443	308.07
673.853	268.28
674.263	352.54
674.674	308.07
675.084	279.99
675.494	282.33
675.904	343.18
676.314	375.95
676.724	310.41
677.134	296.37
677.544	308.07
677.953	310.41
678.363	345.52
678.773	382.97
679.182	324.46
679.592	296.37
680.001	298.71
680.411	268.28
680.82	258.92
681.23	277.65
681.639	291.69
682.048	352.54
682.457	319.78
682.866	296.37
683.275	352.54
683.684	368.93
684.093	310.41
684.502	317.44
684.911	301.05
685.32	277.65
685.728	350.2
686.137	312.75
686.546	277.65
686.954	312.75
687.363	432.12
687.771	312.75
688.179	373.61
688.588	310.41
688.996	275.31
689.404	340.84
689.812	378.29
690.22	366.59
690.628	308.07
691.036	303.39
691.444	289.35
691.852	354.88
692.26	265.94
692.667	338.5
693.075	326.8
693.483	366.59
693.89	310.41
694.298	308.07
694.705	345.52
695.112	329.14
695.52	284.67
695.927	322.12
696.334	207.43
696.741	315.09
697.148	308.07
697.555	294.03
697.962	322.12
698.369	354.88
698.776	301.05
699.183	282.33
699.59	308.07
699.996	312.75
700.403	399.35
700.81	312.75
701.216	312.75
701.623	333.82
702.029	237.86
702.435	329.14
702.842	350.2
703.248	303.39
703.654	277.65
704.06	256.58
704.466	345.52
704.872	336.16
705.278	387.65
705.684	371.27
706.09	289.35
706.496	319.78
706.901	277.65
707.307	350.2
707.712	263.6
708.118	310.41
708.523	284.67
708.929	329.14
709.334	364.25
709.74	326.8
710.145	350.2
710.55	312.75
710.955	340.84
711.36	366.59
711.765	343.18
712.17	303.39
712.575	279.99
712.98	1043
713.385	401.69
713.789	310.41
714.194	284.67
714.599	329.14
715.003	303.39
715.408	357.22
715.812	303.39
716.217	317.44
716.621	294.03
717.025	298.71
717.429	303.39
717.833	294.03
718.238	249.56
718.642	308.07
719.046	291.69
719.449	214.45
719.853	251.9
720.257	319.78
720.661	315.09
721.065	322.12
721.468	315.09
721.872	315.09
722.275	270.62
722.679	258.92
723.082	303.39
723.485	324.46
723.889	254.24
724.292	291.69
724.695	291.69
725.098	308.07
725.501	329.14
725.904	233.18
726.307	392.33
726.71	284.67
727.113	282.33
727.516	326.8
727.918	385.31
728.321	301.05
728.724	350.2
729.126	303.39
729.529	347.86
729.931	289.35
730.333	298.71
730.736	228.49
731.138	308.07
731.54	378.29
731.942	361.91
732.344	310.41
732.746	308.07
733.148	263.6
733.55	336.16
733.952	258.92
734.354	256.58
734.756	258.92
735.157	350.2
735.559	319.78
735.96	277.65
736.362	350.2
736.763	319.78
737.165	331.48
737.566	298.71
737.967	319.78
738.368	340.84
738.77	261.26
739.171	336.16
739.572	347.86
739.973	340.84
740.374	354.88
740.774	315.09
741.175	315.09
741.576	336.16
741.977	382.97
742.377	343.18
742.778	272.96
743.178	282.33
743.579	310.41
743.979	277.65
744.379	235.52
744.78	350.2
745.18	312.75
745.58	256.58
745.98	343.18
746.38	317.44
746.78	359.56
747.18	340.84
747.58	312.75
747.98	315.09
748.38	263.6
748.779	317.44
749.179	322.12
749.578	289.35
749.978	315.09
750.377	322.12
750.777	254.24
751.176	256.58
751.575	408.72
751.975	305.73
752.374	308.07
752.773	270.62
753.172	303.39
753.571	291.69
753.97	305.73
754.369	310.41
754.768	287.01
755.166	326.8
755.565	275.31
755.964	408.72
756.362	308.07
756.761	352.54
757.159	272.96
757.558	354.88
757.956	333.82
758.354	305.73
758.753	263.6
759.151	303.39
759.549	343.18
759.947	352.54
760.345	343.18
760.743	298.71
761.141	326.8
761.539	375.95
761.936	287.01
762.334	277.65
762.732	263.6
763.129	319.78
763.527	298.71
763.924	357.22
764.322	357.22
