Data from Al_FLMS009871__115__11-49-27-894.txt Node

Date: Fri Mar 08 11:49:27 CST 2024
User: pe5414po
Spectrometer: FLMS00987
Trigger mode: 0
Integration Time (sec): 1.000000E-1
Scans to average: 1
Electric dark correction enabled: true
Nonlinearity correction enabled: false
Boxcar width: 0
XAxis mode: Wavelengths
Number of Pixels in Spectrum: 2048
>>>>>Begin Spectral Data<<<<<
188.938	-55.3
189.409	-55.3
189.879	-55.3
190.349	-109.13
190.819	-90.4
191.29	-71.68
191.76	-113.81
192.23	-92.74
192.7	-55.3
193.17	-8.48
193.64	-144.24
194.109	-57.64
194.579	3.22
195.049	-43.59
195.519	45.35
195.988	61.73
196.458	59.39
196.927	89.82
197.397	113.22
197.866	129.61
198.336	85.14
198.805	122.59
199.274	113.22
199.744	199.82
200.213	167.06
200.682	195.14
201.151	213.87
201.62	265.36
202.089	178.76
202.558	213.87
203.027	288.76
203.495	256
203.964	263.02
204.433	256
204.902	298.13
205.37	218.55
205.839	361.32
206.307	377.7
206.776	277.06
207.244	288.76
207.712	356.64
208.181	272.38
208.649	253.66
209.117	277.06
209.585	321.53
210.053	288.76
210.521	246.63
210.989	330.89
211.457	281.74
211.925	263.02
212.393	246.63
212.861	333.23
213.328	272.38
213.796	288.76
214.264	265.36
214.731	216.21
215.199	328.55
215.666	251.32
216.133	340.26
216.601	281.74
217.068	227.91
217.535	298.13
218.003	260.68
218.47	291.1
218.937	246.63
219.404	206.84
219.871	270.04
220.338	218.55
220.805	237.27
221.271	248.97
221.738	284.08
222.205	195.14
222.671	202.16
223.138	309.83
223.605	248.97
224.071	244.29
224.538	218.55
225.004	211.53
225.47	265.36
225.937	281.74
226.403	232.59
226.869	277.06
227.335	244.29
227.801	225.57
228.267	246.63
228.733	279.4
229.199	319.19
229.665	265.36
230.131	284.08
230.597	267.7
231.062	279.4
231.528	270.04
231.994	314.51
232.459	281.74
232.925	211.53
233.39	298.13
233.856	288.76
234.321	328.55
234.786	251.32
235.252	277.06
235.717	251.32
236.182	204.5
236.647	316.85
237.112	227.91
237.577	286.42
238.042	274.72
238.507	227.91
238.972	274.72
239.436	267.7
239.901	305.15
240.366	263.02
240.83	337.91
241.295	300.47
241.76	253.66
242.224	267.7
242.688	237.27
243.153	316.85
243.617	307.49
244.081	265.36
244.545	366
245.01	305.15
245.474	288.76
245.938	256
246.402	295.79
246.866	241.95
247.33	234.93
247.793	354.3
248.257	225.57
248.721	211.53
249.185	330.89
249.648	349.62
250.112	274.72
250.575	223.23
251.039	291.1
251.502	281.74
251.965	239.61
252.429	253.66
252.892	288.76
253.355	274.72
253.818	279.4
254.281	286.42
254.744	293.44
255.207	260.68
255.67	263.02
256.133	241.95
256.596	258.34
257.059	314.51
257.522	241.95
257.984	298.13
258.447	321.53
258.909	291.1
259.372	263.02
259.834	307.49
260.297	312.17
260.759	281.74
261.221	288.76
261.684	251.32
262.146	316.85
262.608	258.34
263.07	330.89
263.532	321.53
263.994	340.26
264.456	288.76
264.918	267.7
265.38	230.25
265.842	347.28
266.303	319.19
266.765	298.13
267.227	272.38
267.688	305.15
268.15	326.21
268.611	321.53
269.072	256
269.534	284.08
269.995	328.55
270.456	298.13
270.918	351.96
271.379	220.89
271.84	300.47
272.301	237.27
272.762	335.57
273.223	281.74
273.684	291.1
274.144	256
274.605	281.74
275.066	274.72
275.527	274.72
275.987	256
276.448	319.19
276.908	326.21
277.369	305.15
277.829	337.91
278.289	305.15
278.75	316.85
279.21	312.17
279.67	281.74
280.13	298.13
280.59	291.1
281.05	293.44
281.51	366
281.97	340.26
282.43	256
282.89	335.57
283.35	248.97
283.809	270.04
284.269	291.1
284.729	286.42
285.188	335.57
285.648	314.51
286.107	279.4
286.567	279.4
287.026	234.93
287.485	312.17
287.944	305.15
288.404	241.95
288.863	251.32
289.322	279.4
289.781	263.02
290.24	286.42
290.699	382.39
291.158	326.21
291.616	237.27
292.075	279.4
292.534	286.42
292.992	284.08
293.451	265.36
293.91	291.1
294.368	293.44
294.827	305.15
295.285	277.06
295.743	272.38
296.202	270.04
296.66	258.34
297.118	291.1
297.576	244.29
298.034	316.85
298.492	274.72
298.95	281.74
299.408	251.32
299.866	302.81
300.324	307.49
300.781	333.23
301.239	321.53
301.697	274.72
302.154	295.79
302.612	326.21
303.069	333.23
303.527	356.64
303.984	253.66
304.441	333.23
304.899	302.81
305.356	291.1
305.813	363.66
306.27	279.4
306.727	277.06
307.184	267.7
307.641	330.89
308.098	223.23
308.555	316.85
309.012	323.87
309.468	258.34
309.925	248.97
310.382	340.26
310.838	288.76
311.295	295.79
311.751	356.64
312.208	333.23
312.664	291.1
313.12	274.72
313.577	319.19
314.033	312.17
314.489	295.79
314.945	298.13
315.401	258.34
315.857	307.49
316.313	281.74
316.769	291.1
317.225	270.04
317.681	328.55
318.136	298.13
318.592	232.59
319.048	321.53
319.503	251.32
319.959	260.68
320.414	293.44
320.869	307.49
321.325	305.15
321.78	279.4
322.235	298.13
322.691	225.57
323.146	316.85
323.601	253.66
324.056	316.85
324.511	340.26
324.966	256
325.421	321.53
325.875	307.49
326.33	293.44
326.785	244.29
327.24	286.42
327.694	286.42
328.149	274.72
328.603	267.7
329.058	326.21
329.512	361.32
329.966	286.42
330.421	333.23
330.875	258.34
331.329	223.23
331.783	272.38
332.237	295.79
332.691	263.02
333.145	211.53
333.599	330.89
334.053	340.26
334.507	300.47
334.96	344.94
335.414	291.1
335.868	347.28
336.321	286.42
336.775	279.4
337.228	373.02
337.682	302.81
338.135	241.95
338.588	342.6
339.042	298.13
339.495	265.36
339.948	333.23
340.401	326.21
340.854	333.23
341.307	298.13
341.76	337.91
342.213	295.79
342.666	312.17
343.119	281.74
343.571	312.17
344.024	373.02
344.477	337.91
344.929	281.74
345.382	363.66
345.834	211.53
346.287	288.76
346.739	256
347.191	274.72
347.644	274.72
348.096	314.51
348.548	326.21
349	234.93
349.452	347.28
349.904	314.51
350.356	361.32
350.808	265.36
351.26	260.68
351.711	358.98
352.163	314.51
352.615	347.28
353.066	342.6
353.518	302.81
353.969	394.09
354.421	333.23
354.872	279.4
355.324	333.23
355.775	319.19
356.226	368.34
356.677	337.91
357.128	302.81
357.579	281.74
358.03	284.08
358.481	309.83
358.932	298.13
359.383	272.38
359.834	363.66
360.285	337.91
360.735	270.04
361.186	335.57
361.637	340.26
362.087	284.08
362.538	349.62
362.988	340.26
363.438	274.72
363.889	305.15
364.339	286.42
364.789	394.09
365.239	328.55
365.689	291.1
366.139	328.55
366.589	319.19
367.039	270.04
367.489	354.3
367.939	316.85
368.389	298.13
368.839	358.98
369.288	354.3
369.738	312.17
370.187	321.53
370.637	293.44
371.086	323.87
371.536	316.85
371.985	281.74
372.434	300.47
372.884	361.32
373.333	333.23
373.782	265.36
374.231	293.44
374.68	316.85
375.129	328.55
375.578	309.83
376.027	277.06
376.475	192.8
376.924	312.17
377.373	349.62
377.822	321.53
378.27	286.42
378.719	281.74
379.167	295.79
379.616	337.91
380.064	323.87
380.512	337.91
380.961	274.72
381.409	309.83
381.857	391.75
382.305	272.38
382.753	335.57
383.201	309.83
383.649	326.21
384.097	321.53
384.545	307.49
384.992	260.68
385.44	316.85
385.888	270.04
386.335	347.28
386.783	344.94
387.231	312.17
387.678	340.26
388.125	358.98
388.573	307.49
389.02	321.53
389.467	281.74
389.914	281.74
390.362	375.36
390.809	298.13
391.256	281.74
391.703	293.44
392.15	363.66
392.596	349.62
393.043	321.53
393.49	377.7
393.937	281.74
394.383	256
394.83	323.87
395.276	300.47
395.723	277.06
396.169	237.27
396.616	295.79
397.062	356.64
397.508	288.76
397.954	234.93
398.401	319.19
398.847	286.42
399.293	307.49
399.739	274.72
400.185	354.3
400.631	265.36
401.076	333.23
401.522	326.21
401.968	361.32
402.414	298.13
402.859	389.41
403.305	337.91
403.75	326.21
404.196	323.87
404.641	349.62
405.086	342.6
405.532	312.17
405.977	284.08
406.422	347.28
406.867	272.38
407.312	394.09
407.757	356.64
408.202	305.15
408.647	335.57
409.092	312.17
409.537	307.49
409.982	316.85
410.426	422.17
410.871	330.89
411.316	314.51
411.76	321.53
412.205	279.4
412.649	307.49
413.093	337.91
413.538	305.15
413.982	286.42
414.426	344.94
414.87	279.4
415.314	340.26
415.758	295.79
416.202	347.28
416.646	326.21
417.09	316.85
417.534	277.06
417.978	319.19
418.421	302.81
418.865	260.68
419.309	316.85
419.752	351.96
420.196	363.66
420.639	263.02
421.083	326.21
421.526	363.66
421.969	281.74
422.412	344.94
422.856	316.85
423.299	344.94
423.742	298.13
424.185	349.62
424.628	326.21
425.071	340.26
425.513	344.94
425.956	377.7
426.399	366
426.842	298.13
427.284	384.73
427.727	321.53
428.169	375.36
428.612	391.75
429.054	396.43
429.497	284.08
429.939	342.6
430.381	415.15
430.823	354.3
431.265	380.04
431.707	342.6
432.149	408.13
432.591	342.6
433.033	358.98
433.475	389.41
433.917	366
434.359	408.13
434.8	459.62
435.242	450.26
435.684	590.69
436.125	485.37
436.567	464.3
437.008	363.66
437.449	401.11
437.891	443.24
438.332	461.96
438.773	408.13
439.214	401.11
439.656	476.01
440.097	492.39
440.538	431.54
440.978	417.49
441.419	471.33
441.86	504.09
442.301	473.67
442.742	480.69
443.182	464.3
443.623	394.09
444.063	452.6
444.504	515.8
444.944	473.67
445.385	468.98
445.825	424.51
446.265	478.35
446.706	452.6
447.146	464.3
447.586	499.41
448.026	497.07
448.466	485.37
448.906	515.8
449.346	412.81
449.786	408.13
450.225	461.96
450.665	466.64
451.105	452.6
451.544	443.24
451.984	398.77
452.424	436.22
452.863	438.56
453.302	440.9
453.742	483.03
454.181	431.54
454.62	459.62
455.059	419.83
455.499	447.92
455.938	468.98
456.377	466.64
456.816	405.79
457.254	476.01
457.693	447.92
458.132	429.2
458.571	354.3
459.01	408.13
459.448	382.39
459.887	457.28
460.325	396.43
460.764	358.98
461.202	370.68
461.641	382.39
462.079	387.07
462.517	468.98
462.955	375.36
463.393	380.04
463.832	387.07
464.27	333.23
464.708	401.11
465.145	377.7
465.583	333.23
466.021	398.77
466.459	412.81
466.897	358.98
467.334	361.32
467.772	384.73
468.209	408.13
468.647	391.75
469.084	333.23
469.522	370.68
469.959	349.62
470.396	347.28
470.833	298.13
471.271	366
471.708	342.6
472.145	347.28
472.582	349.62
473.019	349.62
473.456	363.66
473.892	328.55
474.329	382.39
474.766	398.77
475.202	370.68
475.639	354.3
476.076	373.02
476.512	340.26
476.949	342.6
477.385	267.7
477.821	387.07
478.258	382.39
478.694	356.64
479.13	342.6
479.566	337.91
480.002	347.28
480.438	419.83
480.874	326.21
481.31	347.28
481.746	340.26
482.181	382.39
482.617	368.34
483.053	405.79
483.488	382.39
483.924	347.28
484.36	410.47
484.795	478.35
485.23	417.49
485.666	419.83
486.101	424.51
486.536	438.56
486.971	419.83
487.407	408.13
487.842	429.2
488.277	412.81
488.712	405.79
489.146	452.6
489.581	417.49
490.016	401.11
490.451	443.24
490.885	436.22
491.32	366
491.755	408.13
492.189	438.56
492.624	408.13
493.058	380.04
493.492	447.92
493.927	431.54
494.361	358.98
494.795	431.54
495.229	398.77
495.663	410.47
496.097	382.39
496.531	380.04
496.965	387.07
497.399	314.51
497.833	415.15
498.266	396.43
498.7	422.17
499.134	422.17
499.567	422.17
500.001	417.49
500.434	426.86
500.868	387.07
501.301	396.43
501.734	391.75
502.168	347.28
502.601	417.49
503.034	351.96
503.467	384.73
503.9	396.43
504.333	368.34
504.766	356.64
505.199	403.45
505.632	349.62
506.064	408.13
506.497	366
506.93	363.66
507.362	396.43
507.795	380.04
508.227	347.28
508.66	335.57
509.092	410.47
509.524	375.36
509.956	356.64
510.389	373.02
510.821	377.7
511.253	410.47
511.685	382.39
512.117	387.07
512.549	410.47
512.981	380.04
513.412	405.79
513.844	405.79
514.276	445.58
514.707	457.28
515.139	370.68
515.571	412.81
516.002	473.67
516.433	375.36
516.865	368.34
517.296	366
517.727	387.07
518.159	375.36
518.59	429.2
519.021	426.86
519.452	368.34
519.883	398.77
520.314	344.94
520.744	433.88
521.175	333.23
521.606	370.68
522.037	380.04
522.467	447.92
522.898	398.77
523.328	375.36
523.759	426.86
524.189	394.09
524.62	415.15
525.05	422.17
525.48	419.83
525.91	412.81
526.341	307.49
526.771	394.09
527.201	410.47
527.631	466.64
528.061	330.89
528.49	452.6
528.92	429.2
529.35	363.66
529.78	373.02
530.209	398.77
530.639	464.3
531.068	476.01
531.498	433.88
531.927	391.75
532.357	389.41
532.786	403.45
533.215	419.83
533.644	422.17
534.074	363.66
534.503	403.45
534.932	387.07
535.361	410.47
535.79	452.6
536.218	415.15
536.647	452.6
537.076	389.41
537.505	354.3
537.933	412.81
538.362	408.13
538.79	459.62
539.219	534.52
539.647	494.73
540.076	513.46
540.504	511.11
540.932	546.22
541.36	616.44
541.788	644.53
542.217	616.44
542.645	689
543.073	628.14
543.5	611.76
543.928	705.38
544.356	625.8
544.784	726.44
545.211	784.96
545.639	726.44
546.067	703.04
546.494	639.84
546.922	609.42
547.349	513.46
547.776	520.48
548.204	471.33
548.631	464.3
549.058	466.64
549.485	433.88
549.912	459.62
550.339	478.35
550.766	492.39
551.193	476.01
551.62	459.62
552.047	410.47
552.474	443.24
552.9	468.98
553.327	490.05
553.754	387.07
554.18	424.51
554.607	384.73
555.033	401.11
555.459	431.54
555.886	403.45
556.312	412.81
556.738	387.07
557.164	443.24
557.59	363.66
558.016	382.39
558.442	447.92
558.868	426.86
559.294	403.45
559.72	405.79
560.145	415.15
560.571	424.51
560.997	398.77
561.422	382.39
561.848	403.45
562.273	398.77
562.699	440.9
563.124	445.58
563.549	438.56
563.974	391.75
564.4	384.73
564.825	391.75
565.25	408.13
565.675	415.15
566.1	410.47
566.525	382.39
566.95	405.79
567.374	394.09
567.799	337.91
568.224	354.3
568.648	387.07
569.073	375.36
569.497	424.51
569.922	363.66
570.346	330.89
570.771	328.55
571.195	373.02
571.619	483.03
572.043	424.51
572.467	356.64
572.891	429.2
573.315	387.07
573.739	403.45
574.163	380.04
574.587	438.56
575.011	307.49
575.435	351.96
575.858	410.47
576.282	370.68
576.705	424.51
577.129	424.51
577.552	431.54
577.976	401.11
578.399	426.86
578.822	412.81
579.245	440.9
579.669	457.28
580.092	476.01
580.515	370.68
580.938	387.07
581.361	373.02
581.784	480.69
582.206	401.11
582.629	445.58
583.052	464.3
583.474	522.82
583.897	440.9
584.32	377.7
584.742	464.3
585.165	445.58
585.587	373.02
586.009	424.51
586.431	459.62
586.854	403.45
587.276	366
587.698	415.15
588.12	417.49
588.542	387.07
588.964	485.37
589.386	433.88
589.807	412.81
590.229	394.09
590.651	361.32
591.073	415.15
591.494	375.36
591.916	447.92
592.337	377.7
592.759	408.13
593.18	431.54
593.601	405.79
594.022	401.11
594.444	394.09
594.865	431.54
595.286	396.43
595.707	394.09
596.128	452.6
596.549	363.66
596.97	438.56
597.39	431.54
597.811	373.02
598.232	375.36
598.652	387.07
599.073	373.02
599.494	396.43
599.914	358.98
600.334	354.3
600.755	398.77
601.175	335.57
601.595	361.32
602.015	478.35
602.436	396.43
602.856	539.2
603.276	391.75
603.696	342.6
604.115	447.92
604.535	356.64
604.955	370.68
605.375	466.64
605.794	366
606.214	321.53
606.634	326.21
607.053	380.04
607.473	415.15
607.892	410.47
608.311	445.58
608.731	429.2
609.15	426.86
609.569	511.11
609.988	621.12
610.407	759.21
610.826	747.51
611.245	759.21
611.664	759.21
612.083	670.27
612.501	574.31
612.92	555.58
613.339	513.46
613.757	508.77
614.176	473.67
614.594	426.86
615.013	464.3
615.431	433.88
615.85	436.22
616.268	412.81
616.686	417.49
617.104	389.41
617.522	323.87
617.94	450.26
618.358	438.56
618.776	417.49
619.194	422.17
619.612	384.73
620.03	419.83
620.447	391.75
620.865	380.04
621.282	354.3
621.7	391.75
622.117	438.56
622.535	373.02
622.952	351.96
623.369	387.07
623.787	401.11
624.204	368.34
624.621	358.98
625.038	417.49
625.455	394.09
625.872	321.53
626.289	370.68
626.706	356.64
627.123	403.45
627.539	363.66
627.956	361.32
628.373	351.96
628.789	405.79
629.206	410.47
629.622	368.34
630.038	366
630.455	361.32
630.871	370.68
631.287	391.75
631.703	380.04
632.12	335.57
632.536	309.83
632.952	370.68
633.368	358.98
633.783	380.04
634.199	363.66
634.615	326.21
635.031	351.96
635.446	389.41
635.862	323.87
636.277	401.11
636.693	335.57
637.108	291.1
637.524	281.74
637.939	263.02
638.354	391.75
638.77	312.17
639.185	429.2
639.6	344.94
640.015	433.88
640.43	312.17
640.845	342.6
641.259	241.95
641.674	330.89
642.089	286.42
642.504	319.19
642.918	263.02
643.333	316.85
643.747	300.47
644.162	305.15
644.576	298.13
644.991	326.21
645.405	344.94
645.819	307.49
646.233	328.55
646.647	312.17
647.061	405.79
647.475	387.07
647.889	307.49
648.303	358.98
648.717	230.25
649.131	314.51
649.545	328.55
649.958	373.02
650.372	375.36
650.785	295.79
651.199	370.68
651.612	340.26
652.026	373.02
652.439	279.4
652.852	342.6
653.266	328.55
653.679	389.41
654.092	349.62
654.505	401.11
654.918	361.32
655.331	321.53
655.744	347.28
656.156	356.64
656.569	335.57
656.982	319.19
657.394	342.6
657.807	256
658.22	335.57
658.632	335.57
659.044	279.4
659.457	291.1
659.869	337.91
660.281	260.68
660.693	354.3
661.106	288.76
661.518	363.66
661.93	368.34
662.342	349.62
662.754	279.4
663.165	358.98
663.577	302.81
663.989	333.23
664.401	361.32
664.812	293.44
665.224	309.83
665.635	253.66
666.047	333.23
666.458	366
666.869	347.28
667.281	340.26
667.692	363.66
668.103	319.19
668.514	293.44
668.925	349.62
669.336	314.51
669.747	330.89
670.158	284.08
670.569	295.79
670.979	309.83
671.39	375.36
671.801	351.96
672.211	333.23
672.622	277.06
673.032	354.3
673.443	387.07
673.853	370.68
674.263	375.36
674.674	337.91
675.084	321.53
675.494	314.51
675.904	258.34
676.314	368.34
676.724	330.89
677.134	277.06
677.544	351.96
677.953	328.55
678.363	272.38
678.773	305.15
679.182	370.68
679.592	305.15
680.001	326.21
680.411	354.3
680.82	258.34
681.23	309.83
681.639	412.81
682.048	307.49
682.457	293.44
682.866	305.15
683.275	293.44
683.684	373.02
684.093	312.17
684.502	328.55
684.911	300.47
685.32	398.77
685.728	284.08
686.137	333.23
686.546	330.89
686.954	354.3
687.363	309.83
687.771	333.23
688.179	234.93
688.588	347.28
688.996	307.49
689.404	260.68
689.812	361.32
690.22	302.81
690.628	321.53
691.036	344.94
691.444	326.21
691.852	347.28
692.26	309.83
692.667	319.19
693.075	321.53
693.483	298.13
693.89	293.44
694.298	274.72
694.705	326.21
695.112	309.83
695.52	349.62
695.927	337.91
696.334	281.74
696.741	321.53
697.148	312.17
697.555	314.51
697.962	316.85
698.369	293.44
698.776	328.55
699.183	309.83
699.59	272.38
699.996	354.3
700.403	300.47
700.81	354.3
701.216	358.98
701.623	340.26
702.029	298.13
702.435	330.89
702.842	344.94
703.248	305.15
703.654	351.96
704.06	344.94
704.466	370.68
704.872	312.17
705.278	351.96
705.684	361.32
706.09	270.04
706.496	328.55
706.901	309.83
707.307	305.15
707.712	366
708.118	312.17
708.523	354.3
708.929	293.44
709.334	361.32
709.74	293.44
710.145	300.47
710.55	335.57
710.955	333.23
711.36	333.23
711.765	366
712.17	326.21
712.575	293.44
712.98	1063.48
713.385	342.6
713.789	302.81
714.194	373.02
714.599	295.79
715.003	309.83
715.408	300.47
715.812	244.29
716.217	307.49
716.621	305.15
717.025	307.49
717.429	260.68
717.833	363.66
718.238	358.98
718.642	309.83
719.046	344.94
719.449	316.85
719.853	284.08
720.257	309.83
720.661	330.89
721.065	391.75
721.468	340.26
721.872	263.02
722.275	316.85
722.679	286.42
723.082	335.57
723.485	239.61
723.889	344.94
724.292	237.27
724.695	300.47
725.098	349.62
725.501	403.45
725.904	312.17
726.307	248.97
726.71	354.3
727.113	300.47
727.516	302.81
727.918	277.06
728.321	319.19
728.724	326.21
729.126	274.72
729.529	319.19
729.931	337.91
730.333	298.13
730.736	279.4
731.138	380.04
731.54	274.72
731.942	312.17
732.344	354.3
732.746	288.76
733.148	347.28
733.55	263.02
733.952	309.83
734.354	279.4
734.756	298.13
735.157	321.53
735.559	340.26
735.96	316.85
736.362	321.53
736.763	298.13
737.165	295.79
737.566	309.83
737.967	227.91
738.368	314.51
738.77	265.36
739.171	356.64
739.572	358.98
739.973	300.47
740.374	319.19
740.774	337.91
741.175	363.66
741.576	300.47
741.977	391.75
742.377	274.72
742.778	349.62
743.178	284.08
743.579	284.08
743.979	251.32
744.379	272.38
744.78	342.6
745.18	295.79
745.58	319.19
745.98	316.85
746.38	363.66
746.78	300.47
747.18	333.23
747.58	344.94
747.98	335.57
748.38	330.89
748.779	270.04
749.179	361.32
749.578	307.49
749.978	302.81
750.377	286.42
750.777	330.89
751.176	263.02
751.575	316.85
751.975	309.83
752.374	286.42
752.773	328.55
753.172	298.13
753.571	349.62
753.97	344.94
754.369	380.04
754.768	326.21
755.166	307.49
755.565	370.68
755.964	335.57
756.362	248.97
756.761	312.17
757.159	358.98
757.558	286.42
757.956	316.85
758.354	356.64
758.753	225.57
759.151	295.79
759.549	291.1
759.947	316.85
760.345	241.95
760.743	363.66
761.141	319.19
761.539	274.72
761.936	358.98
762.334	312.17
762.732	349.62
763.129	288.76
763.527	300.47
763.924	342.6
764.322	295.79
764.719	295.79
765.117	344.94
765.514	302.81
765.911	300.47
766.308	305.15
766.705	319.19
