Data from Al_FLMS009871__116__11-49-27-994.txt Node

Date: Fri Mar 08 11:49:27 CST 2024
User: pe5414po
Spectrometer: FLMS00987
Trigger mode: 0
Integration Time (sec): 1.000000E-1
Scans to average: 1
Electric dark correction enabled: true
Nonlinearity correction enabled: false
Boxcar width: 0
XAxis mode: Wavelengths
Number of Pixels in Spectrum: 2048
>>>>>Begin Spectral Data<<<<<
188.938	-66.71
189.409	-66.71
189.879	-66.71
190.349	-104.15
190.819	-87.77
191.29	-92.45
191.76	-122.88
192.23	-97.13
192.7	-78.41
193.17	-57.34
193.64	-45.64
194.109	-40.96
194.579	-80.75
195.049	31.6
195.519	38.62
195.988	-3.51
196.458	92.45
196.927	115.86
197.397	148.62
197.866	90.11
198.336	101.81
198.805	136.92
199.274	162.67
199.744	188.41
200.213	195.43
200.682	160.33
201.151	260.97
201.62	242.25
202.089	272.67
202.558	235.22
203.027	333.53
203.495	282.03
203.964	249.27
204.433	282.03
204.902	267.99
205.37	284.38
205.839	286.72
206.307	307.78
206.776	305.44
207.244	321.82
207.712	256.29
208.181	303.1
208.649	324.16
209.117	331.19
209.585	392.04
210.053	317.14
210.521	190.75
210.989	293.74
211.457	317.14
211.925	272.67
212.393	375.66
212.861	298.42
213.328	331.19
213.796	319.48
214.264	286.72
214.731	286.72
215.199	286.72
215.666	289.06
216.133	249.27
216.601	293.74
217.068	279.69
217.535	289.06
218.003	267.99
218.47	242.25
218.937	260.97
219.404	235.22
219.871	314.8
220.338	256.29
220.805	179.05
221.271	314.8
221.738	216.5
222.205	256.29
222.671	228.2
223.138	319.48
223.605	265.65
224.071	338.21
224.538	246.93
225.004	279.69
225.47	286.72
225.937	275.01
226.403	328.85
226.869	307.78
227.335	291.4
227.801	340.55
228.267	289.06
228.733	244.59
229.199	319.48
229.665	314.8
230.131	275.01
230.597	230.54
231.062	310.12
231.528	235.22
231.994	246.93
232.459	265.65
232.925	279.69
233.39	319.48
233.856	244.59
234.321	190.75
234.786	293.74
235.252	267.99
235.717	221.18
236.182	328.85
236.647	298.42
237.112	246.93
237.577	275.01
238.042	228.2
238.507	263.31
238.972	366.29
239.436	303.1
239.901	303.1
240.366	312.46
240.83	277.35
241.295	305.44
241.76	331.19
242.224	326.5
242.688	284.38
243.153	242.25
243.617	284.38
244.081	265.65
244.545	314.8
245.01	359.27
245.474	258.63
245.938	326.5
246.402	340.55
246.866	275.01
247.33	326.5
247.793	321.82
248.257	305.44
248.721	340.55
249.185	312.46
249.648	235.22
250.112	246.93
250.575	349.91
251.039	317.14
251.502	307.78
251.965	282.03
252.429	331.19
252.892	363.95
253.355	249.27
253.818	286.72
254.281	235.22
254.744	275.01
255.207	282.03
255.67	232.88
256.133	293.74
256.596	263.31
257.059	345.23
257.522	244.59
257.984	347.57
258.447	307.78
258.909	277.35
259.372	235.22
259.834	286.72
260.297	253.95
260.759	291.4
261.221	260.97
261.684	305.44
262.146	321.82
262.608	286.72
263.07	319.48
263.532	333.53
263.994	270.33
264.456	279.69
264.918	354.59
265.38	342.89
265.842	298.42
266.303	291.4
266.765	347.57
267.227	328.85
267.688	303.1
268.15	319.48
268.611	272.67
269.072	408.42
269.534	291.4
269.995	265.65
270.456	342.89
270.918	338.21
271.379	349.91
271.84	305.44
272.301	340.55
272.762	359.27
273.223	277.35
273.684	382.68
274.144	321.82
274.605	298.42
275.066	312.46
275.527	340.55
275.987	366.29
276.448	260.97
276.908	324.16
277.369	345.23
277.829	312.46
278.289	319.48
278.75	282.03
279.21	270.33
279.67	319.48
280.13	321.82
280.59	282.03
281.05	385.02
281.51	263.31
281.97	375.66
282.43	359.27
282.89	253.95
283.35	253.95
283.809	267.99
284.269	291.4
284.729	340.55
285.188	249.27
285.648	310.12
286.107	260.97
286.567	342.89
287.026	298.42
287.485	326.5
287.944	370.97
288.404	342.89
288.863	326.5
289.322	286.72
289.781	300.76
290.24	321.82
290.699	242.25
291.158	347.57
291.616	340.55
292.075	338.21
292.534	312.46
292.992	282.03
293.451	328.85
293.91	289.06
294.368	310.12
294.827	312.46
295.285	300.76
295.743	263.31
296.202	352.25
296.66	319.48
297.118	270.33
297.576	328.85
298.034	375.66
298.492	349.91
298.95	366.29
299.408	225.86
299.866	370.97
300.324	286.72
300.781	359.27
301.239	263.31
301.697	310.12
302.154	289.06
302.612	321.82
303.069	246.93
303.527	244.59
303.984	296.08
304.441	291.4
304.899	303.1
305.356	251.61
305.813	263.31
306.27	317.14
306.727	310.12
307.184	354.59
307.641	305.44
308.098	310.12
308.555	324.16
309.012	319.48
309.468	282.03
309.925	420.13
310.382	296.08
310.838	340.55
311.295	361.61
311.751	296.08
312.208	277.35
312.664	331.19
313.12	331.19
313.577	270.33
314.033	186.07
314.489	340.55
314.945	303.1
315.401	321.82
315.857	272.67
316.313	342.89
316.769	345.23
317.225	298.42
317.681	349.91
318.136	291.4
318.592	293.74
319.048	352.25
319.503	328.85
319.959	275.01
320.414	314.8
320.869	321.82
321.325	378
321.78	347.57
322.235	345.23
322.691	279.69
323.146	298.42
323.601	303.1
324.056	352.25
324.511	338.21
324.966	249.27
325.421	324.16
325.875	275.01
326.33	307.78
326.785	333.53
327.24	298.42
327.694	289.06
328.149	289.06
328.603	305.44
329.058	345.23
329.512	328.85
329.966	356.93
330.421	338.21
330.875	331.19
331.329	356.93
331.783	324.16
332.237	352.25
332.691	333.53
333.145	307.78
333.599	314.8
334.053	378
334.507	382.68
334.96	326.5
335.414	300.76
335.868	340.55
336.321	246.93
336.775	375.66
337.228	221.18
337.682	300.76
338.135	331.19
338.588	246.93
339.042	244.59
339.495	298.42
339.948	342.89
340.401	242.25
340.854	349.91
341.307	319.48
341.76	342.89
342.213	289.06
342.666	249.27
343.119	284.38
343.571	338.21
344.024	317.14
344.477	300.76
344.929	424.81
345.382	303.1
345.834	296.08
346.287	370.97
346.739	300.76
347.191	289.06
347.644	359.27
348.096	340.55
348.548	223.52
349	272.67
349.452	314.8
349.904	326.5
350.356	270.33
350.808	296.08
351.26	324.16
351.711	349.91
352.163	267.99
352.615	296.08
353.066	317.14
353.518	279.69
353.969	396.72
354.421	321.82
354.872	378
355.324	380.34
355.775	342.89
356.226	354.59
356.677	340.55
357.128	303.1
357.579	354.59
358.03	340.55
358.481	385.02
358.932	265.65
359.383	345.23
359.834	356.93
360.285	373.32
360.735	319.48
361.186	321.82
361.637	324.16
362.087	291.4
362.538	375.66
362.988	305.44
363.438	303.1
363.889	363.95
364.339	333.53
364.789	342.89
365.239	363.95
365.689	289.06
366.139	258.63
366.589	354.59
367.039	317.14
367.489	282.03
367.939	319.48
368.389	284.38
368.839	342.89
369.288	314.8
369.738	282.03
370.187	361.61
370.637	317.14
371.086	284.38
371.536	284.38
371.985	328.85
372.434	359.27
372.884	263.31
373.333	275.01
373.782	289.06
374.231	338.21
374.68	354.59
375.129	319.48
375.578	368.63
376.027	319.48
376.475	366.29
376.924	347.57
377.373	370.97
377.822	326.5
378.27	324.16
378.719	267.99
379.167	370.97
379.616	340.55
380.064	291.4
380.512	349.91
380.961	321.82
381.409	317.14
381.857	307.78
382.305	319.48
382.753	312.46
383.201	303.1
383.649	352.25
384.097	291.4
384.545	305.44
384.992	373.32
385.44	359.27
385.888	307.78
386.335	291.4
386.783	359.27
387.231	342.89
387.678	354.59
388.125	389.7
388.573	282.03
389.02	331.19
389.467	279.69
389.914	333.53
390.362	373.32
390.809	263.31
391.256	307.78
391.703	333.53
392.15	321.82
392.596	324.16
393.043	333.53
393.49	324.16
393.937	349.91
394.383	335.87
394.83	321.82
395.276	359.27
395.723	284.38
396.169	363.95
396.616	338.21
397.062	368.63
397.508	232.88
397.954	279.69
398.401	370.97
398.847	267.99
399.293	331.19
399.739	324.16
400.185	324.16
400.631	382.68
401.076	387.36
401.522	321.82
401.968	340.55
402.414	340.55
402.859	328.85
403.305	373.32
403.75	298.42
404.196	331.19
404.641	392.04
405.086	413.1
405.532	314.8
405.977	370.97
406.422	368.63
406.867	356.93
407.312	338.21
407.757	317.14
408.202	317.14
408.647	359.27
409.092	370.97
409.537	282.03
409.982	272.67
410.426	239.9
410.871	279.69
411.316	317.14
411.76	342.89
412.205	272.67
412.649	368.63
413.093	286.72
413.538	342.89
413.982	293.74
414.426	328.85
414.87	298.42
415.314	279.69
415.758	303.1
416.202	303.1
416.646	249.27
417.09	296.08
417.534	296.08
417.978	298.42
418.421	378
418.865	340.55
419.309	326.5
419.752	265.65
420.196	356.93
420.639	363.95
421.083	345.23
421.526	403.74
421.969	298.42
422.412	324.16
422.856	347.57
423.299	342.89
423.742	356.93
424.185	333.53
424.628	321.82
425.071	370.97
425.513	406.08
425.956	370.97
426.399	396.72
426.842	335.87
427.284	354.59
427.727	415.45
428.169	438.85
428.612	335.87
429.054	469.28
429.497	356.93
429.939	406.08
430.381	422.47
430.823	370.97
431.265	403.74
431.707	394.38
432.149	415.45
432.591	338.21
433.033	434.17
433.475	361.61
433.917	370.97
434.359	485.66
434.8	445.87
435.242	466.94
435.684	523.11
436.125	523.11
436.567	520.77
437.008	368.63
437.449	459.92
437.891	478.64
438.332	441.19
438.773	359.27
439.214	410.76
439.656	436.51
440.097	450.55
440.538	417.79
440.978	527.79
441.419	497.36
441.86	429.49
442.301	478.64
442.742	443.53
443.182	438.85
443.623	445.87
444.063	464.6
444.504	469.28
444.944	518.43
445.385	441.19
445.825	490.34
446.265	415.45
446.706	530.13
447.146	513.75
447.586	473.96
448.026	490.34
448.466	490.34
448.906	495.02
449.346	483.32
449.786	509.07
450.225	406.08
450.665	466.94
451.105	469.28
451.544	499.7
451.984	452.89
452.424	462.26
452.863	469.28
453.302	473.96
453.742	448.21
454.181	466.94
454.62	457.57
455.059	389.7
455.499	452.89
455.938	422.47
456.377	370.97
456.816	464.6
457.254	438.85
457.693	466.94
458.132	445.87
458.571	359.27
459.01	382.68
459.448	431.83
459.887	389.7
460.325	387.36
460.764	368.63
461.202	431.83
461.641	464.6
462.079	406.08
462.517	378
462.955	476.3
463.393	445.87
463.832	448.21
464.27	434.17
464.708	406.08
465.145	417.79
465.583	438.85
466.021	450.55
466.459	401.4
466.897	420.13
467.334	415.45
467.772	366.29
468.209	389.7
468.647	403.74
469.084	445.87
469.522	448.21
469.959	389.7
470.396	359.27
470.833	455.23
471.271	345.23
471.708	356.93
472.145	368.63
472.582	378
473.019	420.13
473.456	455.23
473.892	399.06
474.329	401.4
474.766	378
475.202	370.97
475.639	359.27
476.076	415.45
476.512	394.38
476.949	424.81
477.385	392.04
477.821	387.36
478.258	396.72
478.694	370.97
479.13	321.82
479.566	352.25
480.002	373.32
480.438	349.91
480.874	349.91
481.31	378
481.746	420.13
482.181	361.61
482.617	317.14
483.053	429.49
483.488	382.68
483.924	356.93
484.36	420.13
484.795	347.57
485.23	436.51
485.666	413.1
486.101	399.06
486.536	441.19
486.971	408.42
487.407	452.89
487.842	488
488.277	424.81
488.712	375.66
489.146	438.85
489.581	462.26
490.016	375.66
490.451	392.04
490.885	427.15
491.32	445.87
491.755	429.49
492.189	436.51
492.624	403.74
493.058	443.53
493.492	392.04
493.927	394.38
494.361	354.59
494.795	352.25
495.229	429.49
495.663	436.51
496.097	408.42
496.531	380.34
496.965	401.4
497.399	394.38
497.833	420.13
498.266	434.17
498.7	429.49
499.134	413.1
499.567	319.48
500.001	366.29
500.434	429.49
500.868	427.15
501.301	413.1
501.734	394.38
502.168	473.96
502.601	399.06
503.034	359.27
503.467	394.38
503.9	361.61
504.333	349.91
504.766	420.13
505.199	452.89
505.632	375.66
506.064	387.36
506.497	378
506.93	361.61
507.362	284.38
507.795	314.8
508.227	307.78
508.66	448.21
509.092	406.08
509.524	373.32
509.956	401.4
510.389	473.96
510.821	394.38
511.253	317.14
511.685	431.83
512.117	417.79
512.549	406.08
512.981	427.15
513.412	422.47
513.844	459.92
514.276	410.76
514.707	382.68
515.139	406.08
515.571	399.06
516.002	394.38
516.433	417.79
516.865	366.29
517.296	382.68
517.727	452.89
518.159	408.42
518.59	401.4
519.021	431.83
519.452	422.47
519.883	438.85
520.314	354.59
520.744	394.38
521.175	492.68
521.606	389.7
522.037	455.23
522.467	417.79
522.898	408.42
523.328	396.72
523.759	415.45
524.189	476.3
524.62	396.72
525.05	462.26
525.48	429.49
525.91	410.76
526.341	380.34
526.771	438.85
527.201	392.04
527.631	389.7
528.061	394.38
528.49	331.19
528.92	408.42
529.35	394.38
529.78	429.49
530.209	375.66
530.639	434.17
531.068	434.17
531.498	417.79
531.927	469.28
532.357	422.47
532.786	401.4
533.215	401.4
533.644	406.08
534.074	431.83
534.503	450.55
534.932	413.1
535.361	380.34
535.79	420.13
536.218	366.29
536.647	366.29
537.076	441.19
537.505	401.4
537.933	408.42
538.362	431.83
538.79	385.02
539.219	520.77
539.647	520.77
540.076	490.34
540.504	473.96
540.932	558.22
541.36	668.22
541.788	677.59
542.217	677.59
542.645	682.27
543.073	724.4
543.5	757.16
543.928	719.71
544.356	752.48
544.784	717.37
545.211	738.44
545.639	703.33
546.067	736.1
546.494	607.37
546.922	513.75
547.349	548.86
547.776	562.9
548.204	448.21
548.631	497.36
549.058	445.87
549.485	509.07
549.912	516.09
550.339	534.81
550.766	544.17
551.193	429.49
551.62	457.57
552.047	520.77
552.474	450.55
552.9	483.32
553.327	450.55
553.754	478.64
554.18	452.89
554.607	441.19
555.033	452.89
555.459	385.02
555.886	441.19
556.312	335.87
556.738	431.83
557.164	373.32
557.59	413.1
558.016	417.79
558.442	436.51
558.868	389.7
559.294	422.47
559.72	380.34
560.145	424.81
560.571	438.85
560.997	438.85
561.422	408.42
561.848	438.85
562.273	396.72
562.699	399.06
563.124	356.93
563.549	420.13
563.974	422.47
564.4	415.45
564.825	378
565.25	403.74
565.675	502.04
566.1	356.93
566.525	401.4
566.95	401.4
567.374	380.34
567.799	415.45
568.224	417.79
568.648	408.42
569.073	366.29
569.497	401.4
569.922	429.49
570.346	387.36
570.771	335.87
571.195	375.66
571.619	417.79
572.043	394.38
572.467	438.85
572.891	370.97
573.315	483.32
573.739	462.26
574.163	380.34
574.587	356.93
575.011	429.49
575.435	471.62
575.858	410.76
576.282	443.53
576.705	455.23
577.129	417.79
577.552	434.17
577.976	441.19
578.399	424.81
578.822	443.53
579.245	434.17
579.669	452.89
580.092	422.47
580.515	401.4
580.938	466.94
581.361	373.32
581.784	429.49
582.206	422.47
582.629	483.32
583.052	473.96
583.474	413.1
583.897	427.15
584.32	455.23
584.742	523.11
585.165	466.94
585.587	436.51
586.009	410.76
586.431	471.62
586.854	422.47
587.276	511.41
587.698	438.85
588.12	497.36
588.542	462.26
588.964	375.66
589.386	406.08
589.807	502.04
590.229	464.6
590.651	373.32
591.073	431.83
591.494	420.13
591.916	434.17
592.337	490.34
592.759	450.55
593.18	431.83
593.601	413.1
594.022	438.85
594.444	434.17
594.865	347.57
595.286	431.83
595.707	389.7
596.128	455.23
596.549	452.89
596.97	389.7
597.39	403.74
597.811	382.68
598.232	401.4
598.652	406.08
599.073	401.4
599.494	399.06
599.914	352.25
600.334	370.97
600.755	387.36
601.175	352.25
601.595	434.17
602.015	410.76
602.436	387.36
602.856	434.17
603.276	317.14
603.696	378
604.115	328.85
604.535	420.13
604.955	382.68
605.375	389.7
605.794	396.72
606.214	375.66
606.634	436.51
607.053	408.42
607.473	359.27
607.892	340.55
608.311	403.74
608.731	443.53
609.15	457.57
609.569	583.96
609.988	616.73
610.407	684.61
610.826	794.61
611.245	736.1
611.664	747.8
612.083	637.8
612.501	684.61
612.92	572.26
613.339	574.6
613.757	488
614.176	558.22
614.594	520.77
615.013	436.51
615.431	466.94
615.85	450.55
616.268	485.66
616.686	434.17
617.104	363.95
617.522	399.06
617.94	413.1
618.358	436.51
618.776	387.36
619.194	455.23
619.612	401.4
620.03	389.7
620.447	406.08
620.865	401.4
621.282	429.49
621.7	455.23
622.117	438.85
622.535	396.72
622.952	385.02
623.369	389.7
623.787	438.85
624.204	380.34
624.621	387.36
625.038	455.23
625.455	396.72
625.872	342.89
626.289	410.76
626.706	424.81
627.123	443.53
627.539	471.62
627.956	401.4
628.373	361.61
628.789	406.08
629.206	429.49
629.622	354.59
630.038	385.02
630.455	378
630.871	401.4
631.287	441.19
631.703	436.51
632.12	436.51
632.536	303.1
632.952	342.89
633.368	342.89
633.783	298.42
634.199	387.36
634.615	345.23
635.031	317.14
635.446	424.81
635.862	375.66
636.277	307.78
636.693	389.7
637.108	352.25
637.524	392.04
637.939	366.29
638.354	338.21
638.77	303.1
639.185	406.08
639.6	305.44
640.015	366.29
640.43	300.76
640.845	251.61
641.259	256.29
641.674	340.55
642.089	338.21
642.504	338.21
642.918	342.89
643.333	298.42
643.747	293.74
644.162	403.74
644.576	338.21
644.991	354.59
645.405	291.4
645.819	335.87
646.233	361.61
646.647	356.93
647.061	342.89
647.475	389.7
647.889	408.42
648.303	340.55
648.717	305.44
649.131	368.63
649.545	368.63
649.958	378
650.372	359.27
650.785	378
651.199	317.14
651.612	293.74
652.026	382.68
652.439	373.32
652.852	321.82
653.266	361.61
653.679	326.5
654.092	324.16
654.505	356.93
654.918	382.68
655.331	321.82
655.744	375.66
656.156	406.08
656.569	319.48
656.982	305.44
657.394	326.5
657.807	375.66
658.22	335.87
658.632	347.57
659.044	335.87
659.457	347.57
659.869	263.31
660.281	296.08
660.693	319.48
661.106	277.35
661.518	272.67
661.93	375.66
662.342	368.63
662.754	375.66
663.165	373.32
663.577	370.97
663.989	328.85
664.401	317.14
664.812	375.66
665.224	305.44
665.635	359.27
666.047	342.89
666.458	333.53
666.869	300.76
667.281	303.1
667.692	420.13
668.103	335.87
668.514	307.78
668.925	300.76
669.336	312.46
669.747	356.93
670.158	296.08
670.569	324.16
670.979	347.57
671.39	363.95
671.801	347.57
672.211	270.33
672.622	326.5
673.032	413.1
673.443	394.38
673.853	333.53
674.263	352.25
674.674	324.16
675.084	342.89
675.494	310.12
675.904	387.36
676.314	335.87
676.724	349.91
677.134	373.32
677.544	333.53
677.953	326.5
678.363	389.7
678.773	429.49
679.182	296.08
679.592	354.59
680.001	347.57
680.411	349.91
680.82	361.61
681.23	335.87
681.639	394.38
682.048	300.76
682.457	345.23
682.866	368.63
683.275	277.35
683.684	324.16
684.093	338.21
684.502	333.53
684.911	326.5
685.32	312.46
685.728	331.19
686.137	342.89
686.546	275.01
686.954	314.8
687.363	321.82
687.771	387.36
688.179	340.55
688.588	368.63
688.996	326.5
689.404	298.42
689.812	340.55
690.22	335.87
690.628	303.1
691.036	239.9
691.444	338.21
691.852	359.27
692.26	352.25
692.667	246.93
693.075	349.91
693.483	319.48
693.89	340.55
694.298	321.82
694.705	354.59
695.112	284.38
695.52	282.03
695.927	345.23
696.334	326.5
696.741	385.02
697.148	335.87
697.555	310.12
697.962	333.53
698.369	342.89
698.776	338.21
699.183	328.85
699.59	314.8
699.996	317.14
700.403	354.59
700.81	338.21
701.216	328.85
701.623	406.08
702.029	328.85
702.435	305.44
702.842	300.76
703.248	300.76
703.654	298.42
704.06	328.85
704.466	368.63
704.872	328.85
705.278	352.25
705.684	366.29
706.09	366.29
706.496	335.87
706.901	286.72
707.307	349.91
707.712	375.66
708.118	314.8
708.523	328.85
708.929	279.69
709.334	354.59
709.74	258.63
710.145	335.87
710.55	286.72
710.955	366.29
711.36	324.16
711.765	284.38
712.17	347.57
712.575	331.19
712.98	1115.27
713.385	331.19
713.789	345.23
714.194	324.16
714.599	293.74
715.003	328.85
715.408	331.19
715.812	361.61
716.217	321.82
716.621	279.69
717.025	291.4
717.429	293.74
717.833	373.32
718.238	331.19
718.642	361.61
719.046	338.21
719.449	275.01
719.853	296.08
720.257	340.55
720.661	270.33
721.065	328.85
721.468	298.42
721.872	312.46
722.275	293.74
722.679	305.44
723.082	286.72
723.485	272.67
723.889	326.5
724.292	223.52
724.695	373.32
725.098	303.1
725.501	352.25
725.904	333.53
726.307	263.31
726.71	375.66
727.113	331.19
727.516	317.14
727.918	326.5
728.321	310.12
728.724	356.93
729.126	331.19
729.529	380.34
729.931	286.72
730.333	352.25
730.736	370.97
731.138	321.82
731.54	368.63
731.942	373.32
732.344	331.19
732.746	265.65
733.148	312.46
733.55	307.78
733.952	324.16
734.354	321.82
734.756	321.82
735.157	340.55
735.559	277.35
735.96	335.87
736.362	345.23
736.763	382.68
737.165	349.91
737.566	345.23
737.967	333.53
738.368	342.89
738.77	361.61
739.171	317.14
739.572	310.12
739.973	345.23
740.374	345.23
740.774	321.82
741.175	338.21
741.576	319.48
741.977	296.08
742.377	333.53
742.778	363.95
743.178	338.21
743.579	370.97
743.979	279.69
744.379	363.95
744.78	361.61
745.18	296.08
745.58	331.19
745.98	314.8
746.38	282.03
746.78	349.91
747.18	354.59
747.58	303.1
747.98	331.19
748.38	380.34
748.779	303.1
749.179	319.48
749.578	284.38
749.978	289.06
750.377	345.23
750.777	317.14
751.176	324.16
751.575	317.14
751.975	333.53
752.374	291.4
752.773	394.38
753.172	326.5
753.571	338.21
753.97	331.19
754.369	389.7
754.768	375.66
755.166	324.16
755.565	375.66
755.964	284.38
756.362	349.91
756.761	328.85
757.159	340.55
757.558	263.31
757.956	284.38
758.354	260.97
758.753	361.61
759.151	298.42
759.549	333.53
759.947	303.1
760.345	338.21
760.743	340.55
761.141	324.16
761.539	307.78
761.936	265.65
762.334	282.03
762.732	321.82
763.129	331.19
763.527	328.85
763.924	363.95
764.322	342.89
764.719	275.01
765.117	335.87
765.514	272.67
765.911	291.4
766.308	349.91
