Data from Al_FLMS009871__104__11-49-26-794.txt Node

Date: Fri Mar 08 11:49:26 CST 2024
User: pe5414po
Spectrometer: FLMS00987
Trigger mode: 0
Integration Time (sec): 1.000000E-1
Scans to average: 1
Electric dark correction enabled: true
Nonlinearity correction enabled: false
Boxcar width: 0
XAxis mode: Wavelengths
Number of Pixels in Spectrum: 2048
>>>>>Begin Spectral Data<<<<<
188.938	-44.62
189.409	-44.62
189.879	-44.62
190.349	-105.47
190.819	-149.94
191.29	-86.75
191.76	-142.92
192.23	-152.28
192.7	-32.91
193.17	-89.09
193.64	-89.09
194.109	23.26
194.579	-14.19
195.049	58.37
195.519	16.24
195.988	25.6
196.458	16.24
196.927	137.95
197.397	34.96
197.866	173.05
198.336	121.56
198.805	74.75
199.274	182.42
199.744	140.29
200.213	208.16
200.682	182.42
201.151	210.5
201.62	245.61
202.089	261.99
202.558	203.48
203.027	226.89
203.495	180.07
203.964	264.33
204.433	224.55
204.902	280.72
205.37	231.57
205.839	292.42
206.307	311.14
206.776	332.21
207.244	318.17
207.712	355.62
208.181	292.42
208.649	269.02
209.117	306.46
209.585	261.99
210.053	327.53
210.521	404.77
210.989	308.8
211.457	257.31
211.925	308.8
212.393	350.93
212.861	301.78
213.328	308.8
213.796	245.61
214.264	350.93
214.731	301.78
215.199	311.14
215.666	238.59
216.133	311.14
216.601	273.7
217.068	264.33
217.535	254.97
218.003	245.61
218.47	259.65
218.937	240.93
219.404	259.65
219.871	320.51
220.338	231.57
220.805	266.67
221.271	271.36
221.738	247.95
222.205	339.23
222.671	257.31
223.138	306.46
223.605	290.08
224.071	259.65
224.538	231.57
225.004	283.06
225.47	271.36
225.937	290.08
226.403	271.36
226.869	271.36
227.335	212.84
227.801	261.99
228.267	261.99
228.733	313.49
229.199	313.49
229.665	247.95
230.131	304.12
230.597	308.8
231.062	283.06
231.528	217.52
231.994	264.33
232.459	240.93
232.925	219.86
233.39	226.89
233.856	245.61
234.321	226.89
234.786	299.44
235.252	273.7
235.717	231.57
236.182	269.02
236.647	264.33
237.112	299.44
237.577	315.83
238.042	290.08
238.507	327.53
238.972	283.06
239.436	257.31
239.901	285.4
240.366	261.99
240.83	247.95
241.295	297.1
241.76	269.02
242.224	311.14
242.688	304.12
243.153	287.74
243.617	243.27
244.081	285.4
244.545	240.93
245.01	283.06
245.474	318.17
245.938	276.04
246.402	325.19
246.866	290.08
247.33	250.29
247.793	233.91
248.257	367.32
248.721	318.17
249.185	266.67
249.648	285.4
250.112	322.85
250.575	245.61
251.039	318.17
251.502	311.14
251.965	325.19
252.429	240.93
252.892	311.14
253.355	336.89
253.818	311.14
254.281	346.25
254.744	261.99
255.207	283.06
255.67	219.86
256.133	264.33
256.596	266.67
257.059	280.72
257.522	283.06
257.984	231.57
258.447	301.78
258.909	343.91
259.372	294.76
259.834	306.46
260.297	257.31
260.759	278.38
261.221	238.59
261.684	278.38
262.146	332.21
262.608	287.74
263.07	318.17
263.532	362.64
263.994	294.76
264.456	283.06
264.918	233.91
265.38	299.44
265.842	276.04
266.303	292.42
266.765	306.46
267.227	322.85
267.688	177.73
268.15	208.16
268.611	292.42
269.072	313.49
269.534	320.51
269.995	322.85
270.456	292.42
270.918	301.78
271.379	320.51
271.84	245.61
272.301	320.51
272.762	339.23
273.223	240.93
273.684	311.14
274.144	283.06
274.605	357.96
275.066	315.83
275.527	360.3
275.987	240.93
276.448	320.51
276.908	259.65
277.369	233.91
277.829	329.87
278.289	313.49
278.75	334.55
279.21	294.76
279.67	271.36
280.13	212.84
280.59	297.1
281.05	318.17
281.51	334.55
281.97	336.89
282.43	308.8
282.89	308.8
283.35	219.86
283.809	290.08
284.269	327.53
284.729	294.76
285.188	238.59
285.648	259.65
286.107	257.31
286.567	294.76
287.026	301.78
287.485	325.19
287.944	252.63
288.404	301.78
288.863	297.1
289.322	306.46
289.781	285.4
290.24	355.62
290.699	320.51
291.158	318.17
291.616	290.08
292.075	315.83
292.534	290.08
292.992	353.27
293.451	322.85
293.91	280.72
294.368	252.63
294.827	336.89
295.285	294.76
295.743	278.38
296.202	318.17
296.66	299.44
297.118	332.21
297.576	292.42
298.034	294.76
298.492	280.72
298.95	280.72
299.408	250.29
299.866	306.46
300.324	269.02
300.781	238.59
301.239	285.4
301.697	261.99
302.154	322.85
302.612	280.72
303.069	278.38
303.527	311.14
303.984	299.44
304.441	325.19
304.899	322.85
305.356	238.59
305.813	372
306.27	299.44
306.727	276.04
307.184	283.06
307.641	320.51
308.098	322.85
308.555	266.67
309.012	311.14
309.468	339.23
309.925	278.38
310.382	343.91
310.838	311.14
311.295	264.33
311.751	315.83
312.208	215.18
312.664	313.49
313.12	353.27
313.577	315.83
314.033	271.36
314.489	224.55
314.945	306.46
315.401	304.12
315.857	252.63
316.313	304.12
316.769	327.53
317.225	322.85
317.681	254.97
318.136	355.62
318.592	362.64
319.048	355.62
319.503	278.38
319.959	301.78
320.414	304.12
320.869	280.72
321.325	304.12
321.78	280.72
322.235	301.78
322.691	315.83
323.146	327.53
323.601	250.29
324.056	182.42
324.511	325.19
324.966	318.17
325.421	313.49
325.875	318.17
326.33	254.97
326.785	257.31
327.24	313.49
327.694	269.02
328.149	290.08
328.603	292.42
329.058	339.23
329.512	287.74
329.966	341.57
330.421	322.85
330.875	343.91
331.329	269.02
331.783	294.76
332.237	339.23
332.691	320.51
333.145	299.44
333.599	304.12
334.053	311.14
334.507	353.27
334.96	343.91
335.414	261.99
335.868	306.46
336.321	254.97
336.775	299.44
337.228	304.12
337.682	341.57
338.135	304.12
338.588	306.46
339.042	341.57
339.495	353.27
339.948	278.38
340.401	306.46
340.854	327.53
341.307	348.59
341.76	318.17
342.213	304.12
342.666	257.31
343.119	285.4
343.571	278.38
344.024	271.36
344.477	278.38
344.929	320.51
345.382	301.78
345.834	252.63
346.287	201.14
346.739	308.8
347.191	329.87
347.644	278.38
348.096	322.85
348.548	283.06
349	299.44
349.452	264.33
349.904	271.36
350.356	311.14
350.808	297.1
351.26	313.49
351.711	297.1
352.163	266.67
352.615	362.64
353.066	276.04
353.518	273.7
353.969	322.85
354.421	311.14
354.872	332.21
355.324	245.61
355.775	343.91
356.226	212.84
356.677	273.7
357.128	320.51
357.579	348.59
358.03	369.66
358.481	318.17
358.932	259.65
359.383	231.57
359.834	320.51
360.285	320.51
360.735	350.93
361.186	304.12
361.637	313.49
362.087	348.59
362.538	357.96
362.988	339.23
363.438	315.83
363.889	320.51
364.339	287.74
364.789	278.38
365.239	250.29
365.689	313.49
366.139	301.78
366.589	280.72
367.039	322.85
367.489	341.57
367.939	353.27
368.389	367.32
368.839	257.31
369.288	283.06
369.738	311.14
370.187	304.12
370.637	348.59
371.086	315.83
371.536	278.38
371.985	325.19
372.434	353.27
372.884	315.83
373.333	266.67
373.782	243.27
374.231	332.21
374.68	318.17
375.129	360.3
375.578	357.96
376.027	313.49
376.475	315.83
376.924	346.25
377.373	306.46
377.822	287.74
378.27	287.74
378.719	336.89
379.167	313.49
379.616	308.8
380.064	280.72
380.512	233.91
380.961	379.02
381.409	301.78
381.857	229.23
382.305	271.36
382.753	243.27
383.201	283.06
383.649	269.02
384.097	264.33
384.545	322.85
384.992	350.93
385.44	231.57
385.888	285.4
386.335	320.51
386.783	283.06
387.231	301.78
387.678	355.62
388.125	315.83
388.573	325.19
389.02	320.51
389.467	297.1
389.914	299.44
390.362	322.85
390.809	369.66
391.256	348.59
391.703	332.21
392.15	313.49
392.596	301.78
393.043	306.46
393.49	343.91
393.937	283.06
394.383	315.83
394.83	329.87
395.276	322.85
395.723	308.8
396.169	297.1
396.616	276.04
397.062	222.2
397.508	311.14
397.954	294.76
398.401	266.67
398.847	329.87
399.293	290.08
399.739	325.19
400.185	297.1
400.631	320.51
401.076	311.14
401.522	374.34
401.968	299.44
402.414	383.7
402.859	329.87
403.305	301.78
403.75	290.08
404.196	336.89
404.641	360.3
405.086	353.27
405.532	353.27
405.977	304.12
406.422	318.17
406.867	278.38
407.312	266.67
407.757	318.17
408.202	264.33
408.647	336.89
409.092	332.21
409.537	301.78
409.982	360.3
410.426	311.14
410.871	322.85
411.316	250.29
411.76	283.06
412.205	376.68
412.649	301.78
413.093	311.14
413.538	318.17
413.982	348.59
414.426	278.38
414.87	334.55
415.314	297.1
415.758	280.72
416.202	325.19
416.646	318.17
417.09	327.53
417.534	383.7
417.978	322.85
418.421	341.57
418.865	360.3
419.309	346.25
419.752	332.21
420.196	269.02
420.639	372
421.083	348.59
421.526	336.89
421.969	334.55
422.412	350.93
422.856	280.72
423.299	320.51
423.742	299.44
424.185	397.74
424.628	362.64
425.071	360.3
425.513	343.91
425.956	336.89
426.399	297.1
426.842	336.89
427.284	372
427.727	322.85
428.169	388.38
428.612	350.93
429.054	313.49
429.497	402.43
429.939	311.14
430.381	343.91
430.823	334.55
431.265	437.53
431.707	364.98
432.149	400.09
432.591	336.89
433.033	332.21
433.475	397.74
433.917	416.47
434.359	453.92
434.8	453.92
435.242	489.03
435.684	484.34
436.125	489.03
436.567	456.26
437.008	400.09
437.449	404.77
437.891	472.64
438.332	423.49
438.773	430.51
439.214	425.83
439.656	409.45
440.097	489.03
440.538	409.45
440.978	453.92
441.419	484.34
441.86	449.24
442.301	484.34
442.742	407.11
443.182	414.13
443.623	500.73
444.063	467.96
444.504	421.15
444.944	484.34
445.385	545.2
445.825	456.26
446.265	435.19
446.706	467.96
447.146	505.41
447.586	507.75
448.026	510.09
448.466	498.39
448.906	458.6
449.346	491.37
449.786	479.66
450.225	442.21
450.665	535.84
451.105	425.83
451.544	446.9
451.984	460.94
452.424	460.94
452.863	404.77
453.302	432.85
453.742	407.11
454.181	432.85
454.62	432.85
455.059	376.68
455.499	428.17
455.938	404.77
456.377	507.75
456.816	381.36
457.254	446.9
457.693	435.19
458.132	386.04
458.571	451.58
459.01	430.51
459.448	336.89
459.887	423.49
460.325	362.64
460.764	409.45
461.202	407.11
461.641	439.87
462.079	334.55
462.517	407.11
462.955	374.34
463.393	381.36
463.832	393.06
464.27	402.43
464.708	372
465.145	322.85
465.583	393.06
466.021	393.06
466.459	421.15
466.897	360.3
467.334	418.81
467.772	388.38
468.209	425.83
468.647	388.38
469.084	451.58
469.522	430.51
469.959	353.27
470.396	343.91
470.833	306.46
471.271	409.45
471.708	439.87
472.145	336.89
472.582	355.62
473.019	421.15
473.456	397.74
473.892	364.98
474.329	374.34
474.766	397.74
475.202	393.06
475.639	343.91
476.076	360.3
476.512	350.93
476.949	372
477.385	322.85
477.821	336.89
478.258	395.4
478.694	372
479.13	341.57
479.566	357.96
480.002	322.85
480.438	353.27
480.874	346.25
481.31	315.83
481.746	334.55
482.181	372
482.617	374.34
483.053	388.38
483.488	355.62
483.924	355.62
484.36	355.62
484.795	355.62
485.23	400.09
485.666	327.53
486.101	444.56
486.536	449.24
486.971	402.43
487.407	397.74
487.842	491.37
488.277	395.4
488.712	397.74
489.146	467.96
489.581	470.3
490.016	423.49
490.451	442.21
490.885	414.13
491.32	430.51
491.755	372
492.189	390.72
492.624	395.4
493.058	381.36
493.492	393.06
493.927	416.47
494.361	383.7
494.795	381.36
495.229	374.34
495.663	416.47
496.097	362.64
496.531	383.7
496.965	402.43
497.399	397.74
497.833	460.94
498.266	402.43
498.7	397.74
499.134	411.79
499.567	390.72
500.001	376.68
500.434	383.7
500.868	442.21
501.301	416.47
501.734	416.47
502.168	367.32
502.601	402.43
503.034	390.72
503.467	353.27
503.9	353.27
504.333	400.09
504.766	350.93
505.199	379.02
505.632	374.34
506.064	421.15
506.497	397.74
506.93	395.4
507.362	376.68
507.795	430.51
508.227	374.34
508.66	376.68
509.092	418.81
509.524	400.09
509.956	364.98
510.389	416.47
510.821	418.81
511.253	360.3
511.685	374.34
512.117	369.66
512.549	320.51
512.981	407.11
513.412	428.17
513.844	402.43
514.276	357.96
514.707	460.94
515.139	390.72
515.571	350.93
516.002	346.25
516.433	432.85
516.865	451.58
517.296	360.3
517.727	404.77
518.159	439.87
518.59	465.62
519.021	353.27
519.452	404.77
519.883	357.96
520.314	374.34
520.744	416.47
521.175	425.83
521.606	376.68
522.037	418.81
522.467	379.02
522.898	329.87
523.328	348.59
523.759	409.45
524.189	407.11
524.62	390.72
525.05	353.27
525.48	376.68
525.91	369.66
526.341	353.27
526.771	341.57
527.201	374.34
527.631	414.13
528.061	423.49
528.49	463.28
528.92	414.13
529.35	397.74
529.78	437.53
530.209	372
530.639	362.64
531.068	414.13
531.498	442.21
531.927	411.79
532.357	383.7
532.786	388.38
533.215	301.78
533.644	418.81
534.074	350.93
534.503	449.24
534.932	446.9
535.361	423.49
535.79	439.87
536.218	381.36
536.647	425.83
537.076	379.02
537.505	381.36
537.933	482
538.362	411.79
538.79	418.81
539.219	489.03
539.647	416.47
540.076	573.28
540.504	519.45
540.932	500.73
541.36	615.41
541.788	620.1
542.217	690.31
542.645	723.08
543.073	718.4
543.5	692.65
543.928	685.63
544.356	720.74
544.784	718.4
545.211	599.03
545.639	655.2
546.067	634.14
546.494	622.44
546.922	589.67
547.349	505.41
547.776	510.09
548.204	477.32
548.631	484.34
549.058	425.83
549.485	416.47
549.912	437.53
550.339	496.05
550.766	500.73
551.193	493.71
551.62	451.58
552.047	435.19
552.474	425.83
552.9	484.34
553.327	477.32
553.754	456.26
554.18	465.62
554.607	451.58
555.033	393.06
555.459	383.7
555.886	369.66
556.312	449.24
556.738	428.17
557.164	430.51
557.59	346.25
558.016	362.64
558.442	374.34
558.868	388.38
559.294	393.06
559.72	369.66
560.145	402.43
560.571	402.43
560.997	470.3
561.422	411.79
561.848	414.13
562.273	453.92
562.699	425.83
563.124	357.96
563.549	393.06
563.974	311.14
564.4	372
564.825	390.72
565.25	418.81
565.675	411.79
566.1	428.17
566.525	313.49
566.95	402.43
567.374	393.06
567.799	364.98
568.224	397.74
568.648	409.45
569.073	425.83
569.497	397.74
569.922	318.17
570.346	437.53
570.771	402.43
571.195	404.77
571.619	390.72
572.043	350.93
572.467	374.34
572.891	425.83
573.315	418.81
573.739	341.57
574.163	343.91
574.587	379.02
575.011	428.17
575.435	402.43
575.858	357.96
576.282	430.51
576.705	362.64
577.129	407.11
577.552	463.28
577.976	381.36
578.399	407.11
578.822	383.7
579.245	381.36
579.669	432.85
580.092	425.83
580.515	395.4
580.938	430.51
581.361	350.93
581.784	423.49
582.206	442.21
582.629	329.87
583.052	435.19
583.474	395.4
583.897	470.3
584.32	479.66
584.742	353.27
585.165	372
585.587	409.45
586.009	400.09
586.431	446.9
586.854	472.64
587.276	514.77
587.698	486.69
588.12	397.74
588.542	374.34
588.964	484.34
589.386	407.11
589.807	435.19
590.229	423.49
590.651	439.87
591.073	355.62
591.494	395.4
591.916	446.9
592.337	409.45
592.759	458.6
593.18	383.7
593.601	456.26
594.022	304.12
594.444	369.66
594.865	388.38
595.286	374.34
595.707	393.06
596.128	320.51
596.549	315.83
596.97	437.53
597.39	393.06
597.811	318.17
598.232	400.09
598.652	355.62
599.073	435.19
599.494	369.66
599.914	397.74
600.334	247.95
600.755	374.34
601.175	334.55
601.595	343.91
602.015	339.23
602.436	437.53
602.856	449.24
603.276	388.38
603.696	379.02
604.115	339.23
604.535	322.85
604.955	407.11
605.375	409.45
605.794	409.45
606.214	381.36
606.634	311.14
607.053	372
607.473	411.79
607.892	421.15
608.311	416.47
608.731	386.04
609.15	416.47
609.569	552.22
609.988	650.52
610.407	741.8
610.826	797.98
611.245	741.8
611.664	711.38
612.083	652.86
612.501	643.5
612.92	620.1
613.339	489.03
613.757	580.31
614.176	477.32
614.594	444.56
615.013	489.03
615.431	442.21
615.85	444.56
616.268	496.05
616.686	353.27
617.104	357.96
617.522	395.4
617.94	414.13
618.358	379.02
618.776	388.38
619.194	400.09
619.612	334.55
620.03	432.85
620.447	362.64
620.865	339.23
621.282	341.57
621.7	435.19
622.117	367.32
622.535	416.47
622.952	325.19
623.369	404.77
623.787	409.45
624.204	339.23
624.621	329.87
625.038	411.79
625.455	386.04
625.872	332.21
626.289	362.64
626.706	423.49
627.123	397.74
627.539	409.45
627.956	325.19
628.373	379.02
628.789	339.23
629.206	418.81
629.622	355.62
630.038	360.3
630.455	381.36
630.871	386.04
631.287	383.7
631.703	374.34
632.12	367.32
632.536	383.7
632.952	339.23
633.368	313.49
633.783	402.43
634.199	278.38
634.615	336.89
635.031	353.27
635.446	372
635.862	402.43
636.277	364.98
636.693	374.34
637.108	304.12
637.524	393.06
637.939	294.76
638.354	327.53
638.77	350.93
639.185	287.74
639.6	346.25
640.015	348.59
640.43	360.3
640.845	343.91
641.259	318.17
641.674	364.98
642.089	329.87
642.504	353.27
642.918	346.25
643.333	294.76
643.747	360.3
644.162	372
644.576	364.98
644.991	393.06
645.405	315.83
645.819	353.27
646.233	332.21
646.647	327.53
647.061	341.57
647.475	379.02
647.889	322.85
648.303	254.97
648.717	318.17
649.131	343.91
649.545	367.32
649.958	315.83
650.372	301.78
650.785	350.93
651.199	322.85
651.612	325.19
652.026	355.62
652.439	306.46
652.852	311.14
653.266	353.27
653.679	360.3
654.092	369.66
654.505	355.62
654.918	353.27
655.331	350.93
655.744	390.72
656.156	329.87
656.569	346.25
656.982	276.04
657.394	325.19
657.807	247.95
658.22	254.97
658.632	280.72
659.044	334.55
659.457	313.49
659.869	287.74
660.281	311.14
660.693	322.85
661.106	425.83
661.518	311.14
661.93	350.93
662.342	306.46
662.754	320.51
663.165	334.55
663.577	325.19
663.989	386.04
664.401	327.53
664.812	297.1
665.224	322.85
665.635	304.12
666.047	292.42
666.458	341.57
666.869	369.66
667.281	269.02
667.692	287.74
668.103	329.87
668.514	362.64
668.925	306.46
669.336	360.3
669.747	355.62
670.158	329.87
670.569	327.53
670.979	290.08
671.39	264.33
671.801	299.44
672.211	320.51
672.622	364.98
673.032	364.98
673.443	315.83
673.853	327.53
674.263	325.19
674.674	285.4
675.084	350.93
675.494	308.8
675.904	280.72
676.314	350.93
676.724	301.78
677.134	306.46
677.544	299.44
677.953	336.89
678.363	297.1
678.773	343.91
679.182	304.12
679.592	350.93
680.001	299.44
680.411	308.8
680.82	280.72
681.23	339.23
681.639	386.04
682.048	374.34
682.457	294.76
682.866	271.36
683.275	325.19
683.684	320.51
684.093	294.76
684.502	334.55
684.911	332.21
685.32	318.17
685.728	311.14
686.137	297.1
686.546	313.49
686.954	367.32
687.363	318.17
687.771	306.46
688.179	332.21
688.588	320.51
688.996	287.74
689.404	285.4
689.812	350.93
690.22	329.87
690.628	301.78
691.036	308.8
691.444	362.64
691.852	329.87
692.26	306.46
692.667	390.72
693.075	294.76
693.483	271.36
693.89	306.46
694.298	313.49
694.705	341.57
695.112	329.87
695.52	332.21
695.927	299.44
696.334	315.83
696.741	320.51
697.148	325.19
697.555	236.25
697.962	327.53
698.369	308.8
698.776	315.83
699.183	276.04
699.59	269.02
699.996	341.57
700.403	304.12
700.81	243.27
701.216	334.55
701.623	355.62
702.029	269.02
702.435	306.46
702.842	308.8
703.248	327.53
703.654	313.49
704.06	294.76
704.466	374.34
704.872	313.49
705.278	322.85
705.684	325.19
706.09	334.55
706.496	341.57
706.901	311.14
707.307	343.91
707.712	350.93
708.118	341.57
708.523	315.83
708.929	329.87
709.334	290.08
709.74	400.09
710.145	329.87
710.55	294.76
710.955	334.55
711.36	393.06
711.765	290.08
712.17	297.1
712.575	301.78
712.98	1146.72
713.385	383.7
713.789	327.53
714.194	318.17
714.599	287.74
715.003	329.87
715.408	308.8
715.812	276.04
716.217	364.98
716.621	299.44
717.025	334.55
717.429	308.8
717.833	287.74
718.238	304.12
718.642	308.8
719.046	299.44
719.449	294.76
719.853	290.08
720.257	329.87
720.661	257.31
721.065	336.89
721.468	329.87
721.872	332.21
722.275	353.27
722.679	301.78
723.082	313.49
723.485	297.1
723.889	311.14
724.292	299.44
724.695	292.42
725.098	292.42
725.501	299.44
725.904	264.33
726.307	336.89
726.71	250.29
727.113	339.23
727.516	308.8
727.918	325.19
728.321	299.44
728.724	336.89
729.126	292.42
729.529	318.17
729.931	299.44
730.333	299.44
730.736	327.53
731.138	297.1
731.54	299.44
731.942	336.89
732.344	308.8
732.746	327.53
733.148	322.85
733.55	285.4
733.952	336.89
734.354	196.46
734.756	252.63
735.157	311.14
735.559	353.27
735.96	308.8
736.362	308.8
736.763	374.34
737.165	320.51
737.566	271.36
737.967	304.12
738.368	336.89
738.77	243.27
739.171	320.51
739.572	393.06
739.973	353.27
740.374	243.27
740.774	318.17
741.175	278.38
741.576	327.53
741.977	266.67
742.377	294.76
742.778	336.89
743.178	322.85
743.579	322.85
743.979	311.14
744.379	278.38
744.78	318.17
745.18	273.7
745.58	269.02
745.98	320.51
746.38	280.72
746.78	276.04
747.18	245.61
747.58	374.34
747.98	343.91
748.38	280.72
748.779	325.19
749.179	339.23
749.578	346.25
749.978	355.62
750.377	299.44
750.777	304.12
751.176	357.96
751.575	308.8
751.975	308.8
752.374	336.89
752.773	273.7
753.172	329.87
753.571	313.49
753.97	364.98
754.369	318.17
754.768	311.14
755.166	320.51
755.565	311.14
755.964	290.08
756.362	374.34
756.761	329.87
757.159	357.96
757.558	315.83
757.956	360.3
758.354	280.72
758.753	325.19
759.151	339.23
759.549	247.95
759.947	339.23
760.345	327.53
760.743	332.21
761.141	283.06
761.539	357.96
761.936	311.14
762.334	350.93
762.732	198.8
763.129	348.59
763.527	278.38
763.924	339.23
764.322	311.14
764.719	320.51
765.117	301.78
765.514	299.44
