Data from Al_FLMS009871__843__15-31-14-994.txt Node

Date: Fri Mar 08 15:31:14 CST 2024
User: pe5414po
Spectrometer: FLMS00987
Trigger mode: 0
Integration Time (sec): 1.000000E-1
Scans to average: 1
Electric dark correction enabled: true
Nonlinearity correction enabled: false
Boxcar width: 0
XAxis mode: Wavelengths
Number of Pixels in Spectrum: 2048
>>>>>Begin Spectral Data<<<<<
188.938	-66.85
189.409	-66.85
189.879	-66.85
190.349	-153.45
190.819	-94.94
191.29	-113.66
191.76	-130.05
192.23	-139.41
192.7	-57.49
193.17	-48.13
193.64	-29.4
194.109	-36.42
194.579	-22.38
195.049	-52.81
195.519	64.22
195.988	22.09
196.458	113.37
196.927	115.71
197.397	71.24
197.866	148.48
198.336	94.65
198.805	183.59
199.274	178.9
199.744	214.01
200.213	190.61
200.682	202.31
201.151	153.16
201.62	281.89
202.089	237.42
202.558	281.89
203.027	223.37
203.495	216.35
203.964	225.72
204.433	300.61
204.902	239.76
205.37	265.5
205.839	309.97
206.307	347.42
206.776	267.85
207.244	302.95
207.712	244.44
208.181	319.34
208.649	333.38
209.117	260.82
209.585	309.97
210.053	300.61
210.521	300.61
210.989	302.95
211.457	274.87
211.925	277.21
212.393	300.61
212.861	239.76
213.328	253.8
213.796	295.93
214.264	242.1
214.731	263.16
215.199	293.59
215.666	249.12
216.133	279.55
216.601	293.59
217.068	253.8
217.535	258.48
218.003	270.19
218.47	331.04
218.937	244.44
219.404	272.53
219.871	307.63
220.338	331.04
220.805	225.72
221.271	258.48
221.738	305.29
222.205	302.95
222.671	324.02
223.138	263.16
223.605	265.5
224.071	246.78
224.538	295.93
225.004	223.37
225.47	291.25
225.937	258.48
226.403	244.44
226.869	195.29
227.335	218.69
227.801	277.21
228.267	274.87
228.733	295.93
229.199	228.06
229.665	263.16
230.131	218.69
230.597	258.48
231.062	214.01
231.528	258.48
231.994	253.8
232.459	277.21
232.925	326.36
233.39	284.23
233.856	232.74
234.321	263.16
234.786	190.61
235.252	209.33
235.717	305.29
236.182	279.55
236.647	319.34
237.112	253.8
237.577	244.44
238.042	181.25
238.507	274.87
238.972	309.97
239.436	263.16
239.901	267.85
240.366	281.89
240.83	235.08
241.295	281.89
241.76	328.7
242.224	237.42
242.688	239.76
243.153	277.21
243.617	258.48
244.081	230.4
244.545	235.08
245.01	279.55
245.474	321.68
245.938	237.42
246.402	237.42
246.866	352.1
247.33	256.14
247.793	263.16
248.257	277.21
248.721	249.12
249.185	260.82
249.648	286.57
250.112	272.53
250.575	345.08
251.039	242.1
251.502	321.68
251.965	288.91
252.429	305.29
252.892	331.04
253.355	265.5
253.818	281.89
254.281	251.46
254.744	340.4
255.207	295.93
255.67	272.53
256.133	295.93
256.596	302.95
257.059	235.08
257.522	242.1
257.984	267.85
258.447	251.46
258.909	281.89
259.372	328.7
259.834	317
260.297	293.59
260.759	307.63
261.221	211.67
261.684	221.03
262.146	251.46
262.608	314.66
263.07	307.63
263.532	284.23
263.994	228.06
264.456	284.23
264.918	326.36
265.38	256.14
265.842	281.89
266.303	300.61
266.765	338.06
267.227	279.55
267.688	286.57
268.15	319.34
268.611	272.53
269.072	244.44
269.534	274.87
269.995	279.55
270.456	314.66
270.918	253.8
271.379	239.76
271.84	235.08
272.301	307.63
272.762	317
273.223	324.02
273.684	284.23
274.144	272.53
274.605	340.4
275.066	284.23
275.527	260.82
275.987	249.12
276.448	281.89
276.908	239.76
277.369	309.97
277.829	340.4
278.289	307.63
278.75	328.7
279.21	302.95
279.67	249.12
280.13	319.34
280.59	237.42
281.05	286.57
281.51	295.93
281.97	293.59
282.43	300.61
282.89	267.85
283.35	246.78
283.809	321.68
284.269	253.8
284.729	281.89
285.188	288.91
285.648	216.35
286.107	244.44
286.567	202.31
287.026	305.29
287.485	368.49
287.944	295.93
288.404	295.93
288.863	270.19
289.322	288.91
289.781	221.03
290.24	288.91
290.699	326.36
291.158	298.27
291.616	265.5
292.075	298.27
292.534	302.95
292.992	288.91
293.451	317
293.91	324.02
294.368	274.87
294.827	267.85
295.285	265.5
295.743	288.91
296.202	317
296.66	305.29
297.118	265.5
297.576	324.02
298.034	279.55
298.492	354.44
298.95	312.32
299.408	221.03
299.866	270.19
300.324	298.27
300.781	326.36
301.239	305.29
301.697	312.32
302.154	270.19
302.612	293.59
303.069	321.68
303.527	307.63
303.984	281.89
304.441	340.4
304.899	277.21
305.356	309.97
305.813	312.32
306.27	267.85
306.727	356.79
307.184	349.76
307.641	258.48
308.098	305.29
308.555	312.32
309.012	319.34
309.468	258.48
309.925	317
310.382	331.04
310.838	277.21
311.295	286.57
311.751	293.59
312.208	270.19
312.664	272.53
313.12	307.63
313.577	345.08
314.033	286.57
314.489	298.27
314.945	305.29
315.401	260.82
315.857	335.72
316.313	298.27
316.769	279.55
317.225	270.19
317.681	307.63
318.136	312.32
318.592	326.36
319.048	284.23
319.503	288.91
319.959	256.14
320.414	314.66
320.869	288.91
321.325	305.29
321.78	279.55
322.235	295.93
322.691	321.68
323.146	321.68
323.601	279.55
324.056	293.59
324.511	279.55
324.966	295.93
325.421	277.21
325.875	298.27
326.33	277.21
326.785	307.63
327.24	335.72
327.694	317
328.149	387.21
328.603	345.08
329.058	340.4
329.512	331.04
329.966	349.76
330.421	319.34
330.875	335.72
331.329	338.06
331.783	333.38
332.237	277.21
332.691	347.42
333.145	368.49
333.599	305.29
334.053	345.08
334.507	331.04
334.96	295.93
335.414	272.53
335.868	214.01
336.321	345.08
336.775	389.55
337.228	326.36
337.682	352.1
338.135	368.49
338.588	345.08
339.042	331.04
339.495	288.91
339.948	274.87
340.401	286.57
340.854	274.87
341.307	258.48
341.76	349.76
342.213	286.57
342.666	279.55
343.119	300.61
343.571	298.27
344.024	309.97
344.477	288.91
344.929	317
345.382	253.8
345.834	218.69
346.287	230.4
346.739	274.87
347.191	288.91
347.644	249.12
348.096	328.7
348.548	242.1
349	309.97
349.452	274.87
349.904	218.69
350.356	366.15
350.808	321.68
351.26	319.34
351.711	216.35
352.163	272.53
352.615	305.29
353.066	286.57
353.518	352.1
353.969	309.97
354.421	281.89
354.872	307.63
355.324	326.36
355.775	340.4
356.226	249.12
356.677	333.38
357.128	265.5
357.579	317
358.03	324.02
358.481	288.91
358.932	312.32
359.383	342.74
359.834	302.95
360.285	326.36
360.735	317
361.186	324.02
361.637	326.36
362.087	324.02
362.538	321.68
362.988	321.68
363.438	321.68
363.889	312.32
364.339	293.59
364.789	333.38
365.239	281.89
365.689	277.21
366.139	314.66
366.589	305.29
367.039	270.19
367.489	277.21
367.939	307.63
368.389	321.68
368.839	312.32
369.288	335.72
369.738	302.95
370.187	274.87
370.637	267.85
371.086	281.89
371.536	373.17
371.985	277.21
372.434	235.08
372.884	274.87
373.333	291.25
373.782	288.91
374.231	298.27
374.68	225.72
375.129	370.83
375.578	347.42
376.027	270.19
376.475	349.76
376.924	295.93
377.373	345.08
377.822	249.12
378.27	284.23
378.719	300.61
379.167	345.08
379.616	317
380.064	373.17
380.512	370.83
380.961	361.47
381.409	312.32
381.857	335.72
382.305	307.63
382.753	284.23
383.201	293.59
383.649	291.25
384.097	349.76
384.545	363.81
384.992	277.21
385.44	272.53
385.888	319.34
386.335	309.97
386.783	359.13
387.231	232.74
387.678	263.16
388.125	300.61
388.573	328.7
389.02	277.21
389.467	312.32
389.914	338.06
390.362	324.02
390.809	352.1
391.256	340.4
391.703	352.1
392.15	314.66
392.596	345.08
393.043	340.4
393.49	281.89
393.937	288.91
394.383	331.04
394.83	359.13
395.276	295.93
395.723	263.16
396.169	331.04
396.616	314.66
397.062	281.89
397.508	307.63
397.954	258.48
398.401	272.53
398.847	359.13
399.293	305.29
399.739	298.27
400.185	298.27
400.631	291.25
401.076	267.85
401.522	326.36
401.968	298.27
402.414	274.87
402.859	309.97
403.305	302.95
403.75	317
404.196	307.63
404.641	267.85
405.086	352.1
405.532	324.02
405.977	317
406.422	335.72
406.867	279.55
407.312	312.32
407.757	345.08
408.202	410.62
408.647	293.59
409.092	335.72
409.537	319.34
409.982	359.13
410.426	340.4
410.871	305.29
411.316	326.36
411.76	300.61
412.205	328.7
412.649	328.7
413.093	349.76
413.538	293.59
413.982	328.7
414.426	253.8
414.87	258.48
415.314	230.4
415.758	314.66
416.202	380.19
416.646	286.57
417.09	302.95
417.534	298.27
417.978	307.63
418.421	317
418.865	326.36
419.309	319.34
419.752	326.36
420.196	293.59
420.639	340.4
421.083	265.5
421.526	277.21
421.969	284.23
422.412	338.06
422.856	277.21
423.299	352.1
423.742	242.1
424.185	324.02
424.628	328.7
425.071	265.5
425.513	246.78
425.956	326.36
426.399	288.91
426.842	328.7
427.284	380.19
427.727	295.93
428.169	331.04
428.612	326.36
429.054	300.61
429.497	298.27
429.939	237.42
430.381	324.02
430.823	312.32
431.265	300.61
431.707	251.46
432.149	324.02
432.591	279.55
433.033	253.8
433.475	309.97
433.917	270.19
434.359	293.59
434.8	312.32
435.242	319.34
435.684	281.89
436.125	246.78
436.567	295.93
437.008	342.74
437.449	286.57
437.891	314.66
438.332	277.21
438.773	302.95
439.214	302.95
439.656	293.59
440.097	293.59
440.538	302.95
440.978	324.02
441.419	267.85
441.86	291.25
442.301	328.7
442.742	253.8
443.182	349.76
443.623	307.63
444.063	342.74
444.504	305.29
444.944	309.97
445.385	324.02
445.825	326.36
446.265	368.49
446.706	321.68
447.146	281.89
447.586	279.55
448.026	326.36
448.466	375.51
448.906	300.61
449.346	291.25
449.786	326.36
450.225	335.72
450.665	291.25
451.105	291.25
451.544	361.47
451.984	293.59
452.424	331.04
452.863	277.21
453.302	253.8
453.742	331.04
454.181	309.97
454.62	244.44
455.059	288.91
455.499	305.29
455.938	295.93
456.377	272.53
456.816	291.25
457.254	312.32
457.693	274.87
458.132	251.46
458.571	309.97
459.01	366.15
459.448	366.15
459.887	347.42
460.325	373.17
460.764	384.87
461.202	277.21
461.641	249.12
462.079	277.21
462.517	317
462.955	352.1
463.393	317
463.832	443.39
464.27	382.53
464.708	349.76
465.145	340.4
465.583	321.68
466.021	441.04
466.459	349.76
466.897	281.89
467.334	324.02
467.772	300.61
468.209	305.29
468.647	314.66
469.084	356.79
469.522	317
469.959	328.7
470.396	298.27
470.833	321.68
471.271	370.83
471.708	312.32
472.145	342.74
472.582	288.91
473.019	277.21
473.456	331.04
473.892	342.74
474.329	321.68
474.766	317
475.202	331.04
475.639	295.93
476.076	317
476.512	305.29
476.949	340.4
477.385	305.29
477.821	265.5
478.258	288.91
478.694	242.1
479.13	333.38
479.566	340.4
480.002	319.34
480.438	302.95
480.874	293.59
481.31	284.23
481.746	319.34
482.181	380.19
482.617	384.87
483.053	300.61
483.488	370.83
483.924	338.06
484.36	274.87
484.795	338.06
485.23	319.34
485.666	270.19
486.101	319.34
486.536	366.15
486.971	380.19
487.407	356.79
487.842	331.04
488.277	295.93
488.712	319.34
489.146	256.14
489.581	319.34
490.016	347.42
490.451	307.63
490.885	324.02
491.32	295.93
491.755	281.89
492.189	295.93
492.624	317
493.058	288.91
493.492	317
493.927	221.03
494.361	321.68
494.795	251.46
495.229	265.5
495.663	270.19
496.097	354.44
496.531	324.02
496.965	279.55
497.399	333.38
497.833	288.91
498.266	317
498.7	270.19
499.134	265.5
499.567	317
500.001	293.59
500.434	349.76
500.868	265.5
501.301	319.34
501.734	279.55
502.168	342.74
502.601	366.15
503.034	333.38
503.467	352.1
503.9	274.87
504.333	317
504.766	319.34
505.199	312.32
505.632	298.27
506.064	328.7
506.497	307.63
506.93	295.93
507.362	286.57
507.795	307.63
508.227	333.38
508.66	340.4
509.092	345.08
509.524	265.5
509.956	382.53
510.389	312.32
510.821	286.57
511.253	368.49
511.685	300.61
512.117	326.36
512.549	295.93
512.981	298.27
513.412	305.29
513.844	352.1
514.276	302.95
514.707	298.27
515.139	251.46
515.571	345.08
516.002	340.4
516.433	333.38
516.865	321.68
517.296	279.55
517.727	354.44
518.159	309.97
518.59	335.72
519.021	253.8
519.452	321.68
519.883	274.87
520.314	319.34
520.744	340.4
521.175	314.66
521.606	277.21
522.037	366.15
522.467	281.89
522.898	333.38
523.328	307.63
523.759	359.13
524.189	258.48
524.62	408.28
525.05	321.68
525.48	293.59
525.91	342.74
526.341	321.68
526.771	274.87
527.201	333.38
527.631	286.57
528.061	307.63
528.49	319.34
528.92	324.02
529.35	302.95
529.78	279.55
530.209	326.36
530.639	338.06
531.068	349.76
531.498	305.29
531.927	331.04
532.357	382.53
532.786	272.53
533.215	324.02
533.644	345.08
534.074	267.85
534.503	354.44
534.932	291.25
535.361	288.91
535.79	298.27
536.218	317
536.647	279.55
537.076	291.25
537.505	331.04
537.933	312.32
538.362	317
538.79	331.04
539.219	263.16
539.647	333.38
540.076	408.28
540.504	293.59
540.932	324.02
541.36	314.66
541.788	368.49
542.217	377.85
542.645	281.89
543.073	326.36
543.5	265.5
543.928	314.66
544.356	319.34
544.784	380.19
545.211	317
545.639	291.25
546.067	335.72
546.494	291.25
546.922	284.23
547.349	274.87
547.776	356.79
548.204	326.36
548.631	230.4
549.058	342.74
549.485	272.53
549.912	267.85
550.339	345.08
550.766	307.63
551.193	363.81
551.62	281.89
552.047	331.04
552.474	340.4
552.9	382.53
553.327	312.32
553.754	328.7
554.18	291.25
554.607	277.21
555.033	307.63
555.459	249.12
555.886	366.15
556.312	305.29
556.738	293.59
557.164	307.63
557.59	265.5
558.016	244.44
558.442	284.23
558.868	291.25
559.294	317
559.72	314.66
560.145	347.42
560.571	324.02
560.997	309.97
561.422	340.4
561.848	312.32
562.273	366.15
562.699	288.91
563.124	417.64
563.549	319.34
563.974	309.97
564.4	319.34
564.825	368.49
565.25	302.95
565.675	305.29
566.1	328.7
566.525	347.42
566.95	272.53
567.374	389.55
567.799	321.68
568.224	380.19
568.648	309.97
569.073	263.16
569.497	298.27
569.922	286.57
570.346	293.59
570.771	295.93
571.195	281.89
571.619	335.72
572.043	331.04
572.467	272.53
572.891	298.27
573.315	328.7
573.739	274.87
574.163	314.66
574.587	286.57
575.011	321.68
575.435	267.85
575.858	286.57
576.282	312.32
576.705	302.95
577.129	333.38
577.552	331.04
577.976	312.32
578.399	305.29
578.822	286.57
579.245	349.76
579.669	295.93
580.092	286.57
580.515	331.04
580.938	321.68
581.361	272.53
581.784	260.82
582.206	345.08
582.629	342.74
583.052	305.29
583.474	333.38
583.897	274.87
584.32	354.44
584.742	317
585.165	317
585.587	317
586.009	319.34
586.431	288.91
586.854	288.91
587.276	363.81
587.698	335.72
588.12	328.7
588.542	288.91
588.964	307.63
589.386	251.46
589.807	223.37
590.229	281.89
590.651	340.4
591.073	321.68
591.494	256.14
591.916	265.5
592.337	305.29
592.759	342.74
593.18	300.61
593.601	352.1
594.022	314.66
594.444	256.14
594.865	317
595.286	347.42
595.707	326.36
596.128	298.27
596.549	366.15
596.97	307.63
597.39	319.34
597.811	363.81
598.232	317
598.652	291.25
599.073	251.46
599.494	281.89
599.914	377.85
600.334	293.59
600.755	333.38
601.175	307.63
601.595	347.42
602.015	328.7
602.436	277.21
602.856	457.43
603.276	363.81
603.696	305.29
604.115	295.93
604.535	293.59
604.955	312.32
605.375	232.74
605.794	317
606.214	326.36
606.634	328.7
607.053	319.34
607.473	251.46
607.892	373.17
608.311	298.27
608.731	328.7
609.15	258.48
609.569	302.95
609.988	302.95
610.407	321.68
610.826	352.1
611.245	359.13
611.664	267.85
612.083	309.97
612.501	309.97
612.92	354.44
613.339	324.02
613.757	331.04
614.176	347.42
614.594	230.4
615.013	302.95
615.431	293.59
615.85	309.97
616.268	338.06
616.686	279.55
617.104	291.25
617.522	272.53
617.94	366.15
618.358	324.02
618.776	246.78
619.194	361.47
619.612	281.89
620.03	253.8
620.447	279.55
620.865	338.06
621.282	340.4
621.7	286.57
622.117	314.66
622.535	340.4
622.952	333.38
623.369	319.34
623.787	326.36
624.204	307.63
624.621	295.93
625.038	265.5
625.455	324.02
625.872	312.32
626.289	279.55
626.706	317
627.123	281.89
627.539	349.76
627.956	314.66
628.373	228.06
628.789	331.04
629.206	267.85
629.622	342.74
630.038	335.72
630.455	305.29
630.871	305.29
631.287	265.5
631.703	317
632.12	363.81
632.536	321.68
632.952	265.5
633.368	286.57
633.783	293.59
634.199	293.59
634.615	342.74
635.031	244.44
635.446	284.23
635.862	286.57
636.277	202.31
636.693	321.68
637.108	305.29
637.524	295.93
637.939	307.63
638.354	354.44
638.77	272.53
639.185	312.32
639.6	373.17
640.015	288.91
640.43	340.4
640.845	333.38
641.259	305.29
641.674	307.63
642.089	321.68
642.504	324.02
642.918	317
643.333	401.26
643.747	335.72
644.162	352.1
644.576	288.91
644.991	317
645.405	302.95
645.819	307.63
646.233	326.36
646.647	345.08
647.061	228.06
647.475	277.21
647.889	340.4
648.303	284.23
648.717	307.63
649.131	291.25
649.545	279.55
649.958	314.66
650.372	324.02
650.785	274.87
651.199	319.34
651.612	288.91
652.026	288.91
652.439	312.32
652.852	305.29
653.266	239.76
653.679	270.19
654.092	317
654.505	319.34
654.918	260.82
655.331	298.27
655.744	312.32
656.156	274.87
656.569	361.47
656.982	265.5
657.394	317
657.807	295.93
658.22	314.66
658.632	284.23
659.044	286.57
659.457	321.68
659.869	293.59
660.281	293.59
660.693	333.38
661.106	246.78
661.518	305.29
661.93	277.21
662.342	267.85
662.754	274.87
663.165	314.66
663.577	293.59
663.989	354.44
664.401	354.44
664.812	239.76
665.224	312.32
665.635	249.12
666.047	354.44
666.458	293.59
666.869	317
667.281	347.42
667.692	312.32
668.103	307.63
668.514	347.42
668.925	279.55
669.336	235.08
669.747	281.89
670.158	307.63
670.569	338.06
670.979	354.44
671.39	328.7
671.801	328.7
672.211	326.36
672.622	347.42
673.032	284.23
673.443	324.02
673.853	300.61
674.263	321.68
674.674	305.29
675.084	277.21
675.494	354.44
675.904	305.29
676.314	281.89
676.724	317
677.134	345.08
677.544	298.27
677.953	293.59
678.363	347.42
678.773	335.72
679.182	298.27
679.592	335.72
680.001	384.87
680.411	338.06
680.82	260.82
681.23	317
681.639	363.81
682.048	295.93
682.457	324.02
682.866	335.72
683.275	270.19
683.684	326.36
684.093	377.85
684.502	312.32
684.911	345.08
685.32	293.59
685.728	317
686.137	258.48
686.546	300.61
686.954	340.4
687.363	281.89
687.771	242.1
688.179	331.04
688.588	347.42
688.996	281.89
689.404	309.97
689.812	279.55
690.22	319.34
690.628	253.8
691.036	295.93
691.444	314.66
691.852	260.82
692.26	305.29
692.667	305.29
693.075	331.04
693.483	349.76
693.89	307.63
694.298	373.17
694.705	396.57
695.112	380.19
695.52	286.57
695.927	331.04
696.334	349.76
696.741	300.61
697.148	260.82
697.555	326.36
697.962	281.89
698.369	333.38
698.776	206.99
699.183	345.08
699.59	288.91
699.996	333.38
700.403	377.85
700.81	291.25
701.216	345.08
701.623	298.27
702.029	331.04
702.435	291.25
702.842	258.48
703.248	340.4
703.654	307.63
704.06	342.74
704.466	361.47
704.872	345.08
705.278	281.89
705.684	359.13
706.09	349.76
706.496	331.04
706.901	288.91
707.307	305.29
707.712	338.06
708.118	300.61
708.523	342.74
708.929	321.68
709.334	312.32
709.74	300.61
710.145	333.38
710.55	265.5
710.955	295.93
711.36	272.53
711.765	333.38
712.17	279.55
712.575	319.34
712.98	785.1
713.385	300.61
713.789	326.36
714.194	293.59
714.599	309.97
715.003	349.76
715.408	267.85
715.812	302.95
716.217	291.25
716.621	333.38
717.025	347.42
717.429	298.27
717.833	324.02
718.238	314.66
718.642	321.68
719.046	300.61
719.449	345.08
719.853	293.59
720.257	340.4
720.661	272.53
721.065	361.47
721.468	288.91
721.872	361.47
722.275	309.97
722.679	291.25
723.082	246.78
723.485	288.91
723.889	302.95
724.292	272.53
724.695	211.67
725.098	352.1
725.501	345.08
725.904	342.74
726.307	244.44
726.71	279.55
727.113	302.95
727.516	331.04
727.918	274.87
728.321	370.83
728.724	251.46
729.126	295.93
729.529	272.53
729.931	319.34
730.333	284.23
730.736	321.68
731.138	312.32
731.54	300.61
731.942	300.61
732.344	422.32
732.746	342.74
733.148	305.29
733.55	342.74
733.952	300.61
734.354	216.35
734.756	288.91
735.157	284.23
735.559	307.63
735.96	291.25
736.362	277.21
736.763	312.32
737.165	384.87
737.566	312.32
737.967	328.7
738.368	265.5
738.77	272.53
739.171	319.34
739.572	277.21
739.973	295.93
740.374	277.21
740.774	305.29
741.175	380.19
741.576	312.32
741.977	228.06
742.377	359.13
742.778	321.68
743.178	349.76
743.579	361.47
743.979	333.38
744.379	375.51
744.78	300.61
745.18	328.7
745.58	349.76
745.98	307.63
746.38	319.34
746.78	352.1
747.18	305.29
747.58	314.66
747.98	317
748.38	291.25
748.779	293.59
749.179	349.76
749.578	326.36
749.978	288.91
750.377	347.42
750.777	328.7
751.176	328.7
751.575	326.36
751.975	335.72
752.374	263.16
752.773	291.25
753.172	314.66
753.571	274.87
753.97	293.59
754.369	352.1
754.768	281.89
755.166	317
755.565	263.16
755.964	324.02
756.362	293.59
756.761	314.66
757.159	331.04
757.558	319.34
757.956	312.32
758.354	366.15
758.753	331.04
759.151	342.74
759.549	338.06
759.947	338.06
760.345	253.8
760.743	300.61
761.141	326.36
761.539	291.25
761.936	361.47
762.334	249.12
762.732	324.02
763.129	317
763.527	286.57
763.924	349.76
764.322	368.49
764.719	274.87
765.117	302.95
765.514	359.13
765.911	272.53
766.308	305.29
766.705	281.89
767.102	295.93
767.499	324.02
767.896	347.42
768.293	298.27
