Data from Al_FLMS009871__854__15-31-16-094.txt Node

Date: Fri Mar 08 15:31:16 CST 2024
User: pe5414po
Spectrometer: FLMS00987
Trigger mode: 0
Integration Time (sec): 1.000000E-1
Scans to average: 1
Electric dark correction enabled: true
Nonlinearity correction enabled: false
Boxcar width: 0
XAxis mode: Wavelengths
Number of Pixels in Spectrum: 2048
>>>>>Begin Spectral Data<<<<<
188.938	-78.7
189.409	-78.7
189.879	-78.7
190.349	-90.4
190.819	-116.15
191.29	-120.83
191.76	-48.27
192.23	-85.72
192.7	-85.72
193.17	-31.89
193.64	-6.14
194.109	-13.17
194.579	-36.57
195.049	10.24
195.519	-3.8
195.988	3.22
196.458	80.46
196.927	54.71
197.397	50.03
197.866	113.22
198.336	120.25
198.805	113.22
199.274	117.9
199.744	190.46
200.213	260.68
200.682	267.7
201.151	241.95
201.62	291.1
202.089	251.32
202.558	234.93
203.027	351.96
203.495	291.1
203.964	279.4
204.433	281.74
204.902	288.76
205.37	263.02
205.839	256
206.307	281.74
206.776	298.13
207.244	300.47
207.712	284.08
208.181	251.32
208.649	274.72
209.117	337.91
209.585	298.13
210.053	344.94
210.521	277.06
210.989	302.81
211.457	335.57
211.925	305.15
212.393	309.83
212.861	295.79
213.328	270.04
213.796	314.51
214.264	220.89
214.731	307.49
215.199	314.51
215.666	314.51
216.133	347.28
216.601	277.06
217.068	295.79
217.535	272.38
218.003	319.19
218.47	256
218.937	272.38
219.404	216.21
219.871	358.98
220.338	326.21
220.805	241.95
221.271	232.59
221.738	256
222.205	227.91
222.671	178.76
223.138	244.29
223.605	281.74
224.071	270.04
224.538	256
225.004	218.55
225.47	302.81
225.937	274.72
226.403	314.51
226.869	246.63
227.335	265.36
227.801	284.08
228.267	279.4
228.733	277.06
229.199	284.08
229.665	274.72
230.131	265.36
230.597	267.7
231.062	267.7
231.528	270.04
231.994	260.68
232.459	251.32
232.925	314.51
233.39	272.38
233.856	234.93
234.321	248.97
234.786	244.29
235.252	244.29
235.717	279.4
236.182	265.36
236.647	305.15
237.112	330.89
237.577	284.08
238.042	314.51
238.507	270.04
238.972	277.06
239.436	293.44
239.901	213.87
240.366	323.87
240.83	305.15
241.295	305.15
241.76	326.21
242.224	253.66
242.688	291.1
243.153	263.02
243.617	267.7
244.081	277.06
244.545	190.46
245.01	293.44
245.474	293.44
245.938	281.74
246.402	253.66
246.866	260.68
247.33	288.76
247.793	284.08
248.257	330.89
248.721	288.76
249.185	248.97
249.648	239.61
250.112	330.89
250.575	237.27
251.039	323.87
251.502	281.74
251.965	244.29
252.429	260.68
252.892	251.32
253.355	286.42
253.818	335.57
254.281	270.04
254.744	253.66
255.207	342.6
255.67	267.7
256.133	272.38
256.596	300.47
257.059	270.04
257.522	323.87
257.984	291.1
258.447	288.76
258.909	330.89
259.372	286.42
259.834	258.34
260.297	344.94
260.759	333.23
261.221	274.72
261.684	272.38
262.146	328.55
262.608	291.1
263.07	267.7
263.532	223.23
263.994	246.63
264.456	302.81
264.918	326.21
265.38	309.83
265.842	272.38
266.303	302.81
266.765	316.85
267.227	291.1
267.688	232.59
268.15	293.44
268.611	265.36
269.072	220.89
269.534	298.13
269.995	263.02
270.456	298.13
270.918	312.17
271.379	286.42
271.84	323.87
272.301	344.94
272.762	300.47
273.223	213.87
273.684	277.06
274.144	309.83
274.605	333.23
275.066	349.62
275.527	291.1
275.987	319.19
276.448	307.49
276.908	333.23
277.369	246.63
277.829	316.85
278.289	363.66
278.75	300.47
279.21	319.19
279.67	270.04
280.13	319.19
280.59	281.74
281.05	307.49
281.51	288.76
281.97	337.91
282.43	279.4
282.89	298.13
283.35	272.38
283.809	253.66
284.269	284.08
284.729	272.38
285.188	286.42
285.648	284.08
286.107	316.85
286.567	288.76
287.026	288.76
287.485	272.38
287.944	302.81
288.404	309.83
288.863	216.21
289.322	286.42
289.781	284.08
290.24	302.81
290.699	284.08
291.158	302.81
291.616	295.79
292.075	274.72
292.534	340.26
292.992	265.36
293.451	265.36
293.91	314.51
294.368	316.85
294.827	265.36
295.285	307.49
295.743	237.27
296.202	248.97
296.66	291.1
297.118	279.4
297.576	305.15
298.034	335.57
298.492	314.51
298.95	265.36
299.408	286.42
299.866	309.83
300.324	291.1
300.781	398.77
301.239	302.81
301.697	314.51
302.154	321.53
302.612	293.44
303.069	323.87
303.527	321.53
303.984	333.23
304.441	316.85
304.899	340.26
305.356	253.66
305.813	270.04
306.27	333.23
306.727	333.23
307.184	335.57
307.641	265.36
308.098	305.15
308.555	347.28
309.012	277.06
309.468	412.81
309.925	354.3
310.382	337.91
310.838	312.17
311.295	319.19
311.751	316.85
312.208	295.79
312.664	256
313.12	284.08
313.577	312.17
314.033	305.15
314.489	309.83
314.945	284.08
315.401	232.59
315.857	349.62
316.313	333.23
316.769	335.57
317.225	302.81
317.681	286.42
318.136	312.17
318.592	333.23
319.048	295.79
319.503	391.75
319.959	351.96
320.414	260.68
320.869	347.28
321.325	333.23
321.78	333.23
322.235	342.6
322.691	384.73
323.146	270.04
323.601	342.6
324.056	286.42
324.511	337.91
324.966	368.34
325.421	309.83
325.875	300.47
326.33	342.6
326.785	256
327.24	302.81
327.694	302.81
328.149	326.21
328.603	258.34
329.058	274.72
329.512	344.94
329.966	302.81
330.421	253.66
330.875	305.15
331.329	256
331.783	291.1
332.237	307.49
332.691	270.04
333.145	300.47
333.599	396.43
334.053	251.32
334.507	342.6
334.96	351.96
335.414	316.85
335.868	330.89
336.321	305.15
336.775	337.91
337.228	309.83
337.682	351.96
338.135	326.21
338.588	398.77
339.042	312.17
339.495	227.91
339.948	361.32
340.401	319.19
340.854	309.83
341.307	312.17
341.76	293.44
342.213	253.66
342.666	260.68
343.119	340.26
343.571	326.21
344.024	312.17
344.477	270.04
344.929	333.23
345.382	284.08
345.834	314.51
346.287	246.63
346.739	314.51
347.191	291.1
347.644	302.81
348.096	192.8
348.548	335.57
349	258.34
349.452	344.94
349.904	340.26
350.356	328.55
350.808	291.1
351.26	361.32
351.711	356.64
352.163	284.08
352.615	279.4
353.066	340.26
353.518	286.42
353.969	316.85
354.421	279.4
354.872	356.64
355.324	312.17
355.775	300.47
356.226	314.51
356.677	277.06
357.128	298.13
357.579	265.36
358.03	284.08
358.481	314.51
358.932	305.15
359.383	291.1
359.834	326.21
360.285	344.94
360.735	361.32
361.186	380.04
361.637	312.17
362.087	356.64
362.538	375.36
362.988	319.19
363.438	295.79
363.889	349.62
364.339	326.21
364.789	279.4
365.239	223.23
365.689	314.51
366.139	288.76
366.589	361.32
367.039	295.79
367.489	295.79
367.939	286.42
368.389	366
368.839	351.96
369.288	300.47
369.738	337.91
370.187	356.64
370.637	373.02
371.086	291.1
371.536	307.49
371.985	270.04
372.434	232.59
372.884	309.83
373.333	326.21
373.782	319.19
374.231	333.23
374.68	337.91
375.129	316.85
375.578	356.64
376.027	321.53
376.475	337.91
376.924	274.72
377.373	356.64
377.822	265.36
378.27	363.66
378.719	274.72
379.167	298.13
379.616	312.17
380.064	307.49
380.512	314.51
380.961	340.26
381.409	351.96
381.857	274.72
382.305	380.04
382.753	333.23
383.201	377.7
383.649	323.87
384.097	335.57
384.545	323.87
384.992	305.15
385.44	326.21
385.888	366
386.335	248.97
386.783	300.47
387.231	328.55
387.678	309.83
388.125	335.57
388.573	272.38
389.02	354.3
389.467	344.94
389.914	326.21
390.362	337.91
390.809	340.26
391.256	328.55
391.703	314.51
392.15	342.6
392.596	302.81
393.043	302.81
393.49	349.62
393.937	337.91
394.383	305.15
394.83	302.81
395.276	321.53
395.723	307.49
396.169	321.53
396.616	277.06
397.062	321.53
397.508	288.76
397.954	314.51
398.401	358.98
398.847	351.96
399.293	321.53
399.739	305.15
400.185	267.7
400.631	354.3
401.076	295.79
401.522	326.21
401.968	295.79
402.414	281.74
402.859	305.15
403.305	314.51
403.75	291.1
404.196	314.51
404.641	302.81
405.086	281.74
405.532	375.36
405.977	321.53
406.422	286.42
406.867	288.76
407.312	326.21
407.757	349.62
408.202	330.89
408.647	347.28
409.092	314.51
409.537	323.87
409.982	330.89
410.426	363.66
410.871	340.26
411.316	263.02
411.76	337.91
412.205	354.3
412.649	272.38
413.093	312.17
413.538	256
413.982	312.17
414.426	305.15
414.87	256
415.314	335.57
415.758	312.17
416.202	288.76
416.646	361.32
417.09	344.94
417.534	305.15
417.978	354.3
418.421	361.32
418.865	380.04
419.309	380.04
419.752	281.74
420.196	291.1
420.639	295.79
421.083	309.83
421.526	305.15
421.969	316.85
422.412	312.17
422.856	272.38
423.299	260.68
423.742	337.91
424.185	398.77
424.628	340.26
425.071	391.75
425.513	333.23
425.956	344.94
426.399	328.55
426.842	270.04
427.284	356.64
427.727	337.91
428.169	394.09
428.612	330.89
429.054	300.47
429.497	335.57
429.939	279.4
430.381	330.89
430.823	358.98
431.265	335.57
431.707	300.47
432.149	309.83
432.591	335.57
433.033	265.36
433.475	300.47
433.917	344.94
434.359	288.76
434.8	323.87
435.242	330.89
435.684	279.4
436.125	370.68
436.567	356.64
437.008	277.06
437.449	293.44
437.891	267.7
438.332	291.1
438.773	321.53
439.214	342.6
439.656	298.13
440.097	366
440.538	326.21
440.978	377.7
441.419	337.91
441.86	337.91
442.301	246.63
442.742	366
443.182	312.17
443.623	368.34
444.063	298.13
444.504	354.3
444.944	363.66
445.385	284.08
445.825	321.53
446.265	281.74
446.706	337.91
447.146	351.96
447.586	344.94
448.026	307.49
448.466	312.17
448.906	302.81
449.346	370.68
449.786	281.74
450.225	347.28
450.665	354.3
451.105	340.26
451.544	305.15
451.984	312.17
452.424	349.62
452.863	337.91
453.302	321.53
453.742	333.23
454.181	326.21
454.62	241.95
455.059	270.04
455.499	316.85
455.938	333.23
456.377	347.28
456.816	351.96
457.254	323.87
457.693	333.23
458.132	351.96
458.571	326.21
459.01	319.19
459.448	366
459.887	300.47
460.325	328.55
460.764	309.83
461.202	307.49
461.641	223.23
462.079	274.72
462.517	288.76
462.955	368.34
463.393	314.51
463.832	323.87
464.27	410.47
464.708	328.55
465.145	321.53
465.583	347.28
466.021	323.87
466.459	337.91
466.897	321.53
467.334	335.57
467.772	302.81
468.209	347.28
468.647	354.3
469.084	307.49
469.522	295.79
469.959	340.26
470.396	321.53
470.833	380.04
471.271	286.42
471.708	328.55
472.145	312.17
472.582	316.85
473.019	277.06
473.456	244.29
473.892	279.4
474.329	279.4
474.766	333.23
475.202	314.51
475.639	326.21
476.076	291.1
476.512	356.64
476.949	347.28
477.385	291.1
477.821	328.55
478.258	330.89
478.694	316.85
479.13	354.3
479.566	354.3
480.002	316.85
480.438	246.63
480.874	305.15
481.31	263.02
481.746	314.51
482.181	309.83
482.617	307.49
483.053	356.64
483.488	340.26
483.924	337.91
484.36	335.57
484.795	337.91
485.23	377.7
485.666	298.13
486.101	316.85
486.536	305.15
486.971	340.26
487.407	358.98
487.842	337.91
488.277	323.87
488.712	380.04
489.146	335.57
489.581	293.44
490.016	270.04
490.451	337.91
490.885	398.77
491.32	370.68
491.755	382.39
492.189	277.06
492.624	382.39
493.058	272.38
493.492	333.23
493.927	323.87
494.361	281.74
494.795	309.83
495.229	312.17
495.663	370.68
496.097	305.15
496.531	307.49
496.965	288.76
497.399	288.76
497.833	314.51
498.266	333.23
498.7	286.42
499.134	314.51
499.567	337.91
500.001	342.6
500.434	286.42
500.868	337.91
501.301	361.32
501.734	377.7
502.168	366
502.601	305.15
503.034	396.43
503.467	394.09
503.9	321.53
504.333	298.13
504.766	323.87
505.199	270.04
505.632	373.02
506.064	316.85
506.497	319.19
506.93	309.83
507.362	300.47
507.795	309.83
508.227	309.83
508.66	349.62
509.092	270.04
509.524	321.53
509.956	330.89
510.389	274.72
510.821	256
511.253	314.51
511.685	265.36
512.117	274.72
512.549	330.89
512.981	293.44
513.412	333.23
513.844	326.21
514.276	335.57
514.707	335.57
515.139	293.44
515.571	328.55
516.002	286.42
516.433	323.87
516.865	314.51
517.296	340.26
517.727	387.07
518.159	347.28
518.59	305.15
519.021	337.91
519.452	321.53
519.883	307.49
520.314	330.89
520.744	286.42
521.175	340.26
521.606	368.34
522.037	323.87
522.467	368.34
522.898	342.6
523.328	307.49
523.759	279.4
524.189	319.19
524.62	401.11
525.05	305.15
525.48	309.83
525.91	305.15
526.341	316.85
526.771	314.51
527.201	314.51
527.631	279.4
528.061	305.15
528.49	337.91
528.92	347.28
529.35	309.83
529.78	263.02
530.209	351.96
530.639	279.4
531.068	330.89
531.498	340.26
531.927	293.44
532.357	277.06
532.786	337.91
533.215	298.13
533.644	307.49
534.074	321.53
534.503	291.1
534.932	321.53
535.361	291.1
535.79	291.1
536.218	354.3
536.647	396.43
537.076	330.89
537.505	293.44
537.933	241.95
538.362	342.6
538.79	298.13
539.219	349.62
539.647	335.57
540.076	286.42
540.504	309.83
540.932	248.97
541.36	344.94
541.788	351.96
542.217	337.91
542.645	288.76
543.073	300.47
543.5	281.74
543.928	295.79
544.356	279.4
544.784	337.91
545.211	293.44
545.639	298.13
546.067	253.66
546.494	356.64
546.922	307.49
547.349	298.13
547.776	286.42
548.204	382.39
548.631	288.76
549.058	347.28
549.485	300.47
549.912	356.64
550.339	291.1
550.766	356.64
551.193	298.13
551.62	288.76
552.047	330.89
552.474	391.75
552.9	321.53
553.327	356.64
553.754	295.79
554.18	284.08
554.607	370.68
555.033	340.26
555.459	274.72
555.886	291.1
556.312	302.81
556.738	277.06
557.164	288.76
557.59	377.7
558.016	312.17
558.442	260.68
558.868	351.96
559.294	286.42
559.72	330.89
560.145	302.81
560.571	248.97
560.997	267.7
561.422	337.91
561.848	274.72
562.273	316.85
562.699	347.28
563.124	309.83
563.549	312.17
563.974	316.85
564.4	333.23
564.825	340.26
565.25	298.13
565.675	358.98
566.1	277.06
566.525	314.51
566.95	321.53
567.374	305.15
567.799	340.26
568.224	286.42
568.648	333.23
569.073	344.94
569.497	286.42
569.922	312.17
570.346	323.87
570.771	375.36
571.195	314.51
571.619	347.28
572.043	312.17
572.467	366
572.891	410.47
573.315	323.87
573.739	326.21
574.163	330.89
574.587	321.53
575.011	305.15
575.435	370.68
575.858	253.66
576.282	265.36
576.705	293.44
577.129	286.42
577.552	333.23
577.976	284.08
578.399	316.85
578.822	265.36
579.245	361.32
579.669	412.81
580.092	288.76
580.515	361.32
580.938	307.49
581.361	291.1
581.784	279.4
582.206	258.34
582.629	333.23
583.052	323.87
583.474	344.94
583.897	314.51
584.32	319.19
584.742	323.87
585.165	300.47
585.587	305.15
586.009	305.15
586.431	307.49
586.854	333.23
587.276	349.62
587.698	328.55
588.12	314.51
588.542	286.42
588.964	305.15
589.386	326.21
589.807	284.08
590.229	305.15
590.651	267.7
591.073	263.02
591.494	272.38
591.916	354.3
592.337	328.55
592.759	328.55
593.18	349.62
593.601	335.57
594.022	328.55
594.444	260.68
594.865	270.04
595.286	246.63
595.707	305.15
596.128	312.17
596.549	351.96
596.97	305.15
597.39	284.08
597.811	342.6
598.232	307.49
598.652	328.55
599.073	323.87
599.494	265.36
599.914	366
600.334	328.55
600.755	335.57
601.175	291.1
601.595	312.17
602.015	293.44
602.436	326.21
602.856	389.41
603.276	265.36
603.696	279.4
604.115	349.62
604.535	263.02
604.955	309.83
605.375	270.04
605.794	342.6
606.214	321.53
606.634	321.53
607.053	284.08
607.473	281.74
607.892	347.28
608.311	321.53
608.731	232.59
609.15	349.62
609.569	288.76
609.988	307.49
610.407	293.44
610.826	281.74
611.245	326.21
611.664	323.87
612.083	305.15
612.501	321.53
612.92	302.81
613.339	305.15
613.757	356.64
614.176	305.15
614.594	316.85
615.013	391.75
615.431	234.93
615.85	316.85
616.268	351.96
616.686	328.55
617.104	328.55
617.522	349.62
617.94	333.23
618.358	291.1
618.776	344.94
619.194	330.89
619.612	312.17
620.03	342.6
620.447	293.44
620.865	295.79
621.282	326.21
621.7	298.13
622.117	333.23
622.535	284.08
622.952	356.64
623.369	295.79
623.787	337.91
624.204	305.15
624.621	344.94
625.038	349.62
625.455	356.64
625.872	302.81
626.289	305.15
626.706	314.51
627.123	307.49
627.539	302.81
627.956	335.57
628.373	314.51
628.789	291.1
629.206	356.64
629.622	358.98
630.038	286.42
630.455	328.55
630.871	391.75
631.287	368.34
631.703	279.4
632.12	323.87
632.536	358.98
632.952	347.28
633.368	288.76
633.783	300.47
634.199	309.83
634.615	382.39
635.031	288.76
635.446	305.15
635.862	373.02
636.277	354.3
636.693	305.15
637.108	356.64
637.524	319.19
637.939	309.83
638.354	305.15
638.77	277.06
639.185	326.21
639.6	237.27
640.015	316.85
640.43	305.15
640.845	286.42
641.259	281.74
641.674	321.53
642.089	333.23
642.504	375.36
642.918	375.36
643.333	340.26
643.747	284.08
644.162	277.06
644.576	307.49
644.991	358.98
645.405	377.7
645.819	330.89
646.233	286.42
646.647	380.04
647.061	316.85
647.475	344.94
647.889	410.47
648.303	361.32
648.717	248.97
649.131	300.47
649.545	281.74
649.958	277.06
650.372	323.87
650.785	333.23
651.199	321.53
651.612	265.36
652.026	309.83
652.439	361.32
652.852	291.1
653.266	335.57
653.679	326.21
654.092	302.81
654.505	361.32
654.918	279.4
655.331	333.23
655.744	351.96
656.156	307.49
656.569	291.1
656.982	394.09
657.394	253.66
657.807	347.28
658.22	286.42
658.632	288.76
659.044	358.98
659.457	307.49
659.869	270.04
660.281	295.79
660.693	286.42
661.106	316.85
661.518	295.79
661.93	234.93
662.342	370.68
662.754	328.55
663.165	300.47
663.577	281.74
663.989	340.26
664.401	277.06
664.812	256
665.224	274.72
665.635	335.57
666.047	344.94
666.458	333.23
666.869	321.53
667.281	270.04
667.692	380.04
668.103	356.64
668.514	337.91
668.925	312.17
669.336	342.6
669.747	309.83
670.158	237.27
670.569	256
670.979	298.13
671.39	309.83
671.801	326.21
672.211	312.17
672.622	326.21
673.032	319.19
673.443	363.66
673.853	319.19
674.263	321.53
674.674	272.38
675.084	279.4
675.494	314.51
675.904	288.76
676.314	349.62
676.724	284.08
677.134	366
677.544	314.51
677.953	295.79
678.363	288.76
678.773	312.17
679.182	321.53
679.592	286.42
680.001	361.32
680.411	281.74
680.82	260.68
681.23	335.57
681.639	267.7
682.048	370.68
682.457	307.49
682.866	361.32
683.275	300.47
683.684	267.7
684.093	239.61
684.502	267.7
684.911	305.15
685.32	288.76
685.728	258.34
686.137	342.6
686.546	277.06
686.954	277.06
687.363	333.23
687.771	314.51
688.179	351.96
688.588	375.36
688.996	295.79
689.404	300.47
689.812	309.83
690.22	291.1
690.628	326.21
691.036	319.19
691.444	321.53
691.852	340.26
692.26	344.94
692.667	347.28
693.075	358.98
693.483	344.94
693.89	293.44
694.298	300.47
694.705	415.15
695.112	349.62
695.52	356.64
695.927	340.26
696.334	312.17
696.741	312.17
697.148	330.89
697.555	298.13
697.962	330.89
698.369	326.21
698.776	265.36
699.183	326.21
699.59	323.87
699.996	302.81
700.403	328.55
700.81	307.49
701.216	333.23
701.623	300.47
702.029	321.53
702.435	368.34
702.842	328.55
703.248	412.81
703.654	335.57
704.06	330.89
704.466	349.62
704.872	274.72
705.278	246.63
705.684	319.19
706.09	387.07
706.496	307.49
706.901	312.17
707.307	251.32
707.712	326.21
708.118	335.57
708.523	291.1
708.929	293.44
709.334	286.42
709.74	244.29
710.145	333.23
710.55	293.44
710.955	335.57
711.36	258.34
711.765	377.7
712.17	347.28
712.575	260.68
712.98	871.56
713.385	328.55
713.789	354.3
714.194	330.89
714.599	319.19
715.003	284.08
715.408	316.85
715.812	263.02
716.217	260.68
716.621	340.26
717.025	307.49
717.429	342.6
717.833	326.21
718.238	291.1
718.642	293.44
719.046	277.06
719.449	389.41
719.853	342.6
720.257	321.53
720.661	302.81
721.065	305.15
721.468	328.55
721.872	356.64
722.275	358.98
722.679	396.43
723.082	281.74
723.485	368.34
723.889	288.76
724.292	344.94
724.695	330.89
725.098	354.3
725.501	354.3
725.904	342.6
726.307	356.64
726.71	316.85
727.113	351.96
727.516	277.06
727.918	356.64
728.321	288.76
728.724	305.15
729.126	267.7
729.529	295.79
729.931	358.98
730.333	253.66
730.736	272.38
731.138	267.7
731.54	291.1
731.942	312.17
732.344	293.44
732.746	316.85
733.148	342.6
733.55	293.44
733.952	256
734.354	293.44
734.756	305.15
735.157	333.23
735.559	340.26
735.96	302.81
736.362	307.49
736.763	323.87
737.165	309.83
737.566	349.62
737.967	326.21
738.368	291.1
738.77	305.15
739.171	326.21
739.572	410.47
739.973	305.15
740.374	349.62
740.774	319.19
741.175	295.79
741.576	239.61
741.977	333.23
742.377	237.27
742.778	410.47
743.178	286.42
743.579	305.15
743.979	286.42
744.379	377.7
744.78	295.79
745.18	337.91
745.58	314.51
745.98	291.1
746.38	316.85
746.78	281.74
747.18	284.08
747.58	323.87
747.98	274.72
748.38	314.51
748.779	302.81
749.179	307.49
749.578	314.51
749.978	293.44
750.377	277.06
750.777	326.21
751.176	277.06
751.575	272.38
751.975	312.17
752.374	295.79
752.773	366
753.172	380.04
753.571	330.89
753.97	335.57
754.369	295.79
754.768	307.49
755.166	267.7
755.565	316.85
755.964	309.83
756.362	328.55
756.761	300.47
757.159	342.6
757.558	248.97
757.956	326.21
758.354	312.17
758.753	321.53
759.151	347.28
759.549	337.91
759.947	286.42
760.345	241.95
760.743	279.4
761.141	321.53
761.539	284.08
761.936	248.97
762.334	305.15
762.732	305.15
763.129	302.81
763.527	344.94
763.924	337.91
764.322	263.02
764.719	351.96
765.117	232.59
765.514	305.15
765.911	307.49
766.308	382.39
766.705	277.06
