Data from Al_FLMS009871__840__15-31-14-694.txt Node

Date: Fri Mar 08 15:31:14 CST 2024
User: pe5414po
Spectrometer: FLMS00987
Trigger mode: 0
Integration Time (sec): 1.000000E-1
Scans to average: 1
Electric dark correction enabled: true
Nonlinearity correction enabled: false
Boxcar width: 0
XAxis mode: Wavelengths
Number of Pixels in Spectrum: 2048
>>>>>Begin Spectral Data<<<<<
188.938	-61.73
189.409	-61.73
189.879	-61.73
190.349	-73.43
190.819	-59.39
191.29	-103.86
191.76	-117.9
192.23	-113.22
192.7	-73.43
193.17	-52.37
193.64	-64.07
194.109	-47.69
194.579	-54.71
195.049	-17.26
195.519	27.21
195.988	85.72
196.458	113.81
196.927	132.53
197.397	76.36
197.866	90.4
198.336	118.49
198.805	132.53
199.274	109.13
199.744	193.39
200.213	200.41
200.682	181.68
201.151	244.88
201.62	228.49
202.089	322.12
202.558	228.49
203.027	279.99
203.495	272.96
203.964	205.09
204.433	289.35
204.902	284.67
205.37	282.33
205.839	282.33
206.307	357.22
206.776	347.86
207.244	261.26
207.712	366.59
208.181	343.18
208.649	277.65
209.117	244.88
209.585	291.69
210.053	338.5
210.521	284.67
210.989	345.52
211.457	333.82
211.925	263.6
212.393	291.69
212.861	209.77
213.328	287.01
213.796	340.84
214.264	296.37
214.731	329.14
215.199	275.31
215.666	251.9
216.133	279.99
216.601	303.39
217.068	254.24
217.535	270.62
218.003	366.59
218.47	240.2
218.937	294.03
219.404	263.6
219.871	315.09
220.338	343.18
220.805	237.86
221.271	261.26
221.738	268.28
222.205	312.75
222.671	242.54
223.138	270.62
223.605	315.09
224.071	237.86
224.538	279.99
225.004	240.2
225.47	310.41
225.937	256.58
226.403	289.35
226.869	198.07
227.335	251.9
227.801	329.14
228.267	312.75
228.733	315.09
229.199	305.73
229.665	301.05
230.131	301.05
230.597	233.18
231.062	312.75
231.528	322.12
231.994	319.78
232.459	244.88
232.925	375.95
233.39	247.22
233.856	289.35
234.321	305.73
234.786	301.05
235.252	263.6
235.717	294.03
236.182	333.82
236.647	303.39
237.112	338.5
237.577	287.01
238.042	261.26
238.507	294.03
238.972	340.84
239.436	268.28
239.901	247.22
240.366	277.65
240.83	312.75
241.295	359.56
241.76	237.86
242.224	345.52
242.688	275.31
243.153	256.58
243.617	294.03
244.081	298.71
244.545	277.65
245.01	256.58
245.474	345.52
245.938	270.62
246.402	287.01
246.866	275.31
247.33	294.03
247.793	310.41
248.257	305.73
248.721	284.67
249.185	261.26
249.648	219.13
250.112	291.69
250.575	261.26
251.039	279.99
251.502	301.05
251.965	317.44
252.429	324.46
252.892	263.6
253.355	263.6
253.818	258.92
254.281	258.92
254.744	251.9
255.207	347.86
255.67	338.5
256.133	265.94
256.596	298.71
257.059	277.65
257.522	389.99
257.984	240.2
258.447	233.18
258.909	366.59
259.372	261.26
259.834	336.16
260.297	256.58
260.759	338.5
261.221	305.73
261.684	226.15
262.146	291.69
262.608	303.39
263.07	357.22
263.532	279.99
263.994	272.96
264.456	399.35
264.918	298.71
265.38	268.28
265.842	324.46
266.303	371.27
266.765	317.44
267.227	324.46
267.688	308.07
268.15	247.22
268.611	294.03
269.072	305.73
269.534	294.03
269.995	301.05
270.456	275.31
270.918	289.35
271.379	303.39
271.84	312.75
272.301	301.05
272.762	345.52
273.223	319.78
273.684	336.16
274.144	350.2
274.605	287.01
275.066	347.86
275.527	333.82
275.987	329.14
276.448	275.31
276.908	275.31
277.369	301.05
277.829	331.48
278.289	333.82
278.75	411.06
279.21	284.67
279.67	319.78
280.13	294.03
280.59	364.25
281.05	315.09
281.51	303.39
281.97	282.33
282.43	298.71
282.89	287.01
283.35	294.03
283.809	308.07
284.269	296.37
284.729	315.09
285.188	298.71
285.648	317.44
286.107	258.92
286.567	256.58
287.026	364.25
287.485	338.5
287.944	301.05
288.404	261.26
288.863	308.07
289.322	263.6
289.781	315.09
290.24	305.73
290.699	296.37
291.158	268.28
291.616	319.78
292.075	326.8
292.534	256.58
292.992	326.8
293.451	331.48
293.91	301.05
294.368	329.14
294.827	289.35
295.285	282.33
295.743	312.75
296.202	310.41
296.66	305.73
297.118	254.24
297.576	324.46
298.034	322.12
298.492	272.96
298.95	298.71
299.408	310.41
299.866	303.39
300.324	303.39
300.781	324.46
301.239	357.22
301.697	315.09
302.154	294.03
302.612	336.16
303.069	270.62
303.527	343.18
303.984	294.03
304.441	317.44
304.899	315.09
305.356	301.05
305.813	406.38
306.27	317.44
306.727	380.63
307.184	265.94
307.641	333.82
308.098	251.9
308.555	404.03
309.012	322.12
309.468	368.93
309.925	275.31
310.382	343.18
310.838	305.73
311.295	331.48
311.751	223.81
312.208	308.07
312.664	298.71
313.12	387.65
313.577	289.35
314.033	436.8
314.489	301.05
314.945	291.69
315.401	294.03
315.857	287.01
316.313	368.93
316.769	333.82
317.225	291.69
317.681	312.75
318.136	294.03
318.592	340.84
319.048	364.25
319.503	380.63
319.959	331.48
320.414	308.07
320.869	326.8
321.325	272.96
321.78	265.94
322.235	303.39
322.691	287.01
323.146	343.18
323.601	310.41
324.056	340.84
324.511	284.67
324.966	298.71
325.421	308.07
325.875	287.01
326.33	303.39
326.785	326.8
327.24	315.09
327.694	310.41
328.149	279.99
328.603	368.93
329.058	277.65
329.512	364.25
329.966	272.96
330.421	375.95
330.875	294.03
331.329	275.31
331.783	315.09
332.237	277.65
332.691	324.46
333.145	308.07
333.599	303.39
334.053	289.35
334.507	345.52
334.96	345.52
335.414	287.01
335.868	279.99
336.321	258.92
336.775	310.41
337.228	329.14
337.682	303.39
338.135	366.59
338.588	298.71
339.042	287.01
339.495	310.41
339.948	322.12
340.401	305.73
340.854	305.73
341.307	312.75
341.76	305.73
342.213	336.16
342.666	270.62
343.119	378.29
343.571	261.26
344.024	397.01
344.477	272.96
344.929	408.72
345.382	312.75
345.834	329.14
346.287	284.67
346.739	399.35
347.191	317.44
347.644	326.8
348.096	291.69
348.548	336.16
349	289.35
349.452	310.41
349.904	287.01
350.356	319.78
350.808	371.27
351.26	301.05
351.711	301.05
352.163	340.84
352.615	436.8
353.066	401.69
353.518	338.5
353.969	333.82
354.421	247.22
354.872	340.84
355.324	319.78
355.775	291.69
356.226	345.52
356.677	317.44
357.128	345.52
357.579	296.37
358.03	333.82
358.481	347.86
358.932	366.59
359.383	319.78
359.834	294.03
360.285	317.44
360.735	343.18
361.186	333.82
361.637	357.22
362.087	354.88
362.538	268.28
362.988	336.16
363.438	331.48
363.889	310.41
364.339	352.54
364.789	294.03
365.239	343.18
365.689	359.56
366.139	380.63
366.589	289.35
367.039	345.52
367.489	322.12
367.939	359.56
368.389	336.16
368.839	371.27
369.288	324.46
369.738	322.12
370.187	317.44
370.637	258.92
371.086	279.99
371.536	345.52
371.985	359.56
372.434	329.14
372.884	354.88
373.333	389.99
373.782	277.65
374.231	340.84
374.68	282.33
375.129	343.18
375.578	336.16
376.027	308.07
376.475	322.12
376.924	258.92
377.373	298.71
377.822	305.73
378.27	394.67
378.719	354.88
379.167	326.8
379.616	371.27
380.064	350.2
380.512	282.33
380.961	315.09
381.409	366.59
381.857	298.71
382.305	336.16
382.753	310.41
383.201	317.44
383.649	324.46
384.097	343.18
384.545	296.37
384.992	347.86
385.44	371.27
385.888	317.44
386.335	308.07
386.783	303.39
387.231	329.14
387.678	298.71
388.125	296.37
388.573	366.59
389.02	350.2
389.467	333.82
389.914	305.73
390.362	270.62
390.809	310.41
391.256	294.03
391.703	317.44
392.15	294.03
392.596	282.33
393.043	282.33
393.49	303.39
393.937	343.18
394.383	265.94
394.83	315.09
395.276	254.24
395.723	312.75
396.169	289.35
396.616	308.07
397.062	317.44
397.508	263.6
397.954	364.25
398.401	357.22
398.847	380.63
399.293	375.95
399.739	315.09
400.185	305.73
400.631	352.54
401.076	308.07
401.522	310.41
401.968	275.31
402.414	312.75
402.859	336.16
403.305	310.41
403.75	315.09
404.196	237.86
404.641	317.44
405.086	305.73
405.532	394.67
405.977	312.75
406.422	270.62
406.867	361.91
407.312	317.44
407.757	357.22
408.202	345.52
408.647	352.54
409.092	364.25
409.537	371.27
409.982	375.95
410.426	352.54
410.871	359.56
411.316	324.46
411.76	336.16
412.205	333.82
412.649	298.71
413.093	303.39
413.538	242.54
413.982	315.09
414.426	373.61
414.87	329.14
415.314	312.75
415.758	324.46
416.202	387.65
416.646	324.46
417.09	333.82
417.534	326.8
417.978	378.29
418.421	331.48
418.865	261.26
419.309	406.38
419.752	315.09
420.196	322.12
420.639	317.44
421.083	315.09
421.526	322.12
421.969	364.25
422.412	359.56
422.856	324.46
423.299	368.93
423.742	350.2
424.185	305.73
424.628	326.8
425.071	317.44
425.513	294.03
425.956	312.75
426.399	279.99
426.842	347.86
427.284	333.82
427.727	326.8
428.169	289.35
428.612	329.14
429.054	310.41
429.497	308.07
429.939	305.73
430.381	324.46
430.823	357.22
431.265	357.22
431.707	291.69
432.149	336.16
432.591	392.33
433.033	315.09
433.475	291.69
433.917	282.33
434.359	305.73
434.8	380.63
435.242	308.07
435.684	361.91
436.125	338.5
436.567	350.2
437.008	336.16
437.449	338.5
437.891	308.07
438.332	352.54
438.773	279.99
439.214	310.41
439.656	333.82
440.097	296.37
440.538	326.8
440.978	315.09
441.419	287.01
441.86	345.52
442.301	336.16
442.742	399.35
443.182	411.06
443.623	298.71
444.063	301.05
444.504	315.09
444.944	382.97
445.385	310.41
445.825	361.91
446.265	333.82
446.706	312.75
447.146	366.59
447.586	343.18
448.026	331.48
448.466	364.25
448.906	411.06
449.346	282.33
449.786	340.84
450.225	261.26
450.665	413.4
451.105	347.86
451.544	319.78
451.984	322.12
452.424	347.86
452.863	357.22
453.302	347.86
453.742	296.37
454.181	368.93
454.62	329.14
455.059	310.41
455.499	375.95
455.938	303.39
456.377	368.93
456.816	371.27
457.254	385.31
457.693	375.95
458.132	308.07
458.571	312.75
459.01	322.12
459.448	324.46
459.887	366.59
460.325	329.14
460.764	294.03
461.202	289.35
461.641	312.75
462.079	329.14
462.517	347.86
462.955	350.2
463.393	315.09
463.832	256.58
464.27	282.33
464.708	389.99
465.145	350.2
465.583	275.31
466.021	284.67
466.459	305.73
466.897	350.2
467.334	350.2
467.772	303.39
468.209	359.56
468.647	368.93
469.084	331.48
469.522	331.48
469.959	340.84
470.396	345.52
470.833	354.88
471.271	303.39
471.708	294.03
472.145	289.35
472.582	301.05
473.019	333.82
473.456	294.03
473.892	331.48
474.329	329.14
474.766	347.86
475.202	331.48
475.639	270.62
476.076	345.52
476.512	291.69
476.949	385.31
477.385	279.99
477.821	366.59
478.258	310.41
478.694	301.05
479.13	263.6
479.566	329.14
480.002	343.18
480.438	287.01
480.874	329.14
481.31	287.01
481.746	357.22
482.181	331.48
482.617	289.35
483.053	324.46
483.488	340.84
483.924	361.91
484.36	303.39
484.795	291.69
485.23	336.16
485.666	345.52
486.101	340.84
486.536	382.97
486.971	338.5
487.407	347.86
487.842	375.95
488.277	336.16
488.712	366.59
489.146	319.78
489.581	324.46
490.016	371.27
490.451	319.78
490.885	291.69
491.32	333.82
491.755	294.03
492.189	294.03
492.624	296.37
493.058	263.6
493.492	350.2
493.927	326.8
494.361	275.31
494.795	340.84
495.229	352.54
495.663	368.93
496.097	310.41
496.531	270.62
496.965	312.75
497.399	326.8
497.833	289.35
498.266	319.78
498.7	366.59
499.134	303.39
499.567	399.35
500.001	357.22
500.434	333.82
500.868	301.05
501.301	303.39
501.734	312.75
502.168	301.05
502.601	294.03
503.034	319.78
503.467	331.48
503.9	350.2
504.333	347.86
504.766	350.2
505.199	347.86
505.632	284.67
506.064	359.56
506.497	282.33
506.93	289.35
507.362	347.86
507.795	294.03
508.227	345.52
508.66	380.63
509.092	333.82
509.524	329.14
509.956	373.61
510.389	324.46
510.821	350.2
511.253	345.52
511.685	310.41
512.117	319.78
512.549	256.58
512.981	387.65
513.412	357.22
513.844	347.86
514.276	357.22
514.707	340.84
515.139	340.84
515.571	329.14
516.002	301.05
516.433	324.46
516.865	350.2
517.296	340.84
517.727	310.41
518.159	371.27
518.59	364.25
519.021	373.61
519.452	359.56
519.883	319.78
520.314	303.39
520.744	347.86
521.175	343.18
521.606	312.75
522.037	352.54
522.467	312.75
522.898	338.5
523.328	265.94
523.759	397.01
524.189	322.12
524.62	387.65
525.05	319.78
525.48	368.93
525.91	289.35
526.341	331.48
526.771	368.93
527.201	305.73
527.631	354.88
528.061	352.54
528.49	251.9
528.92	326.8
529.35	336.16
529.78	277.65
530.209	294.03
530.639	333.82
531.068	394.67
531.498	371.27
531.927	345.52
532.357	359.56
532.786	317.44
533.215	347.86
533.644	331.48
534.074	347.86
534.503	322.12
534.932	301.05
535.361	371.27
535.79	322.12
536.218	282.33
536.647	312.75
537.076	305.73
537.505	308.07
537.933	312.75
538.362	357.22
538.79	368.93
539.219	378.29
539.647	333.82
540.076	312.75
540.504	352.54
540.932	364.25
541.36	303.39
541.788	294.03
542.217	378.29
542.645	317.44
543.073	291.69
543.5	373.61
543.928	340.84
544.356	350.2
544.784	352.54
545.211	329.14
545.639	310.41
546.067	336.16
546.494	279.99
546.922	326.8
547.349	347.86
547.776	371.27
548.204	268.28
548.631	254.24
549.058	277.65
549.485	357.22
549.912	308.07
550.339	303.39
550.766	254.24
551.193	354.88
551.62	343.18
552.047	343.18
552.474	350.2
552.9	315.09
553.327	361.91
553.754	284.67
554.18	340.84
554.607	331.48
555.033	331.48
555.459	256.58
555.886	308.07
556.312	336.16
556.738	298.71
557.164	322.12
557.59	312.75
558.016	291.69
558.442	347.86
558.868	343.18
559.294	336.16
559.72	345.52
560.145	319.78
560.571	338.5
560.997	345.52
561.422	343.18
561.848	408.72
562.273	272.96
562.699	301.05
563.124	319.78
563.549	392.33
563.974	279.99
564.4	366.59
564.825	310.41
565.25	315.09
565.675	352.54
566.1	287.01
566.525	371.27
566.95	352.54
567.374	317.44
567.799	331.48
568.224	326.8
568.648	336.16
569.073	279.99
569.497	361.91
569.922	308.07
570.346	291.69
570.771	305.73
571.195	361.91
571.619	354.88
572.043	296.37
572.467	305.73
572.891	279.99
573.315	345.52
573.739	329.14
574.163	326.8
574.587	331.48
575.011	361.91
575.435	333.82
575.858	338.5
576.282	347.86
576.705	312.75
577.129	373.61
577.552	322.12
577.976	329.14
578.399	315.09
578.822	312.75
579.245	347.86
579.669	308.07
580.092	338.5
580.515	340.84
580.938	308.07
581.361	319.78
581.784	291.69
582.206	375.95
582.629	312.75
583.052	277.65
583.474	347.86
583.897	352.54
584.32	324.46
584.742	359.56
585.165	312.75
585.587	287.01
586.009	298.71
586.431	382.97
586.854	265.94
587.276	350.2
587.698	312.75
588.12	338.5
588.542	310.41
588.964	275.31
589.386	303.39
589.807	368.93
590.229	347.86
590.651	310.41
591.073	331.48
591.494	326.8
591.916	350.2
592.337	343.18
592.759	329.14
593.18	298.71
593.601	338.5
594.022	415.74
594.444	279.99
594.865	338.5
595.286	361.91
595.707	305.73
596.128	345.52
596.549	352.54
596.97	287.01
597.39	359.56
597.811	331.48
598.232	310.41
598.652	331.48
599.073	322.12
599.494	303.39
599.914	340.84
600.334	338.5
600.755	298.71
601.175	331.48
601.595	382.97
602.015	373.61
602.436	305.73
602.856	464.89
603.276	284.67
603.696	338.5
604.115	338.5
604.535	354.88
604.955	350.2
605.375	373.61
605.794	272.96
606.214	301.05
606.634	333.82
607.053	354.88
607.473	324.46
607.892	357.22
608.311	394.67
608.731	322.12
609.15	310.41
609.569	331.48
609.988	380.63
610.407	357.22
610.826	392.33
611.245	301.05
611.664	429.78
612.083	312.75
612.501	324.46
612.92	399.35
613.339	371.27
613.757	389.99
614.176	378.29
614.594	298.71
615.013	336.16
615.431	331.48
615.85	256.58
616.268	261.26
616.686	343.18
617.104	296.37
617.522	411.06
617.94	354.88
618.358	366.59
618.776	368.93
619.194	308.07
619.612	301.05
620.03	399.35
620.447	352.54
620.865	382.97
621.282	361.91
621.7	380.63
622.117	387.65
622.535	326.8
622.952	329.14
623.369	298.71
623.787	303.39
624.204	294.03
624.621	338.5
625.038	258.92
625.455	291.69
625.872	298.71
626.289	317.44
626.706	338.5
627.123	322.12
627.539	315.09
627.956	315.09
628.373	357.22
628.789	282.33
629.206	373.61
629.622	275.31
630.038	251.9
630.455	310.41
630.871	329.14
631.287	324.46
631.703	331.48
632.12	333.82
632.536	258.92
632.952	305.73
633.368	359.56
633.783	317.44
634.199	251.9
634.615	294.03
635.031	326.8
635.446	350.2
635.862	310.41
636.277	333.82
636.693	322.12
637.108	371.27
637.524	368.93
637.939	324.46
638.354	294.03
638.77	359.56
639.185	354.88
639.6	298.71
640.015	294.03
640.43	340.84
640.845	350.2
641.259	258.92
641.674	338.5
642.089	392.33
642.504	289.35
642.918	322.12
643.333	350.2
643.747	338.5
644.162	338.5
644.576	352.54
644.991	331.48
645.405	312.75
645.819	329.14
646.233	352.54
646.647	289.35
647.061	345.52
647.475	373.61
647.889	282.33
648.303	322.12
648.717	343.18
649.131	301.05
649.545	305.73
649.958	361.91
650.372	354.88
650.785	340.84
651.199	324.46
651.612	340.84
652.026	312.75
652.439	333.82
652.852	317.44
653.266	265.94
653.679	326.8
654.092	387.65
654.505	331.48
654.918	361.91
655.331	345.52
655.744	361.91
656.156	345.52
656.569	275.31
656.982	289.35
657.394	380.63
657.807	340.84
658.22	338.5
658.632	279.99
659.044	301.05
659.457	298.71
659.869	354.88
660.281	366.59
660.693	324.46
661.106	338.5
661.518	319.78
661.93	343.18
662.342	301.05
662.754	303.39
663.165	315.09
663.577	291.69
663.989	378.29
664.401	324.46
664.812	289.35
665.224	331.48
665.635	361.91
666.047	322.12
666.458	331.48
666.869	366.59
667.281	345.52
667.692	378.29
668.103	303.39
668.514	270.62
668.925	272.96
669.336	347.86
669.747	322.12
670.158	354.88
670.569	357.22
670.979	263.6
671.39	366.59
671.801	312.75
672.211	282.33
672.622	319.78
673.032	263.6
673.443	347.86
673.853	298.71
674.263	347.86
674.674	329.14
675.084	296.37
675.494	385.31
675.904	380.63
676.314	287.01
676.724	357.22
677.134	275.31
677.544	319.78
677.953	340.84
678.363	294.03
678.773	408.72
679.182	373.61
679.592	329.14
680.001	256.58
680.411	308.07
680.82	322.12
681.23	347.86
681.639	301.05
682.048	340.84
682.457	301.05
682.866	345.52
683.275	291.69
683.684	329.14
684.093	265.94
684.502	310.41
684.911	315.09
685.32	375.95
685.728	385.31
686.137	298.71
686.546	305.73
686.954	340.84
687.363	347.86
687.771	343.18
688.179	352.54
688.588	340.84
688.996	326.8
689.404	319.78
689.812	350.2
690.22	312.75
690.628	261.26
691.036	329.14
691.444	310.41
691.852	345.52
692.26	312.75
692.667	310.41
693.075	343.18
693.483	291.69
693.89	333.82
694.298	303.39
694.705	301.05
695.112	340.84
695.52	333.82
695.927	331.48
696.334	326.8
696.741	404.03
697.148	326.8
697.555	312.75
697.962	294.03
698.369	361.91
698.776	366.59
699.183	324.46
699.59	317.44
699.996	322.12
700.403	200.41
700.81	310.41
701.216	350.2
701.623	301.05
702.029	340.84
702.435	265.94
702.842	343.18
703.248	345.52
703.654	282.33
704.06	345.52
704.466	364.25
704.872	350.2
705.278	343.18
705.684	324.46
706.09	296.37
706.496	352.54
706.901	350.2
707.307	265.94
707.712	284.67
708.118	364.25
708.523	303.39
708.929	378.29
709.334	317.44
709.74	364.25
710.145	291.69
710.55	275.31
710.955	368.93
711.36	404.03
711.765	305.73
712.17	333.82
712.575	312.75
712.98	827.67
713.385	366.59
713.789	303.39
714.194	294.03
714.599	359.56
715.003	308.07
715.408	319.78
715.812	354.88
716.217	308.07
716.621	392.33
717.025	380.63
717.429	310.41
717.833	319.78
718.238	310.41
718.642	380.63
719.046	331.48
719.449	324.46
719.853	315.09
720.257	357.22
720.661	326.8
721.065	345.52
721.468	322.12
721.872	354.88
722.275	343.18
722.679	357.22
723.082	347.86
723.485	350.2
723.889	333.82
724.292	322.12
724.695	333.82
725.098	282.33
725.501	336.16
725.904	368.93
726.307	354.88
726.71	336.16
727.113	268.28
727.516	324.46
727.918	312.75
728.321	305.73
728.724	301.05
729.126	359.56
729.529	265.94
729.931	275.31
730.333	340.84
730.736	319.78
731.138	294.03
731.54	340.84
731.942	336.16
732.344	317.44
732.746	324.46
733.148	312.75
733.55	308.07
733.952	333.82
734.354	287.01
734.756	308.07
735.157	326.8
735.559	301.05
735.96	298.71
736.362	368.93
736.763	287.01
737.165	366.59
737.566	296.37
737.967	263.6
738.368	336.16
738.77	322.12
739.171	319.78
739.572	340.84
739.973	338.5
740.374	301.05
740.774	317.44
741.175	361.91
741.576	336.16
741.977	296.37
742.377	319.78
742.778	291.69
743.178	336.16
743.579	329.14
743.979	322.12
744.379	380.63
744.78	338.5
745.18	315.09
745.58	343.18
745.98	382.97
746.38	298.71
746.78	343.18
747.18	326.8
747.58	373.61
747.98	347.86
748.38	296.37
748.779	265.94
749.179	347.86
749.578	324.46
749.978	315.09
750.377	373.61
750.777	312.75
751.176	343.18
751.575	317.44
751.975	340.84
752.374	338.5
752.773	247.22
753.172	275.31
753.571	347.86
753.97	345.52
754.369	310.41
754.768	364.25
755.166	247.22
755.565	301.05
755.964	319.78
756.362	338.5
756.761	343.18
757.159	378.29
757.558	361.91
757.956	338.5
758.354	329.14
758.753	308.07
759.151	345.52
759.549	326.8
759.947	216.79
760.345	263.6
760.743	329.14
761.141	287.01
761.539	305.73
761.936	319.78
762.334	310.41
762.732	324.46
763.129	359.56
763.527	392.33
763.924	361.91
764.322	329.14
