Data from Al_FLMS009871__845__15-31-15-194.txt Node

Date: Fri Mar 08 15:31:15 CST 2024
User: pe5414po
Spectrometer: FLMS00987
Trigger mode: 0
Integration Time (sec): 1.000000E-1
Scans to average: 1
Electric dark correction enabled: true
Nonlinearity correction enabled: false
Boxcar width: 0
XAxis mode: Wavelengths
Number of Pixels in Spectrum: 2048
>>>>>Begin Spectral Data<<<<<
188.938	-12.58
189.409	-12.58
189.879	-12.58
190.349	-103.86
190.819	-110.88
191.29	-150.67
191.76	-148.33
192.23	-68.75
192.7	-71.09
193.17	-59.39
193.64	-19.6
194.109	-35.99
194.579	-14.92
195.049	-7.9
195.519	8.48
195.988	92.74
196.458	48.27
196.927	76.36
197.397	104.45
197.866	139.55
198.336	106.79
198.805	169.98
199.274	132.53
199.744	216.79
200.213	214.45
200.682	184.02
201.151	240.2
201.62	235.52
202.089	254.24
202.558	275.31
203.027	312.75
203.495	265.94
203.964	305.73
204.433	343.18
204.902	319.78
205.37	254.24
205.839	301.05
206.307	312.75
206.776	354.88
207.244	254.24
207.712	329.14
208.181	310.41
208.649	277.65
209.117	242.54
209.585	254.24
210.053	380.63
210.521	310.41
210.989	331.48
211.457	265.94
211.925	244.88
212.393	265.94
212.861	319.78
213.328	287.01
213.796	324.46
214.264	357.22
214.731	282.33
215.199	202.75
215.666	209.77
216.133	294.03
216.601	249.56
217.068	282.33
217.535	298.71
218.003	258.92
218.47	235.52
218.937	247.22
219.404	263.6
219.871	251.9
220.338	251.9
220.805	263.6
221.271	287.01
221.738	347.86
222.205	298.71
222.671	317.44
223.138	249.56
223.605	228.49
224.071	404.03
224.538	289.35
225.004	284.67
225.47	261.26
225.937	296.37
226.403	333.82
226.869	233.18
227.335	287.01
227.801	228.49
228.267	317.44
228.733	270.62
229.199	247.22
229.665	303.39
230.131	319.78
230.597	256.58
231.062	251.9
231.528	305.73
231.994	291.69
232.459	160.62
232.925	287.01
233.39	303.39
233.856	275.31
234.321	291.69
234.786	287.01
235.252	251.9
235.717	291.69
236.182	315.09
236.647	263.6
237.112	298.71
237.577	270.62
238.042	301.05
238.507	261.26
238.972	343.18
239.436	298.71
239.901	256.58
240.366	291.69
240.83	242.54
241.295	284.67
241.76	265.94
242.224	230.84
242.688	291.69
243.153	308.07
243.617	249.56
244.081	268.28
244.545	284.67
245.01	282.33
245.474	265.94
245.938	233.18
246.402	317.44
246.866	282.33
247.33	235.52
247.793	268.28
248.257	270.62
248.721	223.81
249.185	333.82
249.648	291.69
250.112	312.75
250.575	256.58
251.039	279.99
251.502	364.25
251.965	277.65
252.429	268.28
252.892	296.37
253.355	312.75
253.818	279.99
254.281	340.84
254.744	275.31
255.207	284.67
255.67	329.14
256.133	275.31
256.596	301.05
257.059	296.37
257.522	319.78
257.984	333.82
258.447	272.96
258.909	272.96
259.372	336.16
259.834	244.88
260.297	312.75
260.759	338.5
261.221	254.24
261.684	322.12
262.146	282.33
262.608	343.18
263.07	343.18
263.532	310.41
263.994	333.82
264.456	366.59
264.918	270.62
265.38	340.84
265.842	315.09
266.303	270.62
266.765	333.82
267.227	294.03
267.688	305.73
268.15	294.03
268.611	340.84
269.072	326.8
269.534	296.37
269.995	251.9
270.456	277.65
270.918	291.69
271.379	336.16
271.84	279.99
272.301	289.35
272.762	322.12
273.223	207.43
273.684	233.18
274.144	336.16
274.605	350.2
275.066	216.79
275.527	301.05
275.987	331.48
276.448	326.8
276.908	404.03
277.369	291.69
277.829	352.54
278.289	301.05
278.75	308.07
279.21	315.09
279.67	291.69
280.13	237.86
280.59	287.01
281.05	303.39
281.51	354.88
281.97	305.73
282.43	254.24
282.89	331.48
283.35	301.05
283.809	270.62
284.269	265.94
284.729	361.91
285.188	282.33
285.648	338.5
286.107	308.07
286.567	329.14
287.026	279.99
287.485	315.09
287.944	287.01
288.404	270.62
288.863	235.52
289.322	242.54
289.781	242.54
290.24	284.67
290.699	261.26
291.158	324.46
291.616	275.31
292.075	251.9
292.534	287.01
292.992	256.58
293.451	265.94
293.91	272.96
294.368	336.16
294.827	312.75
295.285	366.59
295.743	315.09
296.202	268.28
296.66	317.44
297.118	329.14
297.576	240.2
298.034	275.31
298.492	242.54
298.95	275.31
299.408	249.56
299.866	242.54
300.324	277.65
300.781	317.44
301.239	258.92
301.697	308.07
302.154	270.62
302.612	261.26
303.069	298.71
303.527	331.48
303.984	312.75
304.441	284.67
304.899	251.9
305.356	326.8
305.813	258.92
306.27	272.96
306.727	291.69
307.184	322.12
307.641	279.99
308.098	294.03
308.555	338.5
309.012	310.41
309.468	310.41
309.925	326.8
310.382	301.05
310.838	277.65
311.295	324.46
311.751	333.82
312.208	289.35
312.664	296.37
313.12	261.26
313.577	303.39
314.033	331.48
314.489	284.67
314.945	331.48
315.401	387.65
315.857	263.6
316.313	282.33
316.769	301.05
317.225	329.14
317.681	254.24
318.136	352.54
318.592	277.65
319.048	310.41
319.503	343.18
319.959	263.6
320.414	289.35
320.869	312.75
321.325	305.73
321.78	294.03
322.235	277.65
322.691	317.44
323.146	333.82
323.601	350.2
324.056	357.22
324.511	256.58
324.966	298.71
325.421	251.9
325.875	315.09
326.33	315.09
326.785	352.54
327.24	308.07
327.694	373.61
328.149	303.39
328.603	284.67
329.058	279.99
329.512	336.16
329.966	284.67
330.421	319.78
330.875	301.05
331.329	350.2
331.783	312.75
332.237	282.33
332.691	287.01
333.145	282.33
333.599	263.6
334.053	301.05
334.507	310.41
334.96	256.58
335.414	329.14
335.868	301.05
336.321	277.65
336.775	333.82
337.228	315.09
337.682	324.46
338.135	282.33
338.588	331.48
339.042	345.52
339.495	322.12
339.948	364.25
340.401	291.69
340.854	310.41
341.307	317.44
341.76	380.63
342.213	261.26
342.666	338.5
343.119	277.65
343.571	308.07
344.024	359.56
344.477	298.71
344.929	296.37
345.382	326.8
345.834	336.16
346.287	319.78
346.739	350.2
347.191	368.93
347.644	270.62
348.096	294.03
348.548	319.78
349	296.37
349.452	277.65
349.904	368.93
350.356	291.69
350.808	258.92
351.26	336.16
351.711	340.84
352.163	291.69
352.615	301.05
353.066	336.16
353.518	289.35
353.969	258.92
354.421	277.65
354.872	305.73
355.324	322.12
355.775	242.54
356.226	340.84
356.677	350.2
357.128	340.84
357.579	263.6
358.03	308.07
358.481	296.37
358.932	287.01
359.383	366.59
359.834	296.37
360.285	359.56
360.735	354.88
361.186	312.75
361.637	399.35
362.087	284.67
362.538	329.14
362.988	247.22
363.438	338.5
363.889	340.84
364.339	287.01
364.789	296.37
365.239	263.6
365.689	305.73
366.139	291.69
366.589	336.16
367.039	294.03
367.489	399.35
367.939	350.2
368.389	338.5
368.839	340.84
369.288	301.05
369.738	251.9
370.187	291.69
370.637	338.5
371.086	291.69
371.536	319.78
371.985	275.31
372.434	305.73
372.884	357.22
373.333	324.46
373.782	268.28
374.231	347.86
374.68	303.39
375.129	296.37
375.578	289.35
376.027	312.75
376.475	366.59
376.924	375.95
377.373	331.48
377.822	275.31
378.27	343.18
378.719	282.33
379.167	315.09
379.616	357.22
380.064	315.09
380.512	317.44
380.961	347.86
381.409	289.35
381.857	221.47
382.305	368.93
382.753	326.8
383.201	254.24
383.649	289.35
384.097	336.16
384.545	338.5
384.992	354.88
385.44	319.78
385.888	289.35
386.335	303.39
386.783	301.05
387.231	336.16
387.678	352.54
388.125	322.12
388.573	249.56
389.02	291.69
389.467	350.2
389.914	284.67
390.362	305.73
390.809	289.35
391.256	333.82
391.703	343.18
392.15	324.46
392.596	336.16
393.043	350.2
393.49	350.2
393.937	261.26
394.383	364.25
394.83	364.25
395.276	310.41
395.723	338.5
396.169	294.03
396.616	317.44
397.062	336.16
397.508	310.41
397.954	333.82
398.401	305.73
398.847	294.03
399.293	354.88
399.739	310.41
400.185	359.56
400.631	322.12
401.076	301.05
401.522	326.8
401.968	305.73
402.414	352.54
402.859	301.05
403.305	366.59
403.75	326.8
404.196	368.93
404.641	340.84
405.086	375.95
405.532	263.6
405.977	294.03
406.422	282.33
406.867	272.96
407.312	324.46
407.757	371.27
408.202	343.18
408.647	249.56
409.092	296.37
409.537	265.94
409.982	298.71
410.426	322.12
410.871	326.8
411.316	312.75
411.76	301.05
412.205	247.22
412.649	366.59
413.093	312.75
413.538	258.92
413.982	287.01
414.426	333.82
414.87	347.86
415.314	380.63
415.758	336.16
416.202	382.97
416.646	279.99
417.09	301.05
417.534	275.31
417.978	284.67
418.421	308.07
418.865	242.54
419.309	347.86
419.752	333.82
420.196	329.14
420.639	284.67
421.083	294.03
421.526	361.91
421.969	312.75
422.412	324.46
422.856	352.54
423.299	329.14
423.742	331.48
424.185	329.14
424.628	275.31
425.071	298.71
425.513	287.01
425.956	366.59
426.399	324.46
426.842	319.78
427.284	312.75
427.727	275.31
428.169	329.14
428.612	303.39
429.054	361.91
429.497	324.46
429.939	338.5
430.381	324.46
430.823	310.41
431.265	331.48
431.707	364.25
432.149	394.67
432.591	289.35
433.033	380.63
433.475	357.22
433.917	312.75
434.359	343.18
434.8	378.29
435.242	368.93
435.684	333.82
436.125	343.18
436.567	256.58
437.008	324.46
437.449	338.5
437.891	261.26
438.332	336.16
438.773	244.88
439.214	322.12
439.656	305.73
440.097	373.61
440.538	303.39
440.978	333.82
441.419	361.91
441.86	317.44
442.301	303.39
442.742	287.01
443.182	279.99
443.623	312.75
444.063	317.44
444.504	287.01
444.944	298.71
445.385	270.62
445.825	329.14
446.265	373.61
446.706	326.8
447.146	331.48
447.586	284.67
448.026	296.37
448.466	345.52
448.906	275.31
449.346	371.27
449.786	254.24
450.225	317.44
450.665	289.35
451.105	287.01
451.544	322.12
451.984	272.96
452.424	336.16
452.863	279.99
453.302	345.52
453.742	371.27
454.181	380.63
454.62	322.12
455.059	308.07
455.499	340.84
455.938	317.44
456.377	345.52
456.816	305.73
457.254	322.12
457.693	380.63
458.132	256.58
458.571	336.16
459.01	364.25
459.448	310.41
459.887	331.48
460.325	333.82
460.764	340.84
461.202	322.12
461.641	263.6
462.079	371.27
462.517	256.58
462.955	272.96
463.393	287.01
463.832	333.82
464.27	275.31
464.708	296.37
465.145	310.41
465.583	322.12
466.021	336.16
466.459	347.86
466.897	322.12
467.334	333.82
467.772	375.95
468.209	322.12
468.647	287.01
469.084	361.91
469.522	340.84
469.959	277.65
470.396	333.82
470.833	298.71
471.271	284.67
471.708	329.14
472.145	308.07
472.582	345.52
473.019	308.07
473.456	366.59
473.892	315.09
474.329	326.8
474.766	359.56
475.202	336.16
475.639	333.82
476.076	326.8
476.512	336.16
476.949	240.2
477.385	354.88
477.821	345.52
478.258	364.25
478.694	303.39
479.13	317.44
479.566	373.61
480.002	364.25
480.438	359.56
480.874	263.6
481.31	359.56
481.746	261.26
482.181	256.58
482.617	329.14
483.053	338.5
483.488	249.56
483.924	298.71
484.36	333.82
484.795	352.54
485.23	287.01
485.666	397.01
486.101	326.8
486.536	336.16
486.971	308.07
487.407	261.26
487.842	296.37
488.277	312.75
488.712	364.25
489.146	364.25
489.581	359.56
490.016	303.39
490.451	338.5
490.885	331.48
491.32	368.93
491.755	305.73
492.189	333.82
492.624	347.86
493.058	235.52
493.492	347.86
493.927	350.2
494.361	336.16
494.795	352.54
495.229	338.5
495.663	371.27
496.097	277.65
496.531	303.39
496.965	308.07
497.399	315.09
497.833	350.2
498.266	354.88
498.7	315.09
499.134	382.97
499.567	265.94
500.001	282.33
500.434	242.54
500.868	270.62
501.301	359.56
501.734	385.31
502.168	361.91
502.601	340.84
503.034	340.84
503.467	324.46
503.9	375.95
504.333	294.03
504.766	277.65
505.199	352.54
505.632	298.71
506.064	343.18
506.497	324.46
506.93	270.62
507.362	382.97
507.795	336.16
508.227	326.8
508.66	322.12
509.092	331.48
509.524	378.29
509.956	308.07
510.389	331.48
510.821	361.91
511.253	301.05
511.685	315.09
512.117	298.71
512.549	268.28
512.981	289.35
513.412	333.82
513.844	308.07
514.276	298.71
514.707	359.56
515.139	284.67
515.571	308.07
516.002	336.16
516.433	326.8
516.865	296.37
517.296	287.01
517.727	308.07
518.159	284.67
518.59	443.82
519.021	312.75
519.452	303.39
519.883	317.44
520.314	291.69
520.744	366.59
521.175	291.69
521.606	380.63
522.037	312.75
522.467	258.92
522.898	315.09
523.328	315.09
523.759	317.44
524.189	310.41
524.62	312.75
525.05	308.07
525.48	303.39
525.91	322.12
526.341	333.82
526.771	315.09
527.201	336.16
527.631	329.14
528.061	347.86
528.49	312.75
528.92	308.07
529.35	331.48
529.78	361.91
530.209	277.65
530.639	291.69
531.068	312.75
531.498	268.28
531.927	247.22
532.357	345.52
532.786	319.78
533.215	333.82
533.644	368.93
534.074	319.78
534.503	373.61
534.932	324.46
535.361	326.8
535.79	277.65
536.218	404.03
536.647	294.03
537.076	340.84
537.505	237.86
537.933	322.12
538.362	338.5
538.79	333.82
539.219	329.14
539.647	343.18
540.076	287.01
540.504	282.33
540.932	326.8
541.36	305.73
541.788	331.48
542.217	359.56
542.645	347.86
543.073	331.48
543.5	345.52
543.928	343.18
544.356	301.05
544.784	329.14
545.211	305.73
545.639	340.84
546.067	303.39
546.494	272.96
546.922	352.54
547.349	401.69
547.776	389.99
548.204	301.05
548.631	315.09
549.058	303.39
549.485	308.07
549.912	308.07
550.339	296.37
550.766	289.35
551.193	333.82
551.62	340.84
552.047	312.75
552.474	326.8
552.9	368.93
553.327	294.03
553.754	343.18
554.18	329.14
554.607	326.8
555.033	296.37
555.459	343.18
555.886	284.67
556.312	338.5
556.738	312.75
557.164	294.03
557.59	331.48
558.016	333.82
558.442	366.59
558.868	329.14
559.294	324.46
559.72	301.05
560.145	326.8
560.571	305.73
560.997	338.5
561.422	322.12
561.848	343.18
562.273	326.8
562.699	345.52
563.124	277.65
563.549	333.82
563.974	265.94
564.4	242.54
564.825	312.75
565.25	294.03
565.675	294.03
566.1	347.86
566.525	308.07
566.95	268.28
567.374	291.69
567.799	296.37
568.224	380.63
568.648	326.8
569.073	279.99
569.497	319.78
569.922	382.97
570.346	382.97
570.771	322.12
571.195	364.25
571.619	329.14
572.043	284.67
572.467	242.54
572.891	324.46
573.315	322.12
573.739	305.73
574.163	235.52
574.587	308.07
575.011	303.39
575.435	315.09
575.858	331.48
576.282	347.86
576.705	298.71
577.129	352.54
577.552	354.88
577.976	366.59
578.399	315.09
578.822	322.12
579.245	354.88
579.669	298.71
580.092	324.46
580.515	317.44
580.938	366.59
581.361	326.8
581.784	270.62
582.206	312.75
582.629	223.81
583.052	371.27
583.474	350.2
583.897	284.67
584.32	282.33
584.742	359.56
585.165	350.2
585.587	361.91
586.009	287.01
586.431	357.22
586.854	263.6
587.276	319.78
587.698	298.71
588.12	322.12
588.542	357.22
588.964	305.73
589.386	338.5
589.807	364.25
590.229	347.86
590.651	333.82
591.073	336.16
591.494	371.27
591.916	317.44
592.337	305.73
592.759	336.16
593.18	322.12
593.601	350.2
594.022	289.35
594.444	317.44
594.865	284.67
595.286	319.78
595.707	324.46
596.128	303.39
596.549	322.12
596.97	319.78
597.39	315.09
597.811	336.16
598.232	296.37
598.652	324.46
599.073	366.59
599.494	322.12
599.914	312.75
600.334	336.16
600.755	312.75
601.175	315.09
601.595	380.63
602.015	315.09
602.436	340.84
602.856	441.48
603.276	298.71
603.696	322.12
604.115	308.07
604.535	338.5
604.955	315.09
605.375	354.88
605.794	277.65
606.214	331.48
606.634	329.14
607.053	303.39
607.473	294.03
607.892	326.8
608.311	329.14
608.731	329.14
609.15	319.78
609.569	263.6
609.988	364.25
610.407	404.03
610.826	287.01
611.245	357.22
611.664	282.33
612.083	303.39
612.501	380.63
612.92	317.44
613.339	282.33
613.757	291.69
614.176	319.78
614.594	298.71
615.013	359.56
615.431	272.96
615.85	319.78
616.268	338.5
616.686	298.71
617.104	282.33
617.522	324.46
617.94	315.09
618.358	272.96
618.776	279.99
619.194	282.33
619.612	345.52
620.03	312.75
620.447	310.41
620.865	326.8
621.282	301.05
621.7	303.39
622.117	282.33
622.535	296.37
622.952	331.48
623.369	338.5
623.787	329.14
624.204	324.46
624.621	251.9
625.038	310.41
625.455	324.46
625.872	254.24
626.289	364.25
626.706	303.39
627.123	333.82
627.539	364.25
627.956	380.63
628.373	340.84
628.789	319.78
629.206	331.48
629.622	373.61
630.038	270.62
630.455	333.82
630.871	296.37
631.287	357.22
631.703	331.48
632.12	308.07
632.536	336.16
632.952	284.67
633.368	347.86
633.783	254.24
634.199	308.07
634.615	279.99
635.031	338.5
635.446	310.41
635.862	347.86
636.277	406.38
636.693	354.88
637.108	310.41
637.524	301.05
637.939	338.5
638.354	366.59
638.77	312.75
639.185	357.22
639.6	338.5
640.015	315.09
640.43	338.5
640.845	375.95
641.259	287.01
641.674	282.33
642.089	317.44
642.504	329.14
642.918	282.33
643.333	284.67
643.747	329.14
644.162	317.44
644.576	329.14
644.991	319.78
645.405	352.54
645.819	366.59
646.233	298.71
646.647	277.65
647.061	357.22
647.475	336.16
647.889	380.63
648.303	289.35
648.717	317.44
649.131	385.31
649.545	298.71
649.958	326.8
650.372	354.88
650.785	317.44
651.199	291.69
651.612	284.67
652.026	270.62
652.439	322.12
652.852	298.71
653.266	291.69
653.679	315.09
654.092	336.16
654.505	287.01
654.918	242.54
655.331	301.05
655.744	317.44
656.156	354.88
656.569	326.8
656.982	261.26
657.394	282.33
657.807	354.88
658.22	359.56
658.632	345.52
659.044	298.71
659.457	291.69
659.869	289.35
660.281	347.86
660.693	368.93
661.106	317.44
661.518	287.01
661.93	331.48
662.342	329.14
662.754	329.14
663.165	289.35
663.577	322.12
663.989	352.54
664.401	291.69
664.812	333.82
665.224	382.97
665.635	282.33
666.047	317.44
666.458	375.95
666.869	336.16
667.281	331.48
667.692	263.6
668.103	317.44
668.514	268.28
668.925	382.97
669.336	338.5
669.747	277.65
670.158	364.25
670.569	350.2
670.979	289.35
671.39	347.86
671.801	294.03
672.211	284.67
672.622	230.84
673.032	331.48
673.443	291.69
673.853	254.24
674.263	343.18
674.674	326.8
675.084	268.28
675.494	319.78
675.904	291.69
676.314	237.86
676.724	261.26
677.134	326.8
677.544	291.69
677.953	310.41
678.363	319.78
678.773	326.8
679.182	279.99
679.592	287.01
680.001	333.82
680.411	319.78
680.82	298.71
681.23	340.84
681.639	359.56
682.048	317.44
682.457	324.46
682.866	340.84
683.275	291.69
683.684	291.69
684.093	322.12
684.502	303.39
684.911	329.14
685.32	329.14
685.728	291.69
686.137	329.14
686.546	277.65
686.954	310.41
687.363	301.05
687.771	263.6
688.179	338.5
688.588	340.84
688.996	277.65
689.404	282.33
689.812	305.73
690.22	338.5
690.628	258.92
691.036	317.44
691.444	413.4
691.852	261.26
692.26	357.22
692.667	331.48
693.075	261.26
693.483	361.91
693.89	308.07
694.298	324.46
694.705	212.11
695.112	336.16
695.52	340.84
695.927	326.8
696.334	317.44
696.741	340.84
697.148	326.8
697.555	305.73
697.962	265.94
698.369	382.97
698.776	272.96
699.183	368.93
699.59	350.2
699.996	277.65
700.403	289.35
700.81	268.28
701.216	301.05
701.623	343.18
702.029	354.88
702.435	312.75
702.842	312.75
703.248	315.09
703.654	270.62
704.06	298.71
704.466	385.31
704.872	343.18
705.278	354.88
705.684	345.52
706.09	317.44
706.496	268.28
706.901	326.8
707.307	298.71
707.712	247.22
708.118	279.99
708.523	294.03
708.929	275.31
709.334	275.31
709.74	319.78
710.145	340.84
710.55	258.92
710.955	343.18
711.36	315.09
711.765	301.05
712.17	277.65
712.575	378.29
712.98	883.84
713.385	397.01
713.789	352.54
714.194	298.71
714.599	291.69
715.003	333.82
715.408	352.54
715.812	373.61
716.217	345.52
716.621	282.33
717.025	261.26
717.429	284.67
717.833	289.35
718.238	322.12
718.642	324.46
719.046	242.54
719.449	291.69
719.853	340.84
720.257	338.5
720.661	303.39
721.065	279.99
721.468	347.86
721.872	305.73
722.275	282.33
722.679	329.14
723.082	303.39
723.485	315.09
723.889	298.71
724.292	333.82
724.695	310.41
725.098	343.18
725.501	312.75
725.904	345.52
726.307	265.94
726.71	254.24
727.113	322.12
727.516	338.5
727.918	336.16
728.321	361.91
728.724	263.6
729.126	329.14
729.529	352.54
729.931	340.84
730.333	382.97
730.736	310.41
731.138	319.78
731.54	298.71
731.942	319.78
732.344	378.29
732.746	310.41
733.148	329.14
733.55	331.48
733.952	324.46
734.354	329.14
734.756	235.52
735.157	263.6
735.559	333.82
735.96	265.94
736.362	333.82
736.763	263.6
737.165	357.22
737.566	279.99
737.967	310.41
738.368	354.88
738.77	352.54
739.171	375.95
739.572	275.31
739.973	324.46
740.374	326.8
740.774	261.26
741.175	277.65
741.576	319.78
741.977	345.52
742.377	373.61
742.778	331.48
743.178	326.8
743.579	287.01
743.979	331.48
744.379	331.48
744.78	315.09
745.18	303.39
745.58	397.01
745.98	315.09
746.38	296.37
746.78	373.61
747.18	375.95
747.58	305.73
747.98	298.71
748.38	303.39
748.779	336.16
749.179	329.14
749.578	256.58
749.978	289.35
750.377	357.22
750.777	289.35
751.176	333.82
751.575	352.54
751.975	289.35
752.374	408.72
752.773	317.44
753.172	312.75
753.571	336.16
753.97	308.07
754.369	223.81
754.768	298.71
755.166	329.14
755.565	294.03
755.964	275.31
756.362	308.07
756.761	345.52
757.159	230.84
757.558	296.37
757.956	319.78
758.354	298.71
758.753	298.71
759.151	317.44
759.549	265.94
759.947	305.73
760.345	303.39
760.743	345.52
761.141	345.52
761.539	352.54
761.936	303.39
762.334	296.37
762.732	308.07
763.129	350.2
763.527	317.44
763.924	347.86
764.322	331.48
764.719	350.2
