Data from Al_FLMS009871__859__15-31-16-594.txt Node

Date: Fri Mar 08 15:31:16 CST 2024
User: pe5414po
Spectrometer: FLMS00987
Trigger mode: 0
Integration Time (sec): 1.000000E-1
Scans to average: 1
Electric dark correction enabled: true
Nonlinearity correction enabled: false
Boxcar width: 0
XAxis mode: Wavelengths
Number of Pixels in Spectrum: 2048
>>>>>Begin Spectral Data<<<<<
188.938	-69.63
189.409	-69.63
189.879	-69.63
190.349	-27.5
190.819	-88.36
191.29	-144.53
191.76	-78.99
192.23	-62.61
192.7	-104.74
193.17	-83.67
193.64	-78.99
194.109	-8.78
194.579	-46.23
195.049	-20.48
195.519	21.65
195.988	38.03
196.458	63.78
196.927	143.36
197.397	124.63
197.866	84.84
198.336	152.72
198.805	138.68
199.274	225.28
199.744	155.06
200.213	157.4
200.682	187.83
201.151	227.62
201.62	166.76
202.089	253.36
202.558	283.79
203.027	325.92
203.495	281.45
203.964	265.07
204.433	274.43
204.902	239.32
205.37	251.02
205.839	307.2
206.307	304.85
206.776	295.49
207.244	361.03
207.712	260.38
208.181	311.88
208.649	248.68
209.117	318.9
209.585	295.49
210.053	330.6
210.521	267.41
210.989	267.41
211.457	321.24
211.925	286.13
212.393	267.41
212.861	314.22
213.328	220.6
213.796	248.68
214.264	314.22
214.731	300.17
215.199	300.17
215.666	225.28
216.133	300.17
216.601	267.41
217.068	222.94
217.535	307.2
218.003	269.75
218.47	265.07
218.937	258.04
219.404	293.15
219.871	255.7
220.338	283.79
220.805	272.09
221.271	248.68
221.738	229.96
222.205	248.68
222.671	248.68
223.138	283.79
223.605	258.04
224.071	239.32
224.538	267.41
225.004	328.26
225.47	281.45
225.937	262.73
226.403	267.41
226.869	262.73
227.335	255.7
227.801	311.88
228.267	269.75
228.733	290.81
229.199	241.66
229.665	234.64
230.131	276.77
230.597	321.24
231.062	241.66
231.528	274.43
231.994	293.15
232.459	290.81
232.925	220.6
233.39	311.88
233.856	211.23
234.321	276.77
234.786	293.15
235.252	253.36
235.717	281.45
236.182	281.45
236.647	244
237.112	248.68
237.577	251.02
238.042	339.96
238.507	236.98
238.972	241.66
239.436	309.54
239.901	265.07
240.366	337.62
240.83	337.62
241.295	283.79
241.76	255.7
242.224	276.77
242.688	330.6
243.153	236.98
243.617	304.85
244.081	309.54
244.545	267.41
245.01	314.22
245.474	328.26
245.938	272.09
246.402	288.47
246.866	276.77
247.33	272.09
247.793	218.25
248.257	213.57
248.721	274.43
249.185	323.58
249.648	297.83
250.112	286.13
250.575	283.79
251.039	304.85
251.502	239.32
251.965	372.73
252.429	318.9
252.892	314.22
253.355	248.68
253.818	332.94
254.281	251.02
254.744	283.79
255.207	286.13
255.67	361.03
256.133	272.09
256.596	297.83
257.059	272.09
257.522	304.85
257.984	253.36
258.447	316.56
258.909	325.92
259.372	311.88
259.834	370.39
260.297	265.07
260.759	246.34
261.221	232.3
261.684	276.77
262.146	300.17
262.608	328.26
263.07	323.58
263.532	251.02
263.994	215.91
264.456	297.83
264.918	283.79
265.38	295.49
265.842	344.64
266.303	288.47
266.765	307.2
267.227	253.36
267.688	272.09
268.15	339.96
268.611	293.15
269.072	316.56
269.534	260.38
269.995	251.02
270.456	290.81
270.918	304.85
271.379	288.47
271.84	330.6
272.301	269.75
272.762	293.15
273.223	304.85
273.684	302.51
274.144	239.32
274.605	288.47
275.066	262.73
275.527	262.73
275.987	276.77
276.448	262.73
276.908	316.56
277.369	236.98
277.829	246.34
278.289	262.73
278.75	335.28
279.21	283.79
279.67	290.81
280.13	309.54
280.59	339.96
281.05	269.75
281.51	361.03
281.97	297.83
282.43	335.28
282.89	328.26
283.35	236.98
283.809	262.73
284.269	236.98
284.729	316.56
285.188	269.75
285.648	356.35
286.107	279.11
286.567	342.3
287.026	339.96
287.485	265.07
287.944	297.83
288.404	265.07
288.863	290.81
289.322	304.85
289.781	229.96
290.24	293.15
290.699	267.41
291.158	321.24
291.616	346.98
292.075	290.81
292.534	370.39
292.992	281.45
293.451	290.81
293.91	321.24
294.368	288.47
294.827	356.35
295.285	302.51
295.743	279.11
296.202	314.22
296.66	288.47
297.118	297.83
297.576	290.81
298.034	316.56
298.492	304.85
298.95	269.75
299.408	325.92
299.866	236.98
300.324	344.64
300.781	323.58
301.239	339.96
301.697	260.38
302.154	337.62
302.612	274.43
303.069	332.94
303.527	304.85
303.984	302.51
304.441	330.6
304.899	351.67
305.356	286.13
305.813	304.85
306.27	300.17
306.727	281.45
307.184	304.85
307.641	262.73
308.098	332.94
308.555	288.47
309.012	227.62
309.468	286.13
309.925	293.15
310.382	295.49
310.838	185.49
311.295	258.04
311.751	323.58
312.208	365.71
312.664	258.04
313.12	269.75
313.577	328.26
314.033	295.49
314.489	293.15
314.945	332.94
315.401	321.24
315.857	311.88
316.313	328.26
316.769	346.98
317.225	258.04
317.681	304.85
318.136	300.17
318.592	251.02
319.048	297.83
319.503	342.3
319.959	365.71
320.414	349.32
320.869	269.75
321.325	302.51
321.78	276.77
322.235	396.14
322.691	286.13
323.146	344.64
323.601	379.75
324.056	276.77
324.511	328.26
324.966	281.45
325.421	293.15
325.875	304.85
326.33	328.26
326.785	288.47
327.24	321.24
327.694	328.26
328.149	323.58
328.603	344.64
329.058	279.11
329.512	300.17
329.966	302.51
330.421	290.81
330.875	251.02
331.329	325.92
331.783	236.98
332.237	328.26
332.691	302.51
333.145	297.83
333.599	311.88
334.053	342.3
334.507	255.7
334.96	300.17
335.414	283.79
335.868	300.17
336.321	314.22
336.775	328.26
337.228	265.07
337.682	323.58
338.135	372.73
338.588	356.35
339.042	377.41
339.495	346.98
339.948	346.98
340.401	283.79
340.854	293.15
341.307	346.98
341.76	316.56
342.213	274.43
342.666	337.62
343.119	253.36
343.571	269.75
344.024	349.32
344.477	356.35
344.929	344.64
345.382	358.69
345.834	307.2
346.287	318.9
346.739	382.09
347.191	335.28
347.644	248.68
348.096	265.07
348.548	354.01
349	321.24
349.452	255.7
349.904	351.67
350.356	304.85
350.808	269.75
351.26	342.3
351.711	328.26
352.163	248.68
352.615	295.49
353.066	321.24
353.518	318.9
353.969	288.47
354.421	258.04
354.872	379.75
355.324	314.22
355.775	321.24
356.226	302.51
356.677	328.26
357.128	314.22
357.579	309.54
358.03	262.73
358.481	361.03
358.932	321.24
359.383	351.67
359.834	279.11
360.285	321.24
360.735	328.26
361.186	332.94
361.637	309.54
362.087	316.56
362.538	304.85
362.988	316.56
363.438	328.26
363.889	354.01
364.339	311.88
364.789	318.9
365.239	297.83
365.689	377.41
366.139	302.51
366.589	234.64
367.039	339.96
367.489	335.28
367.939	389.11
368.389	314.22
368.839	335.28
369.288	318.9
369.738	279.11
370.187	304.85
370.637	281.45
371.086	269.75
371.536	288.47
371.985	311.88
372.434	304.85
372.884	283.79
373.333	293.15
373.782	288.47
374.231	346.98
374.68	295.49
375.129	342.3
375.578	323.58
376.027	335.28
376.475	293.15
376.924	379.75
377.373	318.9
377.822	356.35
378.27	302.51
378.719	332.94
379.167	318.9
379.616	297.83
380.064	297.83
380.512	295.49
380.961	332.94
381.409	354.01
381.857	354.01
382.305	354.01
382.753	290.81
383.201	286.13
383.649	297.83
384.097	335.28
384.545	283.79
384.992	288.47
385.44	356.35
385.888	335.28
386.335	293.15
386.783	258.04
387.231	368.05
387.678	307.2
388.125	311.88
388.573	328.26
389.02	295.49
389.467	356.35
389.914	325.92
390.362	318.9
390.809	316.56
391.256	389.11
391.703	269.75
392.15	335.28
392.596	330.6
393.043	279.11
393.49	286.13
393.937	311.88
394.383	349.32
394.83	286.13
395.276	358.69
395.723	309.54
396.169	346.98
396.616	290.81
397.062	290.81
397.508	346.98
397.954	377.41
398.401	354.01
398.847	344.64
399.293	297.83
399.739	302.51
400.185	365.71
400.631	330.6
401.076	297.83
401.522	339.96
401.968	342.3
402.414	274.43
402.859	314.22
403.305	344.64
403.75	267.41
404.196	318.9
404.641	323.58
405.086	332.94
405.532	316.56
405.977	384.43
406.422	363.37
406.867	267.41
407.312	342.3
407.757	335.28
408.202	302.51
408.647	302.51
409.092	309.54
409.537	328.26
409.982	302.51
410.426	281.45
410.871	309.54
411.316	325.92
411.76	293.15
412.205	318.9
412.649	321.24
413.093	344.64
413.538	339.96
413.982	356.35
414.426	344.64
414.87	323.58
415.314	339.96
415.758	393.8
416.202	297.83
416.646	354.01
417.09	337.62
417.534	332.94
417.978	358.69
418.421	349.32
418.865	349.32
419.309	297.83
419.752	323.58
420.196	361.03
420.639	304.85
421.083	356.35
421.526	325.92
421.969	304.85
422.412	337.62
422.856	290.81
423.299	251.02
423.742	363.37
424.185	286.13
424.628	358.69
425.071	307.2
425.513	246.34
425.956	344.64
426.399	290.81
426.842	323.58
427.284	316.56
427.727	337.62
428.169	297.83
428.612	311.88
429.054	309.54
429.497	293.15
429.939	311.88
430.381	316.56
430.823	281.45
431.265	288.47
431.707	342.3
432.149	361.03
432.591	302.51
433.033	307.2
433.475	330.6
433.917	393.8
434.359	365.71
434.8	342.3
435.242	405.5
435.684	300.17
436.125	349.32
436.567	302.51
437.008	332.94
437.449	361.03
437.891	363.37
438.332	318.9
438.773	342.3
439.214	356.35
439.656	342.3
440.097	274.43
440.538	260.38
440.978	300.17
441.419	316.56
441.86	356.35
442.301	309.54
442.742	363.37
443.182	311.88
443.623	297.83
444.063	302.51
444.504	283.79
444.944	297.83
445.385	295.49
445.825	330.6
446.265	361.03
446.706	346.98
447.146	321.24
447.586	337.62
448.026	365.71
448.466	351.67
448.906	368.05
449.346	318.9
449.786	311.88
450.225	339.96
450.665	393.8
451.105	300.17
451.544	358.69
451.984	351.67
452.424	389.11
452.863	335.28
453.302	330.6
453.742	328.26
454.181	220.6
454.62	286.13
455.059	302.51
455.499	295.49
455.938	335.28
456.377	318.9
456.816	276.77
457.254	365.71
457.693	286.13
458.132	311.88
458.571	372.73
459.01	370.39
459.448	349.32
459.887	304.85
460.325	267.41
460.764	391.45
461.202	323.58
461.641	272.09
462.079	365.71
462.517	337.62
462.955	349.32
463.393	346.98
463.832	288.47
464.27	293.15
464.708	241.66
465.145	323.58
465.583	316.56
466.021	269.75
466.459	295.49
466.897	265.07
467.334	281.45
467.772	302.51
468.209	358.69
468.647	304.85
469.084	295.49
469.522	391.45
469.959	370.39
470.396	356.35
470.833	323.58
471.271	290.81
471.708	321.24
472.145	337.62
472.582	316.56
473.019	370.39
473.456	358.69
473.892	332.94
474.329	311.88
474.766	363.37
475.202	328.26
475.639	267.41
476.076	370.39
476.512	328.26
476.949	283.79
477.385	311.88
477.821	332.94
478.258	346.98
478.694	293.15
479.13	244
479.566	351.67
480.002	337.62
480.438	354.01
480.874	356.35
481.31	335.28
481.746	309.54
482.181	330.6
482.617	274.43
483.053	372.73
483.488	391.45
483.924	311.88
484.36	337.62
484.795	318.9
485.23	349.32
485.666	316.56
486.101	248.68
486.536	349.32
486.971	321.24
487.407	281.45
487.842	372.73
488.277	295.49
488.712	262.73
489.146	318.9
489.581	279.11
490.016	283.79
490.451	290.81
490.885	293.15
491.32	311.88
491.755	428.9
492.189	309.54
492.624	358.69
493.058	365.71
493.492	351.67
493.927	311.88
494.361	349.32
494.795	239.32
495.229	321.24
495.663	290.81
496.097	332.94
496.531	318.9
496.965	309.54
497.399	356.35
497.833	349.32
498.266	314.22
498.7	321.24
499.134	325.92
499.567	288.47
500.001	351.67
500.434	356.35
500.868	370.39
501.301	293.15
501.734	363.37
502.168	304.85
502.601	339.96
503.034	300.17
503.467	248.68
503.9	335.28
504.333	342.3
504.766	304.85
505.199	344.64
505.632	342.3
506.064	325.92
506.497	351.67
506.93	337.62
507.362	260.38
507.795	328.26
508.227	325.92
508.66	328.26
509.092	354.01
509.524	265.07
509.956	330.6
510.389	297.83
510.821	368.05
511.253	302.51
511.685	332.94
512.117	323.58
512.549	330.6
512.981	370.39
513.412	281.45
513.844	290.81
514.276	351.67
514.707	267.41
515.139	267.41
515.571	279.11
516.002	335.28
516.433	281.45
516.865	361.03
517.296	318.9
517.727	311.88
518.159	311.88
518.59	283.79
519.021	337.62
519.452	354.01
519.883	351.67
520.314	276.77
520.744	286.13
521.175	279.11
521.606	302.51
522.037	304.85
522.467	342.3
522.898	346.98
523.328	363.37
523.759	314.22
524.189	356.35
524.62	318.9
525.05	307.2
525.48	316.56
525.91	272.09
526.341	325.92
526.771	339.96
527.201	344.64
527.631	302.51
528.061	316.56
528.49	307.2
528.92	328.26
529.35	358.69
529.78	318.9
530.209	335.28
530.639	269.75
531.068	321.24
531.498	342.3
531.927	288.47
532.357	354.01
532.786	382.09
533.215	267.41
533.644	342.3
534.074	311.88
534.503	297.83
534.932	283.79
535.361	351.67
535.79	314.22
536.218	375.07
536.647	339.96
537.076	300.17
537.505	337.62
537.933	314.22
538.362	316.56
538.79	403.16
539.219	368.05
539.647	339.96
540.076	318.9
540.504	307.2
540.932	307.2
541.36	342.3
541.788	290.81
542.217	335.28
542.645	260.38
543.073	363.37
543.5	290.81
543.928	316.56
544.356	358.69
544.784	330.6
545.211	316.56
545.639	335.28
546.067	311.88
546.494	328.26
546.922	332.94
547.349	302.51
547.776	311.88
548.204	314.22
548.631	321.24
549.058	337.62
549.485	351.67
549.912	337.62
550.339	384.43
550.766	337.62
551.193	339.96
551.62	323.58
552.047	316.56
552.474	302.51
552.9	377.41
553.327	332.94
553.754	300.17
554.18	325.92
554.607	304.85
555.033	318.9
555.459	361.03
555.886	349.32
556.312	297.83
556.738	295.49
557.164	335.28
557.59	314.22
558.016	323.58
558.442	325.92
558.868	342.3
559.294	344.64
559.72	342.3
560.145	318.9
560.571	382.09
560.997	309.54
561.422	321.24
561.848	332.94
562.273	311.88
562.699	325.92
563.124	354.01
563.549	384.43
563.974	314.22
564.4	304.85
564.825	307.2
565.25	293.15
565.675	330.6
566.1	276.77
566.525	309.54
566.95	297.83
567.374	323.58
567.799	370.39
568.224	314.22
568.648	316.56
569.073	372.73
569.497	244
569.922	332.94
570.346	328.26
570.771	307.2
571.195	316.56
571.619	363.37
572.043	300.17
572.467	354.01
572.891	410.18
573.315	354.01
573.739	279.11
574.163	293.15
574.587	311.88
575.011	302.51
575.435	316.56
575.858	307.2
576.282	365.71
576.705	389.11
577.129	328.26
577.552	354.01
577.976	307.2
578.399	325.92
578.822	375.07
579.245	325.92
579.669	349.32
580.092	339.96
580.515	382.09
580.938	339.96
581.361	311.88
581.784	361.03
582.206	304.85
582.629	321.24
583.052	332.94
583.474	328.26
583.897	328.26
584.32	365.71
584.742	300.17
585.165	375.07
585.587	325.92
586.009	307.2
586.431	265.07
586.854	330.6
587.276	269.75
587.698	311.88
588.12	274.43
588.542	342.3
588.964	290.81
589.386	363.37
589.807	351.67
590.229	323.58
590.651	314.22
591.073	335.28
591.494	283.79
591.916	276.77
592.337	323.58
592.759	309.54
593.18	297.83
593.601	300.17
594.022	304.85
594.444	286.13
594.865	311.88
595.286	349.32
595.707	363.37
596.128	356.35
596.549	304.85
596.97	295.49
597.39	323.58
597.811	316.56
598.232	288.47
598.652	337.62
599.073	304.85
599.494	272.09
599.914	363.37
600.334	325.92
600.755	283.79
601.175	351.67
601.595	269.75
602.015	382.09
602.436	354.01
602.856	412.52
603.276	318.9
603.696	307.2
604.115	325.92
604.535	321.24
604.955	391.45
605.375	325.92
605.794	368.05
606.214	344.64
606.634	328.26
607.053	316.56
607.473	325.92
607.892	318.9
608.311	325.92
608.731	330.6
609.15	293.15
609.569	316.56
609.988	307.2
610.407	325.92
610.826	379.75
611.245	290.81
611.664	297.83
612.083	311.88
612.501	311.88
612.92	304.85
613.339	396.14
613.757	279.11
614.176	304.85
614.594	332.94
615.013	323.58
615.431	304.85
615.85	330.6
616.268	337.62
616.686	304.85
617.104	342.3
617.522	314.22
617.94	318.9
618.358	354.01
618.776	351.67
619.194	290.81
619.612	318.9
620.03	354.01
620.447	283.79
620.865	323.58
621.282	236.98
621.7	297.83
622.117	269.75
622.535	304.85
622.952	393.8
623.369	351.67
623.787	274.43
624.204	279.11
624.621	332.94
625.038	339.96
625.455	300.17
625.872	314.22
626.289	293.15
626.706	281.45
627.123	356.35
627.539	391.45
627.956	314.22
628.373	286.13
628.789	358.69
629.206	363.37
629.622	344.64
630.038	356.35
630.455	253.36
630.871	272.09
631.287	335.28
631.703	311.88
632.12	293.15
632.536	307.2
632.952	283.79
633.368	339.96
633.783	361.03
634.199	267.41
634.615	311.88
635.031	323.58
635.446	332.94
635.862	276.77
636.277	309.54
636.693	328.26
637.108	290.81
637.524	346.98
637.939	290.81
638.354	251.02
638.77	316.56
639.185	269.75
639.6	377.41
640.015	302.51
640.43	349.32
640.845	251.02
641.259	344.64
641.674	323.58
642.089	351.67
642.504	342.3
642.918	241.66
643.333	265.07
643.747	389.11
644.162	314.22
644.576	323.58
644.991	358.69
645.405	346.98
645.819	365.71
646.233	356.35
646.647	332.94
647.061	323.58
647.475	349.32
647.889	274.43
648.303	339.96
648.717	281.45
649.131	309.54
649.545	365.71
649.958	337.62
650.372	375.07
650.785	330.6
651.199	288.47
651.612	297.83
652.026	344.64
652.439	293.15
652.852	248.68
653.266	307.2
653.679	293.15
654.092	274.43
654.505	356.35
654.918	337.62
655.331	297.83
655.744	346.98
656.156	375.07
656.569	316.56
656.982	293.15
657.394	330.6
657.807	335.28
658.22	307.2
658.632	344.64
659.044	258.04
659.457	304.85
659.869	297.83
660.281	302.51
660.693	283.79
661.106	328.26
661.518	328.26
661.93	269.75
662.342	304.85
662.754	332.94
663.165	321.24
663.577	377.41
663.989	354.01
664.401	356.35
664.812	267.41
665.224	286.13
665.635	248.68
666.047	316.56
666.458	316.56
666.869	389.11
667.281	300.17
667.692	309.54
668.103	316.56
668.514	316.56
668.925	342.3
669.336	283.79
669.747	349.32
670.158	311.88
670.569	325.92
670.979	290.81
671.39	300.17
671.801	318.9
672.211	300.17
672.622	302.51
673.032	354.01
673.443	354.01
673.853	311.88
674.263	288.47
674.674	337.62
675.084	335.28
675.494	307.2
675.904	332.94
676.314	349.32
676.724	368.05
677.134	316.56
677.544	293.15
677.953	272.09
678.363	384.43
678.773	346.98
679.182	377.41
679.592	328.26
680.001	344.64
680.411	325.92
680.82	255.7
681.23	276.77
681.639	325.92
682.048	293.15
682.457	349.32
682.866	323.58
683.275	351.67
683.684	377.41
684.093	281.45
684.502	267.41
684.911	318.9
685.32	318.9
685.728	356.35
686.137	316.56
686.546	332.94
686.954	335.28
687.363	330.6
687.771	316.56
688.179	363.37
688.588	314.22
688.996	293.15
689.404	272.09
689.812	363.37
690.22	344.64
690.628	286.13
691.036	314.22
691.444	377.41
691.852	316.56
692.26	321.24
692.667	323.58
693.075	356.35
693.483	304.85
693.89	363.37
694.298	286.13
694.705	356.35
695.112	330.6
695.52	318.9
695.927	321.24
696.334	328.26
696.741	279.11
697.148	342.3
697.555	293.15
697.962	300.17
698.369	330.6
698.776	316.56
699.183	318.9
699.59	318.9
699.996	325.92
700.403	365.71
700.81	307.2
701.216	321.24
701.623	311.88
702.029	302.51
702.435	368.05
702.842	297.83
703.248	346.98
703.654	290.81
704.06	309.54
704.466	309.54
704.872	325.92
705.278	288.47
705.684	302.51
706.09	339.96
706.496	316.56
706.901	339.96
707.307	330.6
707.712	375.07
708.118	295.49
708.523	288.47
708.929	389.11
709.334	407.84
709.74	283.79
710.145	393.8
710.55	354.01
710.955	318.9
711.36	370.39
711.765	328.26
712.17	316.56
712.575	316.56
712.98	817.43
713.385	276.77
713.789	330.6
714.194	339.96
714.599	410.18
715.003	309.54
715.408	286.13
715.812	342.3
716.217	351.67
716.621	377.41
717.025	321.24
717.429	318.9
717.833	300.17
718.238	314.22
718.642	375.07
719.046	337.62
719.449	372.73
719.853	335.28
720.257	346.98
720.661	339.96
721.065	339.96
721.468	325.92
721.872	279.11
722.275	279.11
722.679	290.81
723.082	295.49
723.485	288.47
723.889	307.2
724.292	321.24
724.695	288.47
725.098	356.35
725.501	330.6
725.904	293.15
726.307	290.81
726.71	269.75
727.113	321.24
727.516	304.85
727.918	304.85
728.321	335.28
728.724	386.77
729.126	286.13
729.529	337.62
729.931	365.71
730.333	349.32
730.736	244
731.138	309.54
731.54	330.6
731.942	335.28
732.344	304.85
732.746	349.32
733.148	339.96
733.55	314.22
733.952	339.96
734.354	304.85
734.756	309.54
735.157	304.85
735.559	328.26
735.96	351.67
736.362	346.98
736.763	325.92
737.165	356.35
737.566	265.07
737.967	267.41
738.368	255.7
738.77	325.92
739.171	377.41
739.572	332.94
739.973	361.03
740.374	267.41
740.774	386.77
741.175	272.09
741.576	229.96
741.977	281.45
742.377	323.58
742.778	351.67
743.178	368.05
743.579	356.35
743.979	330.6
744.379	253.36
744.78	290.81
745.18	346.98
745.58	302.51
745.98	300.17
746.38	316.56
746.78	307.2
747.18	325.92
747.58	262.73
747.98	293.15
748.38	311.88
748.779	269.75
749.179	339.96
749.578	321.24
749.978	290.81
750.377	304.85
750.777	307.2
751.176	356.35
751.575	314.22
751.975	288.47
752.374	281.45
752.773	330.6
753.172	260.38
753.571	295.49
753.97	354.01
754.369	251.02
754.768	258.04
755.166	321.24
755.565	346.98
755.964	283.79
756.362	377.41
756.761	309.54
757.159	375.07
757.558	283.79
757.956	351.67
758.354	351.67
758.753	330.6
759.151	349.32
759.549	281.45
759.947	258.04
760.345	286.13
760.743	239.32
761.141	286.13
761.539	339.96
761.936	351.67
762.334	234.64
762.732	356.35
763.129	295.49
763.527	323.58
763.924	337.62
764.322	339.96
764.719	311.88
765.117	304.85
765.514	258.04
