Data from Al_FLMS009871__851__15-31-15-796.txt Node

Date: Fri Mar 08 15:31:15 CST 2024
User: pe5414po
Spectrometer: FLMS00987
Trigger mode: 0
Integration Time (sec): 1.000000E-1
Scans to average: 1
Electric dark correction enabled: true
Nonlinearity correction enabled: false
Boxcar width: 0
XAxis mode: Wavelengths
Number of Pixels in Spectrum: 2048
>>>>>Begin Spectral Data<<<<<
188.938	-91.87
189.409	-91.87
189.879	-91.87
190.349	-87.18
190.819	-150.38
191.29	-148.04
191.76	-87.18
192.23	-82.5
192.7	-47.4
193.17	13.46
193.64	-82.5
194.109	50.91
194.579	-73.14
195.049	-5.27
195.519	-12.29
195.988	34.52
196.458	-2.93
196.927	43.89
197.397	118.78
197.866	158.57
198.336	121.12
198.805	172.61
199.274	242.83
199.744	111.76
200.213	172.61
200.682	172.61
201.151	235.81
201.62	233.47
202.089	224.11
202.558	226.45
203.027	273.26
203.495	291.98
203.964	252.19
204.433	284.96
204.902	231.13
205.37	259.21
205.839	235.81
206.307	200.7
206.776	357.52
207.244	327.09
207.712	270.92
208.181	315.39
208.649	315.39
209.117	282.62
209.585	270.92
210.053	270.92
210.521	261.55
210.989	303.68
211.457	329.43
211.925	275.6
212.393	238.15
212.861	299
213.328	282.62
213.796	320.07
214.264	301.34
214.731	306.03
215.199	294.32
215.666	287.3
216.133	268.58
216.601	310.71
217.068	247.51
217.535	282.62
218.003	210.06
218.47	210.06
218.937	249.85
219.404	263.9
219.871	259.21
220.338	324.75
220.805	226.45
221.271	210.06
221.738	254.53
222.205	331.77
222.671	252.19
223.138	207.72
223.605	268.58
224.071	203.04
224.538	217.08
225.004	228.79
225.47	259.21
225.937	238.15
226.403	261.55
226.869	259.21
227.335	226.45
227.801	322.41
228.267	231.13
228.733	270.92
229.199	219.43
229.665	221.77
230.131	245.17
230.597	233.47
231.062	233.47
231.528	254.53
231.994	331.77
232.459	268.58
232.925	256.87
233.39	270.92
233.856	254.53
234.321	287.3
234.786	270.92
235.252	245.17
235.717	233.47
236.182	259.21
236.647	256.87
237.112	224.11
237.577	287.3
238.042	247.51
238.507	289.64
238.972	273.26
239.436	261.55
239.901	242.83
240.366	282.62
240.83	275.6
241.295	240.49
241.76	270.92
242.224	275.6
242.688	259.21
243.153	287.3
243.617	256.87
244.081	266.24
244.545	282.62
245.01	242.83
245.474	270.92
245.938	249.85
246.402	193.68
246.866	306.03
247.33	270.92
247.793	317.73
248.257	270.92
248.721	270.92
249.185	181.98
249.648	266.24
250.112	196.02
250.575	270.92
251.039	303.68
251.502	249.85
251.965	263.9
252.429	308.37
252.892	233.47
253.355	306.03
253.818	280.28
254.281	263.9
254.744	303.68
255.207	303.68
255.67	256.87
256.133	284.96
256.596	277.94
257.059	296.66
257.522	240.49
257.984	259.21
258.447	259.21
258.909	252.19
259.372	284.96
259.834	331.77
260.297	214.74
260.759	284.96
261.221	308.37
261.684	296.66
262.146	273.26
262.608	313.05
263.07	277.94
263.532	275.6
263.994	242.83
264.456	301.34
264.918	291.98
265.38	219.43
265.842	287.3
266.303	261.55
266.765	245.17
267.227	207.72
267.688	338.79
268.15	242.83
268.611	270.92
269.072	287.3
269.534	291.98
269.995	235.81
270.456	224.11
270.918	261.55
271.379	266.24
271.84	324.75
272.301	334.11
272.762	275.6
273.223	205.38
273.684	306.03
274.144	275.6
274.605	303.68
275.066	287.3
275.527	210.06
275.987	303.68
276.448	282.62
276.908	268.58
277.369	322.41
277.829	263.9
278.289	310.71
278.75	263.9
279.21	275.6
279.67	235.81
280.13	282.62
280.59	334.11
281.05	291.98
281.51	315.39
281.97	296.66
282.43	277.94
282.89	308.37
283.35	343.47
283.809	280.28
284.269	299
284.729	294.32
285.188	242.83
285.648	252.19
286.107	280.28
286.567	247.51
287.026	282.62
287.485	261.55
287.944	327.09
288.404	256.87
288.863	315.39
289.322	296.66
289.781	252.19
290.24	308.37
290.699	301.34
291.158	308.37
291.616	266.24
292.075	327.09
292.534	369.22
292.992	249.85
293.451	261.55
293.91	268.58
294.368	383.26
294.827	282.62
295.285	317.73
295.743	308.37
296.202	313.05
296.66	322.41
297.118	348.15
297.576	261.55
298.034	284.96
298.492	306.03
298.95	287.3
299.408	277.94
299.866	266.24
300.324	249.85
300.781	303.68
301.239	196.02
301.697	313.05
302.154	291.98
302.612	313.05
303.069	245.17
303.527	261.55
303.984	348.15
304.441	277.94
304.899	338.79
305.356	287.3
305.813	308.37
306.27	287.3
306.727	303.68
307.184	301.34
307.641	294.32
308.098	270.92
308.555	303.68
309.012	315.39
309.468	301.34
309.925	235.81
310.382	299
310.838	254.53
311.295	275.6
311.751	320.07
312.208	324.75
312.664	284.96
313.12	334.11
313.577	366.88
314.033	296.66
314.489	322.41
314.945	235.81
315.401	275.6
315.857	315.39
316.313	284.96
316.769	263.9
317.225	310.71
317.681	291.98
318.136	238.15
318.592	231.13
319.048	310.71
319.503	320.07
319.959	296.66
320.414	287.3
320.869	336.45
321.325	259.21
321.78	320.07
322.235	238.15
322.691	252.19
323.146	256.87
323.601	294.32
324.056	348.15
324.511	235.81
324.966	308.37
325.421	217.08
325.875	301.34
326.33	277.94
326.785	212.4
327.24	341.13
327.694	287.3
328.149	306.03
328.603	275.6
329.058	308.37
329.512	277.94
329.966	233.47
330.421	256.87
330.875	263.9
331.329	345.81
331.783	266.24
332.237	284.96
332.691	240.49
333.145	287.3
333.599	270.92
334.053	235.81
334.507	315.39
334.96	275.6
335.414	280.28
335.868	308.37
336.321	287.3
336.775	256.87
337.228	306.03
337.682	364.54
338.135	280.28
338.588	252.19
339.042	249.85
339.495	308.37
339.948	266.24
340.401	294.32
340.854	341.13
341.307	308.37
341.76	299
342.213	296.66
342.666	306.03
343.119	254.53
343.571	238.15
344.024	331.77
344.477	280.28
344.929	331.77
345.382	301.34
345.834	306.03
346.287	273.26
346.739	284.96
347.191	315.39
347.644	315.39
348.096	256.87
348.548	259.21
349	212.4
349.452	270.92
349.904	294.32
350.356	301.34
350.808	341.13
351.26	266.24
351.711	275.6
352.163	301.34
352.615	343.47
353.066	329.43
353.518	235.81
353.969	263.9
354.421	338.79
354.872	336.45
355.324	231.13
355.775	306.03
356.226	306.03
356.677	249.85
357.128	214.74
357.579	275.6
358.03	308.37
358.481	261.55
358.932	383.26
359.383	256.87
359.834	263.9
360.285	284.96
360.735	256.87
361.186	317.73
361.637	268.58
362.087	334.11
362.538	301.34
362.988	277.94
363.438	317.73
363.889	266.24
364.339	355.18
364.789	263.9
365.239	359.86
365.689	284.96
366.139	306.03
366.589	289.64
367.039	277.94
367.489	310.71
367.939	240.49
368.389	327.09
368.839	350.5
369.288	313.05
369.738	235.81
370.187	284.96
370.637	317.73
371.086	263.9
371.536	301.34
371.985	348.15
372.434	320.07
372.884	270.92
373.333	296.66
373.782	287.3
374.231	334.11
374.68	282.62
375.129	261.55
375.578	266.24
376.027	294.32
376.475	238.15
376.924	245.17
377.373	350.5
377.822	277.94
378.27	296.66
378.719	306.03
379.167	282.62
379.616	357.52
380.064	280.28
380.512	275.6
380.961	308.37
381.409	277.94
381.857	357.52
382.305	299
382.753	273.26
383.201	341.13
383.649	294.32
384.097	380.92
384.545	284.96
384.992	277.94
385.44	217.08
385.888	306.03
386.335	256.87
386.783	324.75
387.231	252.19
387.678	301.34
388.125	275.6
388.573	291.98
389.02	378.58
389.467	247.51
389.914	287.3
390.362	306.03
390.809	282.62
391.256	324.75
391.703	296.66
392.15	336.45
392.596	322.41
393.043	249.85
393.49	284.96
393.937	266.24
394.383	308.37
394.83	254.53
395.276	294.32
395.723	254.53
396.169	263.9
396.616	294.32
397.062	352.84
397.508	296.66
397.954	329.43
398.401	301.34
398.847	259.21
399.293	355.18
399.739	256.87
400.185	329.43
400.631	259.21
401.076	224.11
401.522	336.45
401.968	301.34
402.414	301.34
402.859	373.9
403.305	294.32
403.75	289.64
404.196	343.47
404.641	362.2
405.086	317.73
405.532	310.71
405.977	233.47
406.422	317.73
406.867	313.05
407.312	350.5
407.757	315.39
408.202	294.32
408.647	252.19
409.092	291.98
409.537	324.75
409.982	313.05
410.426	268.58
410.871	322.41
411.316	329.43
411.76	378.58
412.205	291.98
412.649	299
413.093	324.75
413.538	263.9
413.982	249.85
414.426	310.71
414.87	289.64
415.314	313.05
415.758	390.28
416.202	308.37
416.646	343.47
417.09	275.6
417.534	324.75
417.978	299
418.421	275.6
418.865	350.5
419.309	320.07
419.752	256.87
420.196	238.15
420.639	329.43
421.083	296.66
421.526	245.17
421.969	277.94
422.412	263.9
422.856	320.07
423.299	327.09
423.742	277.94
424.185	266.24
424.628	338.79
425.071	301.34
425.513	341.13
425.956	317.73
426.399	254.53
426.842	310.71
427.284	277.94
427.727	306.03
428.169	308.37
428.612	366.88
429.054	329.43
429.497	280.28
429.939	345.81
430.381	289.64
430.823	301.34
431.265	343.47
431.707	303.68
432.149	284.96
432.591	401.99
433.033	315.39
433.475	275.6
433.917	277.94
434.359	291.98
434.8	303.68
435.242	270.92
435.684	282.62
436.125	299
436.567	334.11
437.008	343.47
437.449	275.6
437.891	263.9
438.332	266.24
438.773	350.5
439.214	280.28
439.656	263.9
440.097	310.71
440.538	310.71
440.978	343.47
441.419	322.41
441.86	306.03
442.301	259.21
442.742	273.26
443.182	289.64
443.623	296.66
444.063	313.05
444.504	299
444.944	315.39
445.385	270.92
445.825	341.13
446.265	306.03
446.706	284.96
447.146	359.86
447.586	284.96
448.026	291.98
448.466	224.11
448.906	329.43
449.346	240.49
449.786	287.3
450.225	320.07
450.665	294.32
451.105	277.94
451.544	303.68
451.984	336.45
452.424	343.47
452.863	277.94
453.302	299
453.742	287.3
454.181	261.55
454.62	308.37
455.059	313.05
455.499	247.51
455.938	280.28
456.377	331.77
456.816	327.09
457.254	310.71
457.693	240.49
458.132	341.13
458.571	296.66
459.01	294.32
459.448	352.84
459.887	327.09
460.325	235.81
460.764	327.09
461.202	287.3
461.641	322.41
462.079	299
462.517	320.07
462.955	345.81
463.393	383.26
463.832	287.3
464.27	252.19
464.708	207.72
465.145	294.32
465.583	327.09
466.021	355.18
466.459	284.96
466.897	338.79
467.334	254.53
467.772	303.68
468.209	303.68
468.647	263.9
469.084	301.34
469.522	268.58
469.959	380.92
470.396	306.03
470.833	268.58
471.271	343.47
471.708	355.18
472.145	341.13
472.582	341.13
473.019	299
473.456	294.32
473.892	364.54
474.329	263.9
474.766	338.79
475.202	299
475.639	291.98
476.076	270.92
476.512	338.79
476.949	348.15
477.385	317.73
477.821	296.66
478.258	280.28
478.694	203.04
479.13	301.34
479.566	303.68
480.002	341.13
480.438	299
480.874	364.54
481.31	371.56
481.746	348.15
482.181	320.07
482.617	327.09
483.053	308.37
483.488	331.77
483.924	320.07
484.36	268.58
484.795	373.9
485.23	270.92
485.666	301.34
486.101	348.15
486.536	308.37
486.971	317.73
487.407	275.6
487.842	310.71
488.277	306.03
488.712	200.7
489.146	341.13
489.581	320.07
490.016	301.34
490.451	275.6
490.885	301.34
491.32	291.98
491.755	329.43
492.189	296.66
492.624	348.15
493.058	315.39
493.492	310.71
493.927	277.94
494.361	275.6
494.795	320.07
495.229	275.6
495.663	320.07
496.097	317.73
496.531	338.79
496.965	343.47
497.399	282.62
497.833	296.66
498.266	355.18
498.7	306.03
499.134	284.96
499.567	334.11
500.001	270.92
500.434	261.55
500.868	317.73
501.301	315.39
501.734	238.15
502.168	317.73
502.601	275.6
503.034	303.68
503.467	284.96
503.9	329.43
504.333	289.64
504.766	254.53
505.199	315.39
505.632	348.15
506.064	334.11
506.497	266.24
506.93	282.62
507.362	313.05
507.795	287.3
508.227	313.05
508.66	320.07
509.092	296.66
509.524	277.94
509.956	284.96
510.389	380.92
510.821	212.4
511.253	266.24
511.685	299
512.117	291.98
512.549	317.73
512.981	284.96
513.412	296.66
513.844	238.15
514.276	324.75
514.707	331.77
515.139	301.34
515.571	303.68
516.002	329.43
516.433	355.18
516.865	320.07
517.296	320.07
517.727	352.84
518.159	277.94
518.59	299
519.021	310.71
519.452	277.94
519.883	299
520.314	364.54
520.744	327.09
521.175	324.75
521.606	219.43
522.037	238.15
522.467	256.87
522.898	303.68
523.328	303.68
523.759	338.79
524.189	320.07
524.62	315.39
525.05	263.9
525.48	306.03
525.91	301.34
526.341	268.58
526.771	299
527.201	315.39
527.631	313.05
528.061	291.98
528.49	322.41
528.92	317.73
529.35	317.73
529.78	301.34
530.209	296.66
530.639	315.39
531.068	331.77
531.498	284.96
531.927	320.07
532.357	289.64
532.786	336.45
533.215	277.94
533.644	324.75
534.074	329.43
534.503	383.26
534.932	331.77
535.361	294.32
535.79	294.32
536.218	324.75
536.647	350.5
537.076	310.71
537.505	320.07
537.933	348.15
538.362	341.13
538.79	291.98
539.219	296.66
539.647	352.84
540.076	287.3
540.504	334.11
540.932	329.43
541.36	322.41
541.788	322.41
542.217	313.05
542.645	284.96
543.073	315.39
543.5	263.9
543.928	315.39
544.356	291.98
544.784	277.94
545.211	359.86
545.639	320.07
546.067	252.19
546.494	296.66
546.922	369.22
547.349	306.03
547.776	390.28
548.204	317.73
548.631	322.41
549.058	235.81
549.485	284.96
549.912	336.45
550.339	228.79
550.766	348.15
551.193	310.71
551.62	306.03
552.047	299
552.474	282.62
552.9	249.85
553.327	310.71
553.754	341.13
554.18	341.13
554.607	301.34
555.033	364.54
555.459	306.03
555.886	310.71
556.312	315.39
556.738	259.21
557.164	317.73
557.59	322.41
558.016	282.62
558.442	350.5
558.868	313.05
559.294	331.77
559.72	277.94
560.145	268.58
560.571	376.24
560.997	273.26
561.422	245.17
561.848	336.45
562.273	383.26
562.699	291.98
563.124	306.03
563.549	282.62
563.974	299
564.4	266.24
564.825	310.71
565.25	355.18
565.675	306.03
566.1	364.54
566.525	310.71
566.95	320.07
567.374	303.68
567.799	331.77
568.224	299
568.648	334.11
569.073	329.43
569.497	245.17
569.922	249.85
570.346	275.6
570.771	359.86
571.195	273.26
571.619	320.07
572.043	252.19
572.467	277.94
572.891	282.62
573.315	301.34
573.739	301.34
574.163	280.28
574.587	289.64
575.011	291.98
575.435	310.71
575.858	291.98
576.282	313.05
576.705	378.58
577.129	324.75
577.552	329.43
577.976	291.98
578.399	390.28
578.822	338.79
579.245	317.73
579.669	296.66
580.092	315.39
580.515	275.6
580.938	343.47
581.361	322.41
581.784	341.13
582.206	299
582.629	301.34
583.052	331.77
583.474	320.07
583.897	320.07
584.32	327.09
584.742	320.07
585.165	282.62
585.587	249.85
586.009	315.39
586.431	313.05
586.854	296.66
587.276	249.85
587.698	280.28
588.12	289.64
588.542	291.98
588.964	299
589.386	256.87
589.807	266.24
590.229	345.81
590.651	282.62
591.073	373.9
591.494	315.39
591.916	315.39
592.337	317.73
592.759	301.34
593.18	308.37
593.601	247.51
594.022	270.92
594.444	214.74
594.865	306.03
595.286	322.41
595.707	249.85
596.128	299
596.549	308.37
596.97	313.05
597.39	296.66
597.811	350.5
598.232	308.37
598.652	284.96
599.073	315.39
599.494	289.64
599.914	287.3
600.334	191.34
600.755	352.84
601.175	322.41
601.595	261.55
602.015	303.68
602.436	249.85
602.856	359.86
603.276	301.34
603.696	289.64
604.115	366.88
604.535	331.77
604.955	352.84
605.375	306.03
605.794	322.41
606.214	320.07
606.634	240.49
607.053	303.68
607.473	303.68
607.892	338.79
608.311	357.52
608.731	280.28
609.15	273.26
609.569	254.53
609.988	287.3
610.407	329.43
610.826	313.05
611.245	329.43
611.664	301.34
612.083	369.22
612.501	362.2
612.92	296.66
613.339	334.11
613.757	334.11
614.176	324.75
614.594	331.77
615.013	299
615.431	350.5
615.85	308.37
616.268	299
616.686	362.2
617.104	247.51
617.522	296.66
617.94	294.32
618.358	280.28
618.776	336.45
619.194	287.3
619.612	336.45
620.03	343.47
620.447	266.24
620.865	280.28
621.282	299
621.7	322.41
622.117	284.96
622.535	320.07
622.952	261.55
623.369	317.73
623.787	282.62
624.204	212.4
624.621	338.79
625.038	294.32
625.455	327.09
625.872	291.98
626.289	275.6
626.706	296.66
627.123	329.43
627.539	284.96
627.956	306.03
628.373	357.52
628.789	280.28
629.206	315.39
629.622	245.17
630.038	308.37
630.455	268.58
630.871	252.19
631.287	313.05
631.703	282.62
632.12	359.86
632.536	266.24
632.952	299
633.368	296.66
633.783	263.9
634.199	352.84
634.615	343.47
635.031	317.73
635.446	327.09
635.862	296.66
636.277	317.73
636.693	299
637.108	299
637.524	373.9
637.939	322.41
638.354	345.81
638.77	280.28
639.185	299
639.6	261.55
640.015	254.53
640.43	313.05
640.845	294.32
641.259	341.13
641.674	252.19
642.089	254.53
642.504	310.71
642.918	324.75
643.333	324.75
643.747	289.64
644.162	338.79
644.576	268.58
644.991	280.28
645.405	270.92
645.819	308.37
646.233	268.58
646.647	280.28
647.061	369.22
647.475	336.45
647.889	270.92
648.303	341.13
648.717	308.37
649.131	301.34
649.545	313.05
649.958	266.24
650.372	334.11
650.785	359.86
651.199	287.3
651.612	362.2
652.026	296.66
652.439	341.13
652.852	329.43
653.266	331.77
653.679	299
654.092	289.64
654.505	329.43
654.918	296.66
655.331	334.11
655.744	355.18
656.156	275.6
656.569	277.94
656.982	270.92
657.394	317.73
657.807	336.45
658.22	376.24
658.632	270.92
659.044	331.77
659.457	331.77
659.869	299
660.281	301.34
660.693	411.35
661.106	310.71
661.518	301.34
661.93	266.24
662.342	357.52
662.754	322.41
663.165	320.07
663.577	268.58
663.989	324.75
664.401	287.3
664.812	310.71
665.224	320.07
665.635	308.37
666.047	355.18
666.458	331.77
666.869	343.47
667.281	348.15
667.692	336.45
668.103	322.41
668.514	287.3
668.925	299
669.336	334.11
669.747	266.24
670.158	291.98
670.569	261.55
670.979	256.87
671.39	270.92
671.801	296.66
672.211	324.75
672.622	341.13
673.032	301.34
673.443	275.6
673.853	303.68
674.263	303.68
674.674	296.66
675.084	338.79
675.494	296.66
675.904	287.3
676.314	310.71
676.724	228.79
677.134	301.34
677.544	275.6
677.953	280.28
678.363	263.9
678.773	329.43
679.182	282.62
679.592	306.03
680.001	317.73
680.411	235.81
680.82	259.21
681.23	310.71
681.639	341.13
682.048	369.22
682.457	357.52
682.866	345.81
683.275	315.39
683.684	273.26
684.093	343.47
684.502	338.79
684.911	308.37
685.32	327.09
685.728	273.26
686.137	303.68
686.546	296.66
686.954	275.6
687.363	289.64
687.771	296.66
688.179	329.43
688.588	313.05
688.996	338.79
689.404	252.19
689.812	280.28
690.22	291.98
690.628	277.94
691.036	320.07
691.444	261.55
691.852	294.32
692.26	291.98
692.667	270.92
693.075	324.75
693.483	359.86
693.89	301.34
694.298	287.3
694.705	280.28
695.112	331.77
695.52	287.3
695.927	277.94
696.334	378.58
696.741	299
697.148	324.75
697.555	284.96
697.962	303.68
698.369	282.62
698.776	284.96
699.183	308.37
699.59	287.3
699.996	254.53
700.403	320.07
700.81	291.98
701.216	383.26
701.623	289.64
702.029	273.26
702.435	287.3
702.842	254.53
703.248	327.09
703.654	275.6
704.06	268.58
704.466	270.92
704.872	277.94
705.278	270.92
705.684	287.3
706.09	373.9
706.496	308.37
706.901	322.41
707.307	294.32
707.712	270.92
708.118	266.24
708.523	322.41
708.929	287.3
709.334	263.9
709.74	266.24
710.145	254.53
710.55	291.98
710.955	327.09
711.36	231.13
711.765	291.98
712.17	404.33
712.575	348.15
712.98	818.6
713.385	355.18
713.789	320.07
714.194	287.3
714.599	277.94
715.003	343.47
715.408	327.09
715.812	301.34
716.217	266.24
716.621	327.09
717.025	355.18
717.429	270.92
717.833	221.77
718.238	343.47
718.642	299
719.046	331.77
719.449	308.37
719.853	303.68
720.257	303.68
720.661	280.28
721.065	338.79
721.468	294.32
721.872	306.03
722.275	254.53
722.679	401.99
723.082	263.9
723.485	287.3
723.889	322.41
724.292	315.39
724.695	359.86
725.098	348.15
725.501	289.64
725.904	320.07
726.307	256.87
726.71	277.94
727.113	343.47
727.516	336.45
727.918	189
728.321	287.3
728.724	238.15
729.126	280.28
729.529	280.28
729.931	277.94
730.333	280.28
730.736	324.75
731.138	392.62
731.54	322.41
731.942	303.68
732.344	322.41
732.746	331.77
733.148	303.68
733.55	329.43
733.952	371.56
734.354	315.39
734.756	315.39
735.157	287.3
735.559	268.58
735.96	350.5
736.362	275.6
736.763	322.41
737.165	289.64
737.566	303.68
737.967	320.07
738.368	296.66
738.77	263.9
739.171	299
739.572	362.2
739.973	296.66
740.374	275.6
740.774	320.07
741.175	341.13
741.576	317.73
741.977	299
742.377	296.66
742.778	301.34
743.178	338.79
743.579	266.24
743.979	308.37
744.379	345.81
744.78	301.34
745.18	263.9
745.58	366.88
745.98	303.68
746.38	345.81
746.78	380.92
747.18	343.47
747.58	268.58
747.98	273.26
748.38	317.73
748.779	284.96
749.179	294.32
749.578	322.41
749.978	357.52
750.377	256.87
750.777	301.34
751.176	301.34
751.575	320.07
751.975	254.53
752.374	338.79
752.773	338.79
753.172	226.45
753.571	268.58
753.97	338.79
754.369	235.81
754.768	334.11
755.166	291.98
755.565	284.96
755.964	348.15
756.362	324.75
756.761	341.13
757.159	315.39
757.558	273.26
757.956	315.39
758.354	331.77
758.753	268.58
759.151	308.37
759.549	259.21
759.947	308.37
760.345	249.85
760.743	280.28
761.141	355.18
761.539	270.92
761.936	327.09
762.334	294.32
762.732	317.73
763.129	327.09
763.527	364.54
763.924	242.83
764.322	371.56
764.719	266.24
765.117	294.32
765.514	317.73
765.911	256.87
766.308	331.77
766.705	263.9
767.102	291.98
767.499	266.24
767.896	277.94
