Data from Al_FLMS009871__846__15-31-15-294.txt Node

Date: Fri Mar 08 15:31:15 CST 2024
User: pe5414po
Spectrometer: FLMS00987
Trigger mode: 0
Integration Time (sec): 1.000000E-1
Scans to average: 1
Electric dark correction enabled: true
Nonlinearity correction enabled: false
Boxcar width: 0
XAxis mode: Wavelengths
Number of Pixels in Spectrum: 2048
>>>>>Begin Spectral Data<<<<<
188.938	-92.3
189.409	-92.3
189.879	-92.3
190.349	-92.3
190.819	-136.78
191.29	-122.73
191.76	-75.92
192.23	-89.96
192.7	17.7
193.17	-31.45
193.64	-43.15
194.109	-1.02
194.579	-36.13
195.049	-19.75
195.519	-22.09
195.988	10.68
196.458	55.15
196.927	45.79
197.397	83.24
197.866	123.02
198.336	106.64
198.805	130.05
199.274	242.39
199.744	186.22
200.213	218.99
200.682	202.6
201.151	204.94
201.62	218.99
202.089	200.26
202.558	240.05
203.027	249.41
203.495	261.12
203.964	268.14
204.433	258.78
204.902	226.01
205.37	319.63
205.839	345.38
206.307	286.86
206.776	277.5
207.244	242.39
207.712	247.07
208.181	275.16
208.649	235.37
209.117	277.5
209.585	256.43
210.053	244.73
210.521	328.99
210.989	279.84
211.457	240.05
211.925	286.86
212.393	312.61
212.861	223.67
213.328	218.99
213.796	272.82
214.264	296.22
214.731	258.78
215.199	368.78
215.666	226.01
216.133	223.67
216.601	244.73
217.068	226.01
217.535	240.05
218.003	275.16
218.47	247.07
218.937	293.88
219.404	237.71
219.871	221.33
220.338	249.41
220.805	282.18
221.271	263.46
221.738	282.18
222.205	272.82
222.671	244.73
223.138	261.12
223.605	247.07
224.071	289.2
224.538	307.93
225.004	265.8
225.47	261.12
225.937	272.82
226.403	204.94
226.869	307.93
227.335	230.69
227.801	261.12
228.267	251.75
228.733	251.75
229.199	218.99
229.665	249.41
230.131	218.99
230.597	303.25
231.062	233.03
231.528	244.73
231.994	282.18
232.459	333.67
232.925	240.05
233.39	237.71
233.856	279.84
234.321	340.69
234.786	230.69
235.252	277.5
235.717	258.78
236.182	275.16
236.647	207.28
237.112	286.86
237.577	235.37
238.042	286.86
238.507	314.95
238.972	242.39
239.436	235.37
239.901	233.03
240.366	235.37
240.83	249.41
241.295	289.2
241.76	251.75
242.224	223.67
242.688	289.2
243.153	254.09
243.617	261.12
244.081	233.03
244.545	265.8
245.01	256.43
245.474	233.03
245.938	228.35
246.402	228.35
246.866	254.09
247.33	258.78
247.793	214.31
248.257	254.09
248.721	258.78
249.185	312.61
249.648	216.65
250.112	307.93
250.575	209.62
251.039	263.46
251.502	296.22
251.965	284.52
252.429	223.67
252.892	268.14
253.355	237.71
253.818	258.78
254.281	296.22
254.744	279.84
255.207	291.54
255.67	277.5
256.133	202.6
256.596	277.5
257.059	303.25
257.522	275.16
257.984	226.01
258.447	240.05
258.909	211.96
259.372	254.09
259.834	221.33
260.297	270.48
260.759	258.78
261.221	221.33
261.684	289.2
262.146	286.86
262.608	218.99
263.07	286.86
263.532	249.41
263.994	289.2
264.456	230.69
264.918	226.01
265.38	207.28
265.842	286.86
266.303	307.93
266.765	319.63
267.227	237.71
267.688	293.88
268.15	244.73
268.611	312.61
269.072	247.07
269.534	258.78
269.995	277.5
270.456	307.93
270.918	272.82
271.379	343.03
271.84	268.14
272.301	286.86
272.762	265.8
273.223	279.84
273.684	230.69
274.144	207.28
274.605	258.78
275.066	282.18
275.527	331.33
275.987	249.41
276.448	312.61
276.908	268.14
277.369	303.25
277.829	235.37
278.289	286.86
278.75	324.31
279.21	240.05
279.67	291.54
280.13	284.52
280.59	254.09
281.05	300.91
281.51	333.67
281.97	317.29
282.43	272.82
282.89	321.97
283.35	261.12
283.809	296.22
284.269	317.29
284.729	233.03
285.188	272.82
285.648	326.65
286.107	343.03
286.567	270.48
287.026	284.52
287.485	275.16
287.944	261.12
288.404	258.78
288.863	247.07
289.322	328.99
289.781	319.63
290.24	303.25
290.699	291.54
291.158	268.14
291.616	284.52
292.075	303.25
292.534	286.86
292.992	312.61
293.451	277.5
293.91	254.09
294.368	282.18
294.827	314.95
295.285	366.44
295.743	249.41
296.202	251.75
296.66	247.07
297.118	272.82
297.576	265.8
298.034	361.76
298.492	275.16
298.95	258.78
299.408	265.8
299.866	254.09
300.324	296.22
300.781	277.5
301.239	310.27
301.697	324.31
302.154	261.12
302.612	286.86
303.069	221.33
303.527	256.43
303.984	226.01
304.441	326.65
304.899	258.78
305.356	240.05
305.813	272.82
306.27	298.56
306.727	279.84
307.184	319.63
307.641	300.91
308.098	284.52
308.555	279.84
309.012	275.16
309.468	256.43
309.925	233.03
310.382	258.78
310.838	331.33
311.295	268.14
311.751	277.5
312.208	317.29
312.664	300.91
313.12	258.78
313.577	291.54
314.033	310.27
314.489	289.2
314.945	237.71
315.401	338.35
315.857	284.52
316.313	298.56
316.769	251.75
317.225	305.59
317.681	293.88
318.136	291.54
318.592	265.8
319.048	270.48
319.503	286.86
319.959	221.33
320.414	247.07
320.869	305.59
321.325	279.84
321.78	249.41
322.235	300.91
322.691	272.82
323.146	352.4
323.601	312.61
324.056	333.67
324.511	195.58
324.966	279.84
325.421	268.14
325.875	254.09
326.33	291.54
326.785	293.88
327.24	228.35
327.694	338.35
328.149	340.69
328.603	331.33
329.058	235.37
329.512	300.91
329.966	247.07
330.421	300.91
330.875	314.95
331.329	270.48
331.783	275.16
332.237	300.91
332.691	275.16
333.145	286.86
333.599	326.65
334.053	291.54
334.507	336.01
334.96	291.54
335.414	258.78
335.868	284.52
336.321	284.52
336.775	303.25
337.228	317.29
337.682	305.59
338.135	343.03
338.588	296.22
339.042	314.95
339.495	345.38
339.948	324.31
340.401	286.86
340.854	328.99
341.307	254.09
341.76	261.12
342.213	310.27
342.666	300.91
343.119	218.99
343.571	303.25
344.024	279.84
344.477	307.93
344.929	275.16
345.382	272.82
345.834	319.63
346.287	298.56
346.739	331.33
347.191	254.09
347.644	321.97
348.096	415.59
348.548	270.48
349	305.59
349.452	298.56
349.904	333.67
350.356	305.59
350.808	247.07
351.26	347.72
351.711	326.65
352.163	305.59
352.615	333.67
353.066	366.44
353.518	326.65
353.969	275.16
354.421	366.44
354.872	286.86
355.324	312.61
355.775	331.33
356.226	347.72
356.677	279.84
357.128	286.86
357.579	328.99
358.03	324.31
358.481	293.88
358.932	303.25
359.383	385.16
359.834	382.82
360.285	277.5
360.735	282.18
361.186	319.63
361.637	326.65
362.087	331.33
362.538	300.91
362.988	265.8
363.438	307.93
363.889	284.52
364.339	333.67
364.789	354.74
365.239	296.22
365.689	336.01
366.139	282.18
366.589	263.46
367.039	218.99
367.489	314.95
367.939	336.01
368.389	293.88
368.839	289.2
369.288	319.63
369.738	282.18
370.187	303.25
370.637	277.5
371.086	303.25
371.536	279.84
371.985	307.93
372.434	286.86
372.884	254.09
373.333	282.18
373.782	289.2
374.231	275.16
374.68	277.5
375.129	303.25
375.578	242.39
376.027	228.35
376.475	310.27
376.924	347.72
377.373	300.91
377.822	284.52
378.27	314.95
378.719	279.84
379.167	293.88
379.616	270.48
380.064	291.54
380.512	338.35
380.961	307.93
381.409	235.37
381.857	307.93
382.305	321.97
382.753	237.71
383.201	293.88
383.649	345.38
384.097	307.93
384.545	263.46
384.992	282.18
385.44	263.46
385.888	303.25
386.335	251.75
386.783	284.52
387.231	326.65
387.678	307.93
388.125	319.63
388.573	312.61
389.02	314.95
389.467	279.84
389.914	350.06
390.362	279.84
390.809	240.05
391.256	399.21
391.703	350.06
392.15	282.18
392.596	223.67
393.043	282.18
393.49	338.35
393.937	244.73
394.383	279.84
394.83	293.88
395.276	256.43
395.723	326.65
396.169	293.88
396.616	307.93
397.062	291.54
397.508	277.5
397.954	270.48
398.401	310.27
398.847	307.93
399.293	303.25
399.739	296.22
400.185	382.82
400.631	317.29
401.076	321.97
401.522	291.54
401.968	300.91
402.414	289.2
402.859	364.1
403.305	361.76
403.75	321.97
404.196	293.88
404.641	270.48
405.086	307.93
405.532	352.4
405.977	286.86
406.422	328.99
406.867	321.97
407.312	303.25
407.757	249.41
408.202	268.14
408.647	270.48
409.092	254.09
409.537	282.18
409.982	286.86
410.426	347.72
410.871	303.25
411.316	293.88
411.76	340.69
412.205	338.35
412.649	321.97
413.093	300.91
413.538	319.63
413.982	319.63
414.426	317.29
414.87	319.63
415.314	284.52
415.758	317.29
416.202	265.8
416.646	321.97
417.09	378.14
417.534	291.54
417.978	275.16
418.421	272.82
418.865	300.91
419.309	291.54
419.752	317.29
420.196	314.95
420.639	307.93
421.083	321.97
421.526	307.93
421.969	326.65
422.412	361.76
422.856	204.94
423.299	333.67
423.742	223.67
424.185	293.88
424.628	305.59
425.071	317.29
425.513	221.33
425.956	289.2
426.399	343.03
426.842	244.73
427.284	354.74
427.727	286.86
428.169	364.1
428.612	268.14
429.054	233.03
429.497	284.52
429.939	291.54
430.381	256.43
430.823	235.37
431.265	326.65
431.707	240.05
432.149	321.97
432.591	343.03
433.033	298.56
433.475	354.74
433.917	282.18
434.359	277.5
434.8	324.31
435.242	293.88
435.684	373.46
436.125	326.65
436.567	347.72
437.008	314.95
437.449	333.67
437.891	331.33
438.332	345.38
438.773	298.56
439.214	300.91
439.656	254.09
440.097	328.99
440.538	307.93
440.978	312.61
441.419	321.97
441.86	298.56
442.301	289.2
442.742	345.38
443.182	328.99
443.623	319.63
444.063	317.29
444.504	298.56
444.944	307.93
445.385	326.65
445.825	279.84
446.265	307.93
446.706	354.74
447.146	345.38
447.586	317.29
448.026	298.56
448.466	289.2
448.906	279.84
449.346	284.52
449.786	275.16
450.225	321.97
450.665	307.93
451.105	317.29
451.544	286.86
451.984	272.82
452.424	263.46
452.863	331.33
453.302	303.25
453.742	268.14
454.181	256.43
454.62	312.61
455.059	324.31
455.499	258.78
455.938	352.4
456.377	314.95
456.816	258.78
457.254	314.95
457.693	296.22
458.132	249.41
458.571	361.76
459.01	347.72
459.448	300.91
459.887	385.16
460.325	291.54
460.764	226.01
461.202	247.07
461.641	321.97
462.079	321.97
462.517	247.07
462.955	317.29
463.393	300.91
463.832	277.5
464.27	333.67
464.708	314.95
465.145	321.97
465.583	321.97
466.021	277.5
466.459	305.59
466.897	343.03
467.334	333.67
467.772	352.4
468.209	314.95
468.647	291.54
469.084	310.27
469.522	235.37
469.959	277.5
470.396	268.14
470.833	298.56
471.271	261.12
471.708	307.93
472.145	296.22
472.582	300.91
473.019	307.93
473.456	256.43
473.892	307.93
474.329	328.99
474.766	284.52
475.202	312.61
475.639	305.59
476.076	350.06
476.512	237.71
476.949	314.95
477.385	305.59
477.821	352.4
478.258	282.18
478.694	282.18
479.13	291.54
479.566	310.27
480.002	319.63
480.438	293.88
480.874	279.84
481.31	279.84
481.746	242.39
482.181	331.33
482.617	249.41
483.053	284.52
483.488	303.25
483.924	350.06
484.36	296.22
484.795	272.82
485.23	338.35
485.666	314.95
486.101	314.95
486.536	277.5
486.971	321.97
487.407	284.52
487.842	207.28
488.277	282.18
488.712	375.8
489.146	258.78
489.581	324.31
490.016	298.56
490.451	321.97
490.885	321.97
491.32	300.91
491.755	254.09
492.189	317.29
492.624	328.99
493.058	380.48
493.492	312.61
493.927	331.33
494.361	326.65
494.795	261.12
495.229	343.03
495.663	403.89
496.097	366.44
496.531	284.52
496.965	293.88
497.399	328.99
497.833	242.39
498.266	317.29
498.7	272.82
499.134	347.72
499.567	303.25
500.001	378.14
500.434	275.16
500.868	350.06
501.301	279.84
501.734	310.27
502.168	352.4
502.601	319.63
503.034	319.63
503.467	223.67
503.9	307.93
504.333	347.72
504.766	321.97
505.199	303.25
505.632	303.25
506.064	331.33
506.497	326.65
506.93	343.03
507.362	300.91
507.795	338.35
508.227	305.59
508.66	312.61
509.092	310.27
509.524	307.93
509.956	336.01
510.389	352.4
510.821	328.99
511.253	307.93
511.685	293.88
512.117	340.69
512.549	314.95
512.981	298.56
513.412	303.25
513.844	324.31
514.276	310.27
514.707	319.63
515.139	317.29
515.571	314.95
516.002	328.99
516.433	303.25
516.865	317.29
517.296	293.88
517.727	333.67
518.159	261.12
518.59	352.4
519.021	317.29
519.452	254.09
519.883	338.35
520.314	359.42
520.744	305.59
521.175	303.25
521.606	345.38
522.037	289.2
522.467	328.99
522.898	343.03
523.328	333.67
523.759	293.88
524.189	326.65
524.62	261.12
525.05	272.82
525.48	352.4
525.91	272.82
526.341	336.01
526.771	354.74
527.201	256.43
527.631	324.31
528.061	340.69
528.49	317.29
528.92	331.33
529.35	291.54
529.78	272.82
530.209	319.63
530.639	270.48
531.068	272.82
531.498	298.56
531.927	336.01
532.357	326.65
532.786	336.01
533.215	326.65
533.644	289.2
534.074	270.48
534.503	289.2
534.932	289.2
535.361	284.52
535.79	340.69
536.218	279.84
536.647	289.2
537.076	298.56
537.505	319.63
537.933	300.91
538.362	284.52
538.79	326.65
539.219	321.97
539.647	345.38
540.076	237.71
540.504	249.41
540.932	331.33
541.36	286.86
541.788	247.07
542.217	296.22
542.645	305.59
543.073	333.67
543.5	314.95
543.928	343.03
544.356	286.86
544.784	263.46
545.211	300.91
545.639	249.41
546.067	254.09
546.494	291.54
546.922	303.25
547.349	275.16
547.776	310.27
548.204	331.33
548.631	317.29
549.058	282.18
549.485	319.63
549.912	340.69
550.339	291.54
550.766	303.25
551.193	284.52
551.62	321.97
552.047	389.85
552.474	284.52
552.9	314.95
553.327	314.95
553.754	324.31
554.18	282.18
554.607	338.35
555.033	296.22
555.459	258.78
555.886	296.22
556.312	293.88
556.738	242.39
557.164	305.59
557.59	314.95
558.016	319.63
558.442	268.14
558.868	298.56
559.294	338.35
559.72	305.59
560.145	326.65
560.571	286.86
560.997	279.84
561.422	284.52
561.848	230.69
562.273	321.97
562.699	249.41
563.124	321.97
563.549	300.91
563.974	244.73
564.4	305.59
564.825	357.08
565.25	319.63
565.675	312.61
566.1	326.65
566.525	361.76
566.95	321.97
567.374	303.25
567.799	305.59
568.224	336.01
568.648	268.14
569.073	258.78
569.497	324.31
569.922	291.54
570.346	289.2
570.771	347.72
571.195	249.41
571.619	319.63
572.043	293.88
572.467	312.61
572.891	307.93
573.315	310.27
573.739	284.52
574.163	305.59
574.587	324.31
575.011	293.88
575.435	350.06
575.858	413.25
576.282	296.22
576.705	319.63
577.129	324.31
577.552	328.99
577.976	331.33
578.399	286.86
578.822	317.29
579.245	272.82
579.669	289.2
580.092	319.63
580.515	328.99
580.938	303.25
581.361	307.93
581.784	265.8
582.206	265.8
582.629	279.84
583.052	286.86
583.474	279.84
583.897	291.54
584.32	258.78
584.742	340.69
585.165	319.63
585.587	321.97
586.009	279.84
586.431	357.08
586.854	366.44
587.276	289.2
587.698	314.95
588.12	321.97
588.542	336.01
588.964	317.29
589.386	181.54
589.807	305.59
590.229	272.82
590.651	218.99
591.073	279.84
591.494	314.95
591.916	324.31
592.337	312.61
592.759	272.82
593.18	284.52
593.601	240.05
594.022	300.91
594.444	324.31
594.865	350.06
595.286	282.18
595.707	333.67
596.128	307.93
596.549	314.95
596.97	282.18
597.39	289.2
597.811	286.86
598.232	279.84
598.652	286.86
599.073	326.65
599.494	256.43
599.914	296.22
600.334	307.93
600.755	366.44
601.175	321.97
601.595	347.72
602.015	328.99
602.436	312.61
602.856	424.95
603.276	324.31
603.696	303.25
604.115	247.07
604.535	258.78
604.955	268.14
605.375	300.91
605.794	347.72
606.214	338.35
606.634	371.12
607.053	399.21
607.473	284.52
607.892	242.39
608.311	326.65
608.731	310.27
609.15	240.05
609.569	324.31
609.988	307.93
610.407	237.71
610.826	331.33
611.245	333.67
611.664	343.03
612.083	298.56
612.501	338.35
612.92	268.14
613.339	324.31
613.757	286.86
614.176	350.06
614.594	270.48
615.013	319.63
615.431	338.35
615.85	244.73
616.268	254.09
616.686	345.38
617.104	317.29
617.522	307.93
617.94	326.65
618.358	242.39
618.776	307.93
619.194	256.43
619.612	331.33
620.03	321.97
620.447	298.56
620.865	359.42
621.282	357.08
621.7	300.91
622.117	324.31
622.535	289.2
622.952	272.82
623.369	350.06
623.787	279.84
624.204	310.27
624.621	298.56
625.038	340.69
625.455	277.5
625.872	284.52
626.289	228.35
626.706	284.52
627.123	258.78
627.539	258.78
627.956	305.59
628.373	254.09
628.789	300.91
629.206	328.99
629.622	319.63
630.038	305.59
630.455	307.93
630.871	312.61
631.287	331.33
631.703	321.97
632.12	314.95
632.536	378.14
632.952	343.03
633.368	352.4
633.783	338.35
634.199	300.91
634.615	319.63
635.031	291.54
635.446	305.59
635.862	256.43
636.277	303.25
636.693	321.97
637.108	331.33
637.524	300.91
637.939	347.72
638.354	291.54
638.77	296.22
639.185	310.27
639.6	303.25
640.015	317.29
640.43	265.8
640.845	263.46
641.259	331.33
641.674	314.95
642.089	340.69
642.504	286.86
642.918	336.01
643.333	338.35
643.747	244.73
644.162	268.14
644.576	263.46
644.991	298.56
645.405	307.93
645.819	218.99
646.233	286.86
646.647	307.93
647.061	354.74
647.475	223.67
647.889	263.46
648.303	324.31
648.717	317.29
649.131	364.1
649.545	307.93
649.958	307.93
650.372	272.82
650.785	331.33
651.199	336.01
651.612	265.8
652.026	307.93
652.439	326.65
652.852	338.35
653.266	307.93
653.679	314.95
654.092	303.25
654.505	317.29
654.918	261.12
655.331	251.75
655.744	324.31
656.156	291.54
656.569	289.2
656.982	275.16
657.394	317.29
657.807	352.4
658.22	321.97
658.632	270.48
659.044	286.86
659.457	331.33
659.869	300.91
660.281	314.95
660.693	242.39
661.106	319.63
661.518	286.86
661.93	298.56
662.342	296.22
662.754	298.56
663.165	326.65
663.577	277.5
663.989	373.46
664.401	197.92
664.812	373.46
665.224	331.33
665.635	305.59
666.047	312.61
666.458	256.43
666.869	336.01
667.281	333.67
667.692	343.03
668.103	324.31
668.514	343.03
668.925	340.69
669.336	277.5
669.747	319.63
670.158	314.95
670.569	324.31
670.979	240.05
671.39	291.54
671.801	270.48
672.211	268.14
672.622	333.67
673.032	305.59
673.443	228.35
673.853	251.75
674.263	263.46
674.674	319.63
675.084	319.63
675.494	296.22
675.904	251.75
676.314	256.43
676.724	312.61
677.134	307.93
677.544	333.67
677.953	293.88
678.363	343.03
678.773	394.53
679.182	293.88
679.592	314.95
680.001	347.72
680.411	328.99
680.82	307.93
681.23	296.22
681.639	272.82
682.048	298.56
682.457	256.43
682.866	364.1
683.275	338.35
683.684	279.84
684.093	293.88
684.502	291.54
684.911	312.61
685.32	270.48
685.728	312.61
686.137	343.03
686.546	293.88
686.954	305.59
687.363	336.01
687.771	310.27
688.179	324.31
688.588	371.12
688.996	249.41
689.404	242.39
689.812	326.65
690.22	291.54
690.628	277.5
691.036	268.14
691.444	321.97
691.852	265.8
692.26	293.88
692.667	328.99
693.075	319.63
693.483	277.5
693.89	263.46
694.298	291.54
694.705	233.03
695.112	331.33
695.52	347.72
695.927	350.06
696.334	364.1
696.741	317.29
697.148	371.12
697.555	326.65
697.962	319.63
698.369	279.84
698.776	233.03
699.183	319.63
699.59	279.84
699.996	317.29
700.403	317.29
700.81	256.43
701.216	275.16
701.623	261.12
702.029	307.93
702.435	312.61
702.842	314.95
703.248	240.05
703.654	317.29
704.06	270.48
704.466	305.59
704.872	319.63
705.278	263.46
705.684	312.61
706.09	331.33
706.496	324.31
706.901	331.33
707.307	261.12
707.712	305.59
708.118	333.67
708.523	314.95
708.929	268.14
709.334	284.52
709.74	282.18
710.145	282.18
710.55	268.14
710.955	310.27
711.36	352.4
711.765	307.93
712.17	345.38
712.575	263.46
712.98	776.03
713.385	314.95
713.789	303.25
714.194	321.97
714.599	312.61
715.003	298.56
715.408	291.54
715.812	258.78
716.217	272.82
716.621	333.67
717.025	284.52
717.429	298.56
717.833	324.31
718.238	359.42
718.642	291.54
719.046	254.09
719.449	312.61
719.853	296.22
720.257	244.73
720.661	326.65
721.065	256.43
721.468	319.63
721.872	305.59
722.275	307.93
722.679	326.65
723.082	328.99
723.485	321.97
723.889	272.82
724.292	289.2
724.695	293.88
725.098	340.69
725.501	282.18
725.904	303.25
726.307	303.25
726.71	314.95
727.113	277.5
727.516	350.06
727.918	319.63
728.321	314.95
728.724	263.46
729.126	268.14
729.529	328.99
729.931	256.43
730.333	277.5
730.736	336.01
731.138	310.27
731.54	312.61
731.942	300.91
732.344	310.27
732.746	321.97
733.148	293.88
733.55	286.86
733.952	242.39
734.354	350.06
734.756	268.14
735.157	268.14
735.559	310.27
735.96	293.88
736.362	296.22
736.763	291.54
737.165	305.59
737.566	317.29
737.967	263.46
738.368	347.72
738.77	336.01
739.171	380.48
739.572	247.07
739.973	307.93
740.374	284.52
740.774	200.26
741.175	268.14
741.576	277.5
741.977	279.84
742.377	291.54
742.778	282.18
743.178	296.22
743.579	268.14
743.979	279.84
744.379	307.93
744.78	321.97
745.18	268.14
745.58	268.14
745.98	284.52
746.38	326.65
746.78	333.67
747.18	272.82
747.58	286.86
747.98	319.63
748.38	289.2
748.779	343.03
749.179	303.25
749.578	324.31
749.978	270.48
750.377	378.14
750.777	263.46
751.176	310.27
751.575	254.09
751.975	242.39
752.374	263.46
752.773	321.97
753.172	279.84
753.571	237.71
753.97	307.93
754.369	326.65
754.768	268.14
755.166	345.38
755.565	305.59
755.964	289.2
756.362	307.93
756.761	347.72
757.159	293.88
757.558	286.86
757.956	317.29
758.354	279.84
758.753	354.74
759.151	371.12
759.549	263.46
759.947	350.06
760.345	223.67
760.743	321.97
761.141	324.31
761.539	354.74
761.936	268.14
762.334	289.2
762.732	338.35
763.129	343.03
763.527	331.33
763.924	361.76
