Data from Al_FLMS009871__855__15-31-16-194.txt Node

Date: Fri Mar 08 15:31:16 CST 2024
User: pe5414po
Spectrometer: FLMS00987
Trigger mode: 0
Integration Time (sec): 1.000000E-1
Scans to average: 1
Electric dark correction enabled: true
Nonlinearity correction enabled: false
Boxcar width: 0
XAxis mode: Wavelengths
Number of Pixels in Spectrum: 2048
>>>>>Begin Spectral Data<<<<<
188.938	-85.43
189.409	-85.43
189.879	-85.43
190.349	-59.68
190.819	-167.35
191.29	-85.43
191.76	-45.64
192.23	-59.68
192.7	-66.71
193.17	-87.77
193.64	-85.43
194.109	-17.55
194.579	-19.89
195.049	-33.94
195.519	45.64
195.988	55
196.458	1.17
196.927	69.05
197.397	80.75
197.866	115.86
198.336	134.58
198.805	136.92
199.274	127.56
199.744	157.99
200.213	136.92
200.682	165.01
201.151	242.25
201.62	237.56
202.089	265.65
202.558	275.01
203.027	298.42
203.495	209.48
203.964	239.9
204.433	207.14
204.902	333.53
205.37	331.19
205.839	244.59
206.307	260.97
206.776	333.53
207.244	303.1
207.712	230.54
208.181	286.72
208.649	363.95
209.117	345.23
209.585	272.67
210.053	321.82
210.521	260.97
210.989	251.61
211.457	298.42
211.925	282.03
212.393	263.31
212.861	284.38
213.328	275.01
213.796	289.06
214.264	244.59
214.731	197.78
215.199	310.12
215.666	225.86
216.133	279.69
216.601	183.73
217.068	291.4
217.535	314.8
218.003	258.63
218.47	307.78
218.937	256.29
219.404	249.27
219.871	218.84
220.338	246.93
220.805	260.97
221.271	300.76
221.738	265.65
222.205	253.95
222.671	244.59
223.138	200.12
223.605	249.27
224.071	282.03
224.538	230.54
225.004	277.35
225.47	235.22
225.937	260.97
226.403	282.03
226.869	228.2
227.335	232.88
227.801	249.27
228.267	232.88
228.733	282.03
229.199	310.12
229.665	214.16
230.131	275.01
230.597	298.42
231.062	277.35
231.528	239.9
231.994	223.52
232.459	235.22
232.925	232.88
233.39	289.06
233.856	265.65
234.321	307.78
234.786	310.12
235.252	279.69
235.717	317.14
236.182	277.35
236.647	284.38
237.112	258.63
237.577	326.5
238.042	284.38
238.507	321.82
238.972	310.12
239.436	237.56
239.901	270.33
240.366	239.9
240.83	253.95
241.295	258.63
241.76	319.48
242.224	270.33
242.688	284.38
243.153	258.63
243.617	232.88
244.081	239.9
244.545	326.5
245.01	300.76
245.474	256.29
245.938	260.97
246.402	293.74
246.866	265.65
247.33	239.9
247.793	314.8
248.257	279.69
248.721	272.67
249.185	253.95
249.648	260.97
250.112	275.01
250.575	246.93
251.039	267.99
251.502	239.9
251.965	237.56
252.429	291.4
252.892	291.4
253.355	303.1
253.818	317.14
254.281	328.85
254.744	230.54
255.207	244.59
255.67	338.21
256.133	251.61
256.596	258.63
257.059	260.97
257.522	314.8
257.984	272.67
258.447	256.29
258.909	340.55
259.372	284.38
259.834	279.69
260.297	286.72
260.759	277.35
261.221	258.63
261.684	319.48
262.146	214.16
262.608	237.56
263.07	246.93
263.532	251.61
263.994	310.12
264.456	270.33
264.918	169.69
265.38	291.4
265.842	279.69
266.303	296.08
266.765	284.38
267.227	272.67
267.688	305.44
268.15	303.1
268.611	312.46
269.072	338.21
269.534	286.72
269.995	265.65
270.456	328.85
270.918	225.86
271.379	249.27
271.84	321.82
272.301	239.9
272.762	328.85
273.223	324.16
273.684	289.06
274.144	267.99
274.605	275.01
275.066	272.67
275.527	270.33
275.987	223.52
276.448	303.1
276.908	258.63
277.369	310.12
277.829	279.69
278.289	317.14
278.75	296.08
279.21	303.1
279.67	263.31
280.13	307.78
280.59	223.52
281.05	312.46
281.51	282.03
281.97	305.44
282.43	312.46
282.89	284.38
283.35	282.03
283.809	305.44
284.269	321.82
284.729	291.4
285.188	300.76
285.648	267.99
286.107	228.2
286.567	258.63
287.026	277.35
287.485	328.85
287.944	265.65
288.404	258.63
288.863	284.38
289.322	293.74
289.781	244.59
290.24	333.53
290.699	275.01
291.158	267.99
291.616	319.48
292.075	267.99
292.534	317.14
292.992	296.08
293.451	293.74
293.91	300.76
294.368	232.88
294.827	260.97
295.285	293.74
295.743	300.76
296.202	267.99
296.66	321.82
297.118	326.5
297.576	249.27
298.034	253.95
298.492	232.88
298.95	296.08
299.408	260.97
299.866	312.46
300.324	319.48
300.781	307.78
301.239	293.74
301.697	321.82
302.154	235.22
302.612	333.53
303.069	265.65
303.527	244.59
303.984	253.95
304.441	286.72
304.899	293.74
305.356	277.35
305.813	300.76
306.27	352.25
306.727	242.25
307.184	319.48
307.641	363.95
308.098	352.25
308.555	335.87
309.012	260.97
309.468	263.31
309.925	349.91
310.382	331.19
310.838	307.78
311.295	363.95
311.751	314.8
312.208	319.48
312.664	310.12
313.12	289.06
313.577	260.97
314.033	312.46
314.489	375.66
314.945	342.89
315.401	340.55
315.857	246.93
316.313	319.48
316.769	305.44
317.225	392.04
317.681	296.08
318.136	277.35
318.592	300.76
319.048	242.25
319.503	265.65
319.959	265.65
320.414	312.46
320.869	328.85
321.325	275.01
321.78	328.85
322.235	291.4
322.691	291.4
323.146	380.34
323.601	347.57
324.056	305.44
324.511	366.29
324.966	324.16
325.421	279.69
325.875	380.34
326.33	293.74
326.785	253.95
327.24	293.74
327.694	312.46
328.149	307.78
328.603	319.48
329.058	258.63
329.512	319.48
329.966	277.35
330.421	303.1
330.875	258.63
331.329	289.06
331.783	296.08
332.237	307.78
332.691	370.97
333.145	359.27
333.599	270.33
334.053	256.29
334.507	265.65
334.96	284.38
335.414	305.44
335.868	321.82
336.321	235.22
336.775	300.76
337.228	225.86
337.682	326.5
338.135	291.4
338.588	296.08
339.042	356.93
339.495	291.4
339.948	331.19
340.401	366.29
340.854	349.91
341.307	342.89
341.76	282.03
342.213	324.16
342.666	230.54
343.119	235.22
343.571	326.5
344.024	310.12
344.477	279.69
344.929	406.08
345.382	338.21
345.834	335.87
346.287	324.16
346.739	293.74
347.191	305.44
347.644	272.67
348.096	317.14
348.548	368.63
349	291.4
349.452	289.06
349.904	319.48
350.356	335.87
350.808	324.16
351.26	291.4
351.711	307.78
352.163	244.59
352.615	317.14
353.066	363.95
353.518	296.08
353.969	349.91
354.421	282.03
354.872	275.01
355.324	335.87
355.775	326.5
356.226	300.76
356.677	277.35
357.128	305.44
357.579	265.65
358.03	368.63
358.481	291.4
358.932	326.5
359.383	298.42
359.834	389.7
360.285	282.03
360.735	305.44
361.186	363.95
361.637	289.06
362.087	312.46
362.538	310.12
362.988	354.59
363.438	312.46
363.889	331.19
364.339	328.85
364.789	338.21
365.239	349.91
365.689	319.48
366.139	399.06
366.589	333.53
367.039	286.72
367.489	361.61
367.939	328.85
368.389	256.29
368.839	284.38
369.288	312.46
369.738	303.1
370.187	347.57
370.637	267.99
371.086	305.44
371.536	347.57
371.985	319.48
372.434	338.21
372.884	345.23
373.333	335.87
373.782	305.44
374.231	272.67
374.68	342.89
375.129	279.69
375.578	289.06
376.027	303.1
376.475	272.67
376.924	359.27
377.373	373.32
377.822	321.82
378.27	366.29
378.719	310.12
379.167	296.08
379.616	326.5
380.064	333.53
380.512	263.31
380.961	300.76
381.409	298.42
381.857	387.36
382.305	303.1
382.753	244.59
383.201	328.85
383.649	303.1
384.097	366.29
384.545	258.63
384.992	333.53
385.44	263.31
385.888	310.12
386.335	310.12
386.783	312.46
387.231	321.82
387.678	296.08
388.125	314.8
388.573	319.48
389.02	235.22
389.467	356.93
389.914	340.55
390.362	303.1
390.809	300.76
391.256	305.44
391.703	333.53
392.15	380.34
392.596	356.93
393.043	333.53
393.49	401.4
393.937	354.59
394.383	349.91
394.83	338.21
395.276	279.69
395.723	303.1
396.169	275.01
396.616	296.08
397.062	342.89
397.508	293.74
397.954	225.86
398.401	286.72
398.847	312.46
399.293	275.01
399.739	267.99
400.185	380.34
400.631	335.87
401.076	300.76
401.522	300.76
401.968	275.01
402.414	349.91
402.859	317.14
403.305	333.53
403.75	291.4
404.196	319.48
404.641	375.66
405.086	345.23
405.532	345.23
405.977	296.08
406.422	305.44
406.867	338.21
407.312	307.78
407.757	340.55
408.202	298.42
408.647	270.33
409.092	296.08
409.537	363.95
409.982	338.21
410.426	331.19
410.871	396.72
411.316	359.27
411.76	349.91
412.205	314.8
412.649	310.12
413.093	291.4
413.538	342.89
413.982	300.76
414.426	321.82
414.87	338.21
415.314	338.21
415.758	359.27
416.202	361.61
416.646	300.76
417.09	370.97
417.534	328.85
417.978	310.12
418.421	279.69
418.865	291.4
419.309	307.78
419.752	338.21
420.196	300.76
420.639	321.82
421.083	342.89
421.526	317.14
421.969	338.21
422.412	305.44
422.856	324.16
423.299	401.4
423.742	317.14
424.185	296.08
424.628	368.63
425.071	345.23
425.513	289.06
425.956	359.27
426.399	270.33
426.842	282.03
427.284	275.01
427.727	335.87
428.169	305.44
428.612	223.52
429.054	328.85
429.497	310.12
429.939	289.06
430.381	321.82
430.823	293.74
431.265	291.4
431.707	296.08
432.149	298.42
432.591	314.8
433.033	300.76
433.475	305.44
433.917	270.33
434.359	340.55
434.8	354.59
435.242	230.54
435.684	289.06
436.125	363.95
436.567	319.48
437.008	260.97
437.449	317.14
437.891	284.38
438.332	303.1
438.773	282.03
439.214	321.82
439.656	298.42
440.097	333.53
440.538	352.25
440.978	282.03
441.419	291.4
441.86	321.82
442.301	321.82
442.742	275.01
443.182	249.27
443.623	361.61
444.063	305.44
444.504	305.44
444.944	314.8
445.385	378
445.825	326.5
446.265	378
446.706	279.69
447.146	326.5
447.586	314.8
448.026	359.27
448.466	319.48
448.906	335.87
449.346	293.74
449.786	349.91
450.225	319.48
450.665	291.4
451.105	340.55
451.544	375.66
451.984	342.89
452.424	333.53
452.863	291.4
453.302	356.93
453.742	300.76
454.181	279.69
454.62	307.78
455.059	319.48
455.499	286.72
455.938	356.93
456.377	368.63
456.816	307.78
457.254	253.95
457.693	246.93
458.132	282.03
458.571	286.72
459.01	326.5
459.448	324.16
459.887	310.12
460.325	305.44
460.764	326.5
461.202	326.5
461.641	256.29
462.079	394.38
462.517	307.78
462.955	293.74
463.393	265.65
463.832	300.76
464.27	235.22
464.708	307.78
465.145	277.35
465.583	328.85
466.021	314.8
466.459	286.72
466.897	260.97
467.334	289.06
467.772	282.03
468.209	312.46
468.647	331.19
469.084	321.82
469.522	368.63
469.959	305.44
470.396	314.8
470.833	310.12
471.271	300.76
471.708	319.48
472.145	270.33
472.582	382.68
473.019	305.44
473.456	300.76
473.892	286.72
474.329	331.19
474.766	359.27
475.202	373.32
475.639	305.44
476.076	298.42
476.512	356.93
476.949	352.25
477.385	331.19
477.821	312.46
478.258	359.27
478.694	333.53
479.13	317.14
479.566	338.21
480.002	338.21
480.438	296.08
480.874	321.82
481.31	284.38
481.746	356.93
482.181	328.85
482.617	312.46
483.053	338.21
483.488	333.53
483.924	272.67
484.36	314.8
484.795	286.72
485.23	207.14
485.666	312.46
486.101	403.74
486.536	326.5
486.971	340.55
487.407	305.44
487.842	328.85
488.277	272.67
488.712	275.01
489.146	230.54
489.581	284.38
490.016	314.8
490.451	286.72
490.885	342.89
491.32	378
491.755	342.89
492.189	298.42
492.624	223.52
493.058	340.55
493.492	370.97
493.927	303.1
494.361	270.33
494.795	326.5
495.229	319.48
495.663	340.55
496.097	347.57
496.531	289.06
496.965	303.1
497.399	338.21
497.833	296.08
498.266	282.03
498.7	284.38
499.134	296.08
499.567	319.48
500.001	279.69
500.434	338.21
500.868	328.85
501.301	279.69
501.734	267.99
502.168	321.82
502.601	356.93
503.034	352.25
503.467	331.19
503.9	275.01
504.333	342.89
504.766	296.08
505.199	246.93
505.632	300.76
506.064	300.76
506.497	260.97
506.93	392.04
507.362	314.8
507.795	305.44
508.227	333.53
508.66	317.14
509.092	345.23
509.524	275.01
509.956	349.91
510.389	317.14
510.821	260.97
511.253	293.74
511.685	333.53
512.117	356.93
512.549	317.14
512.981	307.78
513.412	399.06
513.844	270.33
514.276	263.31
514.707	373.32
515.139	321.82
515.571	265.65
516.002	340.55
516.433	328.85
516.865	331.19
517.296	380.34
517.727	333.53
518.159	286.72
518.59	249.27
519.021	319.48
519.452	340.55
519.883	335.87
520.314	275.01
520.744	298.42
521.175	286.72
521.606	338.21
522.037	293.74
522.467	333.53
522.898	359.27
523.328	251.61
523.759	366.29
524.189	277.35
524.62	284.38
525.05	277.35
525.48	303.1
525.91	239.9
526.341	317.14
526.771	328.85
527.201	312.46
527.631	310.12
528.061	326.5
528.49	378
528.92	328.85
529.35	277.35
529.78	286.72
530.209	284.38
530.639	305.44
531.068	305.44
531.498	331.19
531.927	307.78
532.357	314.8
532.786	321.82
533.215	265.65
533.644	319.48
534.074	368.63
534.503	340.55
534.932	310.12
535.361	291.4
535.79	277.35
536.218	296.08
536.647	291.4
537.076	328.85
537.505	263.31
537.933	326.5
538.362	335.87
538.79	333.53
539.219	366.29
539.647	342.89
540.076	335.87
540.504	289.06
540.932	317.14
541.36	352.25
541.788	335.87
542.217	289.06
542.645	246.93
543.073	340.55
543.5	392.04
543.928	242.25
544.356	326.5
544.784	370.97
545.211	300.76
545.639	312.46
546.067	307.78
546.494	293.74
546.922	312.46
547.349	291.4
547.776	310.12
548.204	303.1
548.631	338.21
549.058	305.44
549.485	277.35
549.912	310.12
550.339	286.72
550.766	249.27
551.193	279.69
551.62	326.5
552.047	328.85
552.474	265.65
552.9	326.5
553.327	331.19
553.754	265.65
554.18	333.53
554.607	282.03
555.033	321.82
555.459	324.16
555.886	258.63
556.312	354.59
556.738	291.4
557.164	305.44
557.59	289.06
558.016	354.59
558.442	284.38
558.868	282.03
559.294	298.42
559.72	335.87
560.145	260.97
560.571	310.12
560.997	305.44
561.422	303.1
561.848	340.55
562.273	317.14
562.699	305.44
563.124	289.06
563.549	286.72
563.974	314.8
564.4	345.23
564.825	279.69
565.25	303.1
565.675	321.82
566.1	340.55
566.525	326.5
566.95	279.69
567.374	347.57
567.799	300.76
568.224	300.76
568.648	317.14
569.073	275.01
569.497	300.76
569.922	253.95
570.346	324.16
570.771	424.81
571.195	296.08
571.619	267.99
572.043	356.93
572.467	303.1
572.891	296.08
573.315	298.42
573.739	270.33
574.163	211.82
574.587	319.48
575.011	349.91
575.435	331.19
575.858	293.74
576.282	378
576.705	314.8
577.129	272.67
577.552	356.93
577.976	310.12
578.399	380.34
578.822	289.06
579.245	347.57
579.669	300.76
580.092	277.35
580.515	340.55
580.938	335.87
581.361	286.72
581.784	319.48
582.206	345.23
582.629	244.59
583.052	359.27
583.474	260.97
583.897	253.95
584.32	284.38
584.742	328.85
585.165	296.08
585.587	279.69
586.009	319.48
586.431	361.61
586.854	370.97
587.276	340.55
587.698	359.27
588.12	328.85
588.542	335.87
588.964	331.19
589.386	267.99
589.807	267.99
590.229	263.31
590.651	363.95
591.073	267.99
591.494	317.14
591.916	331.19
592.337	380.34
592.759	335.87
593.18	354.59
593.601	317.14
594.022	300.76
594.444	359.27
594.865	321.82
595.286	298.42
595.707	307.78
596.128	314.8
596.549	352.25
596.97	375.66
597.39	275.01
597.811	284.38
598.232	289.06
598.652	265.65
599.073	314.8
599.494	258.63
599.914	296.08
600.334	223.52
600.755	291.4
601.175	349.91
601.595	326.5
602.015	345.23
602.436	312.46
602.856	455.23
603.276	347.57
603.696	359.27
604.115	321.82
604.535	300.76
604.955	312.46
605.375	310.12
605.794	277.35
606.214	310.12
606.634	347.57
607.053	319.48
607.473	347.57
607.892	279.69
608.311	310.12
608.731	324.16
609.15	282.03
609.569	324.16
609.988	312.46
610.407	253.95
610.826	317.14
611.245	338.21
611.664	298.42
612.083	361.61
612.501	300.76
612.92	289.06
613.339	328.85
613.757	307.78
614.176	354.59
614.594	286.72
615.013	387.36
615.431	305.44
615.85	270.33
616.268	321.82
616.686	335.87
617.104	282.03
617.522	317.14
617.94	349.91
618.358	291.4
618.776	340.55
619.194	282.03
619.612	345.23
620.03	267.99
620.447	221.18
620.865	319.48
621.282	267.99
621.7	326.5
622.117	270.33
622.535	303.1
622.952	263.31
623.369	270.33
623.787	303.1
624.204	312.46
624.621	296.08
625.038	277.35
625.455	298.42
625.872	342.89
626.289	347.57
626.706	312.46
627.123	237.56
627.539	260.97
627.956	275.01
628.373	286.72
628.789	282.03
629.206	338.21
629.622	293.74
630.038	310.12
630.455	298.42
630.871	333.53
631.287	291.4
631.703	328.85
632.12	347.57
632.536	382.68
632.952	279.69
633.368	342.89
633.783	277.35
634.199	300.76
634.615	321.82
635.031	307.78
635.446	275.01
635.862	312.46
636.277	347.57
636.693	291.4
637.108	317.14
637.524	328.85
637.939	300.76
638.354	314.8
638.77	328.85
639.185	345.23
639.6	282.03
640.015	319.48
640.43	307.78
640.845	328.85
641.259	265.65
641.674	291.4
642.089	338.21
642.504	331.19
642.918	277.35
643.333	319.48
643.747	310.12
644.162	333.53
644.576	277.35
644.991	335.87
645.405	253.95
645.819	324.16
646.233	340.55
646.647	260.97
647.061	279.69
647.475	342.89
647.889	326.5
648.303	291.4
648.717	331.19
649.131	317.14
649.545	279.69
649.958	326.5
650.372	342.89
650.785	263.31
651.199	326.5
651.612	345.23
652.026	349.91
652.439	326.5
652.852	324.16
653.266	307.78
653.679	312.46
654.092	272.67
654.505	303.1
654.918	317.14
655.331	321.82
655.744	300.76
656.156	352.25
656.569	356.93
656.982	317.14
657.394	310.12
657.807	272.67
658.22	382.68
658.632	291.4
659.044	349.91
659.457	352.25
659.869	356.93
660.281	289.06
660.693	277.35
661.106	249.27
661.518	289.06
661.93	296.08
662.342	293.74
662.754	312.46
663.165	349.91
663.577	321.82
663.989	303.1
664.401	296.08
664.812	333.53
665.224	352.25
665.635	296.08
666.047	328.85
666.458	331.19
666.869	242.25
667.281	326.5
667.692	373.32
668.103	277.35
668.514	267.99
668.925	260.97
669.336	293.74
669.747	242.25
670.158	237.56
670.569	279.69
670.979	289.06
671.39	319.48
671.801	293.74
672.211	272.67
672.622	270.33
673.032	363.95
673.443	291.4
673.853	300.76
674.263	338.21
674.674	317.14
675.084	321.82
675.494	300.76
675.904	352.25
676.314	375.66
676.724	349.91
677.134	277.35
677.544	324.16
677.953	363.95
678.363	272.67
678.773	361.61
679.182	303.1
679.592	265.65
680.001	298.42
680.411	258.63
680.82	293.74
681.23	356.93
681.639	310.12
682.048	284.38
682.457	317.14
682.866	272.67
683.275	310.12
683.684	328.85
684.093	342.89
684.502	307.78
684.911	267.99
685.32	296.08
685.728	296.08
686.137	289.06
686.546	340.55
686.954	312.46
687.363	312.46
687.771	345.23
688.179	349.91
688.588	352.25
688.996	333.53
689.404	282.03
689.812	317.14
690.22	356.93
690.628	284.38
691.036	307.78
691.444	263.31
691.852	289.06
692.26	324.16
692.667	319.48
693.075	303.1
693.483	310.12
693.89	284.38
694.298	298.42
694.705	296.08
695.112	324.16
695.52	319.48
695.927	291.4
696.334	284.38
696.741	209.48
697.148	317.14
697.555	338.21
697.962	286.72
698.369	324.16
698.776	277.35
699.183	303.1
699.59	296.08
699.996	317.14
700.403	279.69
700.81	293.74
701.216	296.08
701.623	335.87
702.029	246.93
702.435	321.82
702.842	296.08
703.248	293.74
703.654	275.01
704.06	300.76
704.466	328.85
704.872	246.93
705.278	272.67
705.684	296.08
706.09	244.59
706.496	314.8
706.901	235.22
707.307	361.61
707.712	284.38
708.118	356.93
708.523	317.14
708.929	342.89
709.334	293.74
709.74	282.03
710.145	296.08
710.55	335.87
710.955	345.23
711.36	328.85
711.765	305.44
712.17	289.06
712.575	326.5
712.98	808.66
713.385	333.53
713.789	345.23
714.194	335.87
714.599	218.84
715.003	305.44
715.408	359.27
715.812	303.1
716.217	321.82
716.621	300.76
717.025	260.97
717.429	286.72
717.833	338.21
718.238	286.72
718.642	282.03
719.046	270.33
719.449	256.29
719.853	319.48
720.257	275.01
720.661	277.35
721.065	298.42
721.468	328.85
721.872	319.48
722.275	333.53
722.679	289.06
723.082	349.91
723.485	272.67
723.889	286.72
724.292	321.82
724.695	335.87
725.098	272.67
725.501	267.99
725.904	340.55
726.307	291.4
726.71	307.78
727.113	258.63
727.516	340.55
727.918	272.67
728.321	338.21
728.724	307.78
729.126	284.38
729.529	272.67
729.931	403.74
730.333	342.89
730.736	246.93
731.138	277.35
731.54	366.29
731.942	324.16
732.344	218.84
732.746	342.89
733.148	345.23
733.55	272.67
733.952	293.74
734.354	347.57
734.756	340.55
735.157	317.14
735.559	361.61
735.96	319.48
736.362	389.7
736.763	310.12
737.165	321.82
737.566	312.46
737.967	305.44
738.368	317.14
738.77	272.67
739.171	328.85
739.572	324.16
739.973	293.74
740.374	340.55
740.774	282.03
741.175	347.57
741.576	331.19
741.977	296.08
742.377	352.25
742.778	263.31
743.178	291.4
743.579	305.44
743.979	284.38
744.379	378
744.78	333.53
745.18	333.53
745.58	303.1
745.98	342.89
746.38	282.03
746.78	312.46
747.18	284.38
747.58	211.82
747.98	303.1
748.38	380.34
748.779	286.72
749.179	342.89
749.578	340.55
749.978	324.16
750.377	298.42
750.777	312.46
751.176	237.56
751.575	352.25
751.975	293.74
752.374	326.5
752.773	305.44
753.172	333.53
753.571	317.14
753.97	253.95
754.369	335.87
754.768	354.59
755.166	256.29
755.565	289.06
755.964	338.21
756.362	303.1
756.761	242.25
757.159	328.85
757.558	326.5
757.956	282.03
758.354	310.12
758.753	279.69
759.151	277.35
759.549	307.78
759.947	272.67
760.345	324.16
760.743	289.06
761.141	284.38
761.539	298.42
761.936	310.12
762.334	392.04
762.732	303.1
763.129	286.72
763.527	317.14
763.924	296.08
764.322	214.16
764.719	319.48
765.117	279.69
765.514	223.52
