Data from Al_FLMS009871__368__12-32-02-327.txt Node

Date: Fri Mar 08 12:32:02 CST 2024
User: pe5414po
Spectrometer: FLMS00987
Trigger mode: 0
Integration Time (sec): 1.000000E-1
Scans to average: 1
Electric dark correction enabled: true
Nonlinearity correction enabled: false
Boxcar width: 0
XAxis mode: Wavelengths
Number of Pixels in Spectrum: 2048
>>>>>Begin Spectral Data<<<<<
188.938	-44.62
189.409	-44.62
189.879	-44.62
190.349	-89.09
190.819	-56.32
191.29	-105.47
191.76	-100.79
192.23	18.58
192.7	-35.25
193.17	-70.36
193.64	-28.23
194.109	-68.02
194.579	-65.68
195.049	-16.53
195.519	-49.3
195.988	84.11
196.458	41.98
196.927	60.71
197.397	86.45
197.866	112.2
198.336	135.6
198.805	147.31
199.274	161.35
199.744	189.44
200.213	261.99
200.682	222.2
201.151	257.31
201.62	278.38
202.089	250.29
202.558	290.08
203.027	266.67
203.495	269.02
203.964	290.08
204.433	229.23
204.902	294.76
205.37	311.14
205.839	299.44
206.307	308.8
206.776	325.19
207.244	320.51
207.712	301.78
208.181	332.21
208.649	299.44
209.117	313.49
209.585	264.33
210.053	306.46
210.521	287.74
210.989	266.67
211.457	269.02
211.925	315.83
212.393	261.99
212.861	294.76
213.328	320.51
213.796	308.8
214.264	290.08
214.731	290.08
215.199	292.42
215.666	283.06
216.133	304.12
216.601	285.4
217.068	191.78
217.535	292.42
218.003	311.14
218.47	339.23
218.937	273.7
219.404	278.38
219.871	194.12
220.338	297.1
220.805	283.06
221.271	278.38
221.738	271.36
222.205	271.36
222.671	313.49
223.138	264.33
223.605	219.86
224.071	271.36
224.538	285.4
225.004	264.33
225.47	367.32
225.937	292.42
226.403	285.4
226.869	287.74
227.335	287.74
227.801	315.83
228.267	269.02
228.733	297.1
229.199	252.63
229.665	210.5
230.131	247.95
230.597	247.95
231.062	257.31
231.528	299.44
231.994	315.83
232.459	264.33
232.925	292.42
233.39	329.87
233.856	294.76
234.321	332.21
234.786	222.2
235.252	297.1
235.717	198.8
236.182	315.83
236.647	306.46
237.112	276.04
237.577	266.67
238.042	320.51
238.507	299.44
238.972	327.53
239.436	390.72
239.901	208.16
240.366	292.42
240.83	285.4
241.295	243.27
241.76	294.76
242.224	348.59
242.688	306.46
243.153	292.42
243.617	313.49
244.081	306.46
244.545	269.02
245.01	350.93
245.474	320.51
245.938	343.91
246.402	290.08
246.866	243.27
247.33	306.46
247.793	245.61
248.257	322.85
248.721	257.31
249.185	369.66
249.648	322.85
250.112	311.14
250.575	236.25
251.039	292.42
251.502	339.23
251.965	353.27
252.429	259.65
252.892	269.02
253.355	325.19
253.818	315.83
254.281	299.44
254.744	247.95
255.207	224.55
255.67	266.67
256.133	336.89
256.596	341.57
257.059	329.87
257.522	336.89
257.984	329.87
258.447	332.21
258.909	292.42
259.372	297.1
259.834	308.8
260.297	269.02
260.759	297.1
261.221	297.1
261.684	308.8
262.146	266.67
262.608	322.85
263.07	332.21
263.532	243.27
263.994	271.36
264.456	315.83
264.918	329.87
265.38	250.29
265.842	257.31
266.303	266.67
266.765	294.76
267.227	343.91
267.688	346.25
268.15	259.65
268.611	315.83
269.072	283.06
269.534	276.04
269.995	322.85
270.456	276.04
270.918	336.89
271.379	287.74
271.84	297.1
272.301	264.33
272.762	292.42
273.223	294.76
273.684	322.85
274.144	238.59
274.605	311.14
275.066	311.14
275.527	390.72
275.987	339.23
276.448	287.74
276.908	339.23
277.369	367.32
277.829	285.4
278.289	320.51
278.75	336.89
279.21	329.87
279.67	367.32
280.13	329.87
280.59	269.02
281.05	304.12
281.51	320.51
281.97	273.7
282.43	339.23
282.89	285.4
283.35	292.42
283.809	306.46
284.269	287.74
284.729	269.02
285.188	325.19
285.648	273.7
286.107	374.34
286.567	360.3
287.026	285.4
287.485	327.53
287.944	283.06
288.404	327.53
288.863	245.61
289.322	250.29
289.781	299.44
290.24	329.87
290.699	332.21
291.158	278.38
291.616	252.63
292.075	304.12
292.534	315.83
292.992	334.55
293.451	364.98
293.91	304.12
294.368	264.33
294.827	397.74
295.285	308.8
295.743	313.49
296.202	259.65
296.66	348.59
297.118	269.02
297.576	336.89
298.034	259.65
298.492	266.67
298.95	432.85
299.408	322.85
299.866	336.89
300.324	290.08
300.781	283.06
301.239	325.19
301.697	339.23
302.154	308.8
302.612	318.17
303.069	353.27
303.527	276.04
303.984	236.25
304.441	266.67
304.899	332.21
305.356	332.21
305.813	222.2
306.27	292.42
306.727	273.7
307.184	395.4
307.641	334.55
308.098	369.66
308.555	264.33
309.012	264.33
309.468	254.97
309.925	285.4
310.382	311.14
310.838	269.02
311.295	306.46
311.751	329.87
312.208	254.97
312.664	297.1
313.12	332.21
313.577	294.76
314.033	320.51
314.489	311.14
314.945	327.53
315.401	297.1
315.857	311.14
316.313	372
316.769	315.83
317.225	350.93
317.681	341.57
318.136	362.64
318.592	233.91
319.048	304.12
319.503	306.46
319.959	278.38
320.414	336.89
320.869	313.49
321.325	320.51
321.78	290.08
322.235	332.21
322.691	374.34
323.146	297.1
323.601	269.02
324.056	304.12
324.511	353.27
324.966	294.76
325.421	285.4
325.875	252.63
326.33	269.02
326.785	290.08
327.24	325.19
327.694	311.14
328.149	271.36
328.603	313.49
329.058	336.89
329.512	336.89
329.966	287.74
330.421	266.67
330.875	376.68
331.329	313.49
331.783	346.25
332.237	318.17
332.691	320.51
333.145	315.83
333.599	329.87
334.053	313.49
334.507	327.53
334.96	329.87
335.414	364.98
335.868	269.02
336.321	376.68
336.775	369.66
337.228	287.74
337.682	322.85
338.135	261.99
338.588	320.51
339.042	320.51
339.495	290.08
339.948	254.97
340.401	379.02
340.854	264.33
341.307	339.23
341.76	313.49
342.213	357.96
342.666	306.46
343.119	297.1
343.571	283.06
344.024	362.64
344.477	325.19
344.929	280.72
345.382	247.95
345.834	353.27
346.287	280.72
346.739	285.4
347.191	346.25
347.644	315.83
348.096	369.66
348.548	379.02
349	353.27
349.452	261.99
349.904	299.44
350.356	353.27
350.808	254.97
351.26	374.34
351.711	364.98
352.163	290.08
352.615	266.67
353.066	451.58
353.518	364.98
353.969	355.62
354.421	308.8
354.872	292.42
355.324	311.14
355.775	299.44
356.226	327.53
356.677	308.8
357.128	278.38
357.579	381.36
358.03	336.89
358.481	350.93
358.932	364.98
359.383	304.12
359.834	388.38
360.285	374.34
360.735	320.51
361.186	318.17
361.637	278.38
362.087	292.42
362.538	322.85
362.988	320.51
363.438	308.8
363.889	304.12
364.339	339.23
364.789	311.14
365.239	301.78
365.689	271.36
366.139	367.32
366.589	311.14
367.039	315.83
367.489	325.19
367.939	318.17
368.389	292.42
368.839	297.1
369.288	350.93
369.738	346.25
370.187	364.98
370.637	390.72
371.086	266.67
371.536	297.1
371.985	290.08
372.434	294.76
372.884	294.76
373.333	292.42
373.782	336.89
374.231	336.89
374.68	264.33
375.129	315.83
375.578	348.59
376.027	327.53
376.475	318.17
376.924	372
377.373	350.93
377.822	339.23
378.27	266.67
378.719	327.53
379.167	369.66
379.616	339.23
380.064	315.83
380.512	292.42
380.961	341.57
381.409	362.64
381.857	362.64
382.305	364.98
382.753	320.51
383.201	311.14
383.649	304.12
384.097	350.93
384.545	271.36
384.992	334.55
385.44	386.04
385.888	348.59
386.335	287.74
386.783	341.57
387.231	266.67
387.678	367.32
388.125	254.97
388.573	304.12
389.02	278.38
389.467	297.1
389.914	306.46
390.362	306.46
390.809	315.83
391.256	308.8
391.703	285.4
392.15	332.21
392.596	332.21
393.043	332.21
393.49	322.85
393.937	362.64
394.383	273.7
394.83	329.87
395.276	372
395.723	348.59
396.169	308.8
396.616	222.2
397.062	334.55
397.508	350.93
397.954	315.83
398.401	355.62
398.847	322.85
399.293	350.93
399.739	283.06
400.185	280.72
400.631	299.44
401.076	343.91
401.522	329.87
401.968	348.59
402.414	313.49
402.859	374.34
403.305	374.34
403.75	301.78
404.196	381.36
404.641	343.91
405.086	393.06
405.532	327.53
405.977	311.14
406.422	383.7
406.867	397.74
407.312	341.57
407.757	393.06
408.202	325.19
408.647	327.53
409.092	273.7
409.537	376.68
409.982	332.21
410.426	332.21
410.871	341.57
411.316	311.14
411.76	348.59
412.205	301.78
412.649	339.23
413.093	357.96
413.538	306.46
413.982	390.72
414.426	315.83
414.87	311.14
415.314	325.19
415.758	379.02
416.202	402.43
416.646	313.49
417.09	353.27
417.534	364.98
417.978	329.87
418.421	341.57
418.865	376.68
419.309	379.02
419.752	407.11
420.196	362.64
420.639	287.74
421.083	287.74
421.526	400.09
421.969	390.72
422.412	393.06
422.856	346.25
423.299	332.21
423.742	332.21
424.185	425.83
424.628	313.49
425.071	318.17
425.513	376.68
425.956	329.87
426.399	348.59
426.842	395.4
427.284	327.53
427.727	362.64
428.169	320.51
428.612	414.13
429.054	418.81
429.497	402.43
429.939	341.57
430.381	451.58
430.823	386.04
431.265	402.43
431.707	364.98
432.149	362.64
432.591	437.53
433.033	414.13
433.475	416.47
433.917	444.56
434.359	514.77
434.8	575.63
435.242	559.24
435.684	531.16
436.125	507.75
436.567	477.32
437.008	526.47
437.449	444.56
437.891	486.69
438.332	498.39
438.773	449.24
439.214	451.58
439.656	465.62
440.097	510.09
440.538	507.75
440.978	500.73
441.419	507.75
441.86	491.37
442.301	484.34
442.742	489.03
443.182	489.03
443.623	460.94
444.063	479.66
444.504	505.41
444.944	582.65
445.385	474.98
445.825	465.62
446.265	484.34
446.706	510.09
447.146	577.97
447.586	467.96
448.026	542.86
448.466	547.54
448.906	535.84
449.346	435.19
449.786	519.45
450.225	514.77
450.665	545.2
451.105	521.79
451.544	503.07
451.984	489.03
452.424	477.32
452.863	531.16
453.302	463.28
453.742	496.05
454.181	442.21
454.62	467.96
455.059	425.83
455.499	456.26
455.938	453.92
456.377	498.39
456.816	467.96
457.254	531.16
457.693	397.74
458.132	404.77
458.571	404.77
459.01	453.92
459.448	467.96
459.887	367.32
460.325	428.17
460.764	423.49
461.202	428.17
461.641	458.6
462.079	437.53
462.517	458.6
462.955	418.81
463.393	336.89
463.832	416.47
464.27	463.28
464.708	397.74
465.145	472.64
465.583	444.56
466.021	428.17
466.459	409.45
466.897	460.94
467.334	400.09
467.772	423.49
468.209	350.93
468.647	383.7
469.084	414.13
469.522	439.87
469.959	442.21
470.396	423.49
470.833	407.11
471.271	400.09
471.708	425.83
472.145	456.26
472.582	353.27
473.019	428.17
473.456	407.11
473.892	395.4
474.329	350.93
474.766	374.34
475.202	355.62
475.639	414.13
476.076	404.77
476.512	381.36
476.949	374.34
477.385	425.83
477.821	390.72
478.258	437.53
478.694	364.98
479.13	397.74
479.566	404.77
480.002	393.06
480.438	425.83
480.874	416.47
481.31	306.46
481.746	414.13
482.181	364.98
482.617	423.49
483.053	357.96
483.488	360.3
483.924	414.13
484.36	416.47
484.795	404.77
485.23	474.98
485.666	395.4
486.101	400.09
486.536	460.94
486.971	437.53
487.407	467.96
487.842	437.53
488.277	425.83
488.712	470.3
489.146	444.56
489.581	477.32
490.016	430.51
490.451	409.45
490.885	456.26
491.32	446.9
491.755	444.56
492.189	463.28
492.624	486.69
493.058	444.56
493.492	439.87
493.927	428.17
494.361	503.07
494.795	444.56
495.229	428.17
495.663	453.92
496.097	510.09
496.531	425.83
496.965	409.45
497.399	416.47
497.833	460.94
498.266	451.58
498.7	404.77
499.134	379.02
499.567	423.49
500.001	404.77
500.434	540.52
500.868	390.72
501.301	414.13
501.734	376.68
502.168	456.26
502.601	430.51
503.034	435.19
503.467	362.64
503.9	404.77
504.333	463.28
504.766	421.15
505.199	423.49
505.632	477.32
506.064	432.85
506.497	432.85
506.93	430.51
507.362	400.09
507.795	444.56
508.227	353.27
508.66	362.64
509.092	374.34
509.524	393.06
509.956	404.77
510.389	435.19
510.821	430.51
511.253	444.56
511.685	467.96
512.117	414.13
512.549	381.36
512.981	402.43
513.412	395.4
513.844	411.79
514.276	437.53
514.707	411.79
515.139	397.74
515.571	451.58
516.002	477.32
516.433	449.24
516.865	379.02
517.296	465.62
517.727	465.62
518.159	486.69
518.59	538.18
519.021	493.71
519.452	435.19
519.883	444.56
520.314	486.69
520.744	418.81
521.175	453.92
521.606	470.3
522.037	432.85
522.467	430.51
522.898	430.51
523.328	446.9
523.759	474.98
524.189	423.49
524.62	435.19
525.05	453.92
525.48	449.24
525.91	453.92
526.341	474.98
526.771	465.62
527.201	428.17
527.631	453.92
528.061	479.66
528.49	449.24
528.92	482
529.35	430.51
529.78	409.45
530.209	479.66
530.639	505.41
531.068	470.3
531.498	388.38
531.927	388.38
532.357	348.59
532.786	425.83
533.215	484.34
533.644	395.4
534.074	460.94
534.503	451.58
534.932	442.21
535.361	411.79
535.79	479.66
536.218	465.62
536.647	357.96
537.076	423.49
537.505	416.47
537.933	437.53
538.362	458.6
538.79	498.39
539.219	409.45
539.647	446.9
540.076	496.05
540.504	566.26
540.932	512.43
541.36	613.07
541.788	664.57
542.217	711.38
542.645	732.44
543.073	748.83
543.5	737.12
543.928	678.61
544.356	711.38
544.784	741.8
545.211	692.65
545.639	725.42
546.067	657.54
546.494	720.74
546.922	573.28
547.349	538.18
547.776	545.2
548.204	493.71
548.631	542.86
549.058	493.71
549.485	470.3
549.912	526.47
550.339	542.86
550.766	444.56
551.193	510.09
551.62	493.71
552.047	493.71
552.474	467.96
552.9	512.43
553.327	512.43
553.754	524.13
554.18	472.64
554.607	444.56
555.033	416.47
555.459	439.87
555.886	467.96
556.312	456.26
556.738	456.26
557.164	432.85
557.59	407.11
558.016	397.74
558.442	425.83
558.868	369.66
559.294	460.94
559.72	372
560.145	400.09
560.571	484.34
560.997	503.07
561.422	507.75
561.848	397.74
562.273	477.32
562.699	430.51
563.124	430.51
563.549	451.58
563.974	451.58
564.4	444.56
564.825	444.56
565.25	444.56
565.675	479.66
566.1	503.07
566.525	432.85
566.95	423.49
567.374	442.21
567.799	409.45
568.224	458.6
568.648	418.81
569.073	489.03
569.497	395.4
569.922	463.28
570.346	439.87
570.771	472.64
571.195	479.66
571.619	418.81
572.043	489.03
572.467	444.56
572.891	348.59
573.315	414.13
573.739	444.56
574.163	437.53
574.587	428.17
575.011	428.17
575.435	451.58
575.858	456.26
576.282	402.43
576.705	444.56
577.129	425.83
577.552	460.94
577.976	397.74
578.399	341.57
578.822	451.58
579.245	376.68
579.669	460.94
580.092	456.26
580.515	446.9
580.938	446.9
581.361	390.72
581.784	465.62
582.206	453.92
582.629	514.77
583.052	421.15
583.474	435.19
583.897	566.26
584.32	451.58
584.742	444.56
585.165	496.05
585.587	484.34
586.009	474.98
586.431	498.39
586.854	479.66
587.276	514.77
587.698	486.69
588.12	458.6
588.542	381.36
588.964	409.45
589.386	463.28
589.807	472.64
590.229	425.83
590.651	411.79
591.073	393.06
591.494	460.94
591.916	428.17
592.337	484.34
592.759	458.6
593.18	444.56
593.601	414.13
594.022	411.79
594.444	397.74
594.865	388.38
595.286	442.21
595.707	367.32
596.128	453.92
596.549	428.17
596.97	367.32
597.39	376.68
597.811	418.81
598.232	474.98
598.652	435.19
599.073	423.49
599.494	432.85
599.914	397.74
600.334	407.11
600.755	409.45
601.175	400.09
601.595	409.45
602.015	404.77
602.436	470.3
602.856	631.8
603.276	421.15
603.696	393.06
604.115	409.45
604.535	376.68
604.955	456.26
605.375	411.79
605.794	388.38
606.214	449.24
606.634	400.09
607.053	449.24
607.473	379.02
607.892	400.09
608.311	435.19
608.731	407.11
609.15	449.24
609.569	531.16
609.988	669.25
610.407	760.53
610.826	807.34
611.245	762.87
611.664	828.4
612.083	694.99
612.501	676.27
612.92	592.01
613.339	592.01
613.757	535.84
614.176	568.6
614.594	503.07
615.013	493.71
615.431	549.88
615.85	474.98
616.268	500.73
616.686	491.37
617.104	430.51
617.522	350.93
617.94	430.51
618.358	418.81
618.776	432.85
619.194	439.87
619.612	414.13
620.03	397.74
620.447	421.15
620.865	446.9
621.282	383.7
621.7	400.09
622.117	381.36
622.535	411.79
622.952	383.7
623.369	416.47
623.787	360.3
624.204	463.28
624.621	364.98
625.038	421.15
625.455	395.4
625.872	414.13
626.289	334.55
626.706	411.79
627.123	379.02
627.539	381.36
627.956	428.17
628.373	336.89
628.789	360.3
629.206	381.36
629.622	393.06
630.038	397.74
630.455	453.92
630.871	372
631.287	449.24
631.703	402.43
632.12	418.81
632.536	423.49
632.952	397.74
633.368	369.66
633.783	313.49
634.199	360.3
634.615	381.36
635.031	386.04
635.446	306.46
635.862	301.78
636.277	362.64
636.693	364.98
637.108	334.55
637.524	379.02
637.939	357.96
638.354	383.7
638.77	374.34
639.185	411.79
639.6	273.7
640.015	306.46
640.43	322.85
640.845	341.57
641.259	308.8
641.674	348.59
642.089	416.47
642.504	386.04
642.918	334.55
643.333	346.25
643.747	320.51
644.162	362.64
644.576	339.23
644.991	388.38
645.405	350.93
645.819	297.1
646.233	341.57
646.647	367.32
647.061	376.68
647.475	418.81
647.889	397.74
648.303	329.87
648.717	329.87
649.131	353.27
649.545	416.47
649.958	372
650.372	353.27
650.785	343.91
651.199	355.62
651.612	386.04
652.026	397.74
652.439	379.02
652.852	393.06
653.266	355.62
653.679	301.78
654.092	306.46
654.505	414.13
654.918	360.3
655.331	393.06
655.744	381.36
656.156	332.21
656.569	320.51
656.982	353.27
657.394	374.34
657.807	341.57
658.22	414.13
658.632	343.91
659.044	350.93
659.457	327.53
659.869	301.78
660.281	315.83
660.693	313.49
661.106	311.14
661.518	369.66
661.93	348.59
662.342	350.93
662.754	362.64
663.165	343.91
663.577	386.04
663.989	353.27
664.401	343.91
664.812	350.93
665.224	280.72
665.635	329.87
666.047	402.43
666.458	276.04
666.869	362.64
667.281	369.66
667.692	372
668.103	327.53
668.514	329.87
668.925	350.93
669.336	292.42
669.747	369.66
670.158	346.25
670.569	357.96
670.979	325.19
671.39	353.27
671.801	311.14
672.211	313.49
672.622	334.55
673.032	355.62
673.443	336.89
673.853	334.55
674.263	306.46
674.674	350.93
675.084	350.93
675.494	350.93
675.904	379.02
676.314	304.12
676.724	339.23
677.134	287.74
677.544	269.02
677.953	367.32
678.363	357.96
678.773	400.09
679.182	313.49
679.592	355.62
680.001	376.68
680.411	325.19
680.82	374.34
681.23	357.96
681.639	346.25
682.048	376.68
682.457	369.66
682.866	355.62
683.275	278.38
683.684	379.02
684.093	273.7
684.502	329.87
684.911	336.89
685.32	327.53
685.728	343.91
686.137	348.59
686.546	339.23
686.954	327.53
687.363	322.85
687.771	402.43
688.179	334.55
688.588	339.23
688.996	350.93
689.404	367.32
689.812	346.25
690.22	280.72
690.628	334.55
691.036	348.59
691.444	334.55
691.852	327.53
692.26	322.85
692.667	374.34
693.075	301.78
693.483	379.02
693.89	304.12
694.298	329.87
694.705	332.21
695.112	320.51
695.52	301.78
695.927	343.91
696.334	325.19
696.741	357.96
697.148	278.38
697.555	297.1
697.962	360.3
698.369	294.76
698.776	367.32
699.183	294.76
699.59	313.49
699.996	254.97
700.403	343.91
700.81	353.27
701.216	390.72
701.623	362.64
702.029	348.59
702.435	355.62
702.842	341.57
703.248	318.17
703.654	280.72
704.06	372
704.466	346.25
704.872	348.59
705.278	350.93
705.684	346.25
706.09	308.8
706.496	336.89
706.901	343.91
707.307	376.68
707.712	360.3
708.118	299.44
708.523	346.25
708.929	421.15
709.334	339.23
709.74	329.87
710.145	360.3
710.55	299.44
710.955	341.57
711.36	400.09
711.765	339.23
712.17	386.04
712.575	299.44
712.98	882.24
713.385	355.62
713.789	292.42
714.194	357.96
714.599	290.08
715.003	320.51
715.408	350.93
715.812	400.09
716.217	367.32
716.621	304.12
717.025	362.64
717.429	320.51
717.833	332.21
718.238	320.51
718.642	367.32
719.046	332.21
719.449	376.68
719.853	325.19
720.257	329.87
720.661	283.06
721.065	315.83
721.468	306.46
721.872	336.89
722.275	301.78
722.679	320.51
723.082	308.8
723.485	290.08
723.889	318.17
724.292	315.83
724.695	306.46
725.098	243.27
725.501	308.8
725.904	374.34
726.307	327.53
726.71	327.53
727.113	341.57
727.516	308.8
727.918	374.34
728.321	299.44
728.724	369.66
729.126	343.91
729.529	318.17
729.931	346.25
730.333	341.57
730.736	311.14
731.138	276.04
731.54	322.85
731.942	327.53
732.344	320.51
732.746	292.42
733.148	372
733.55	334.55
733.952	346.25
734.354	325.19
734.756	269.02
735.157	252.63
735.559	252.63
735.96	341.57
736.362	355.62
736.763	318.17
737.165	379.02
737.566	341.57
737.967	278.38
738.368	364.98
738.77	341.57
739.171	320.51
739.572	292.42
739.973	276.04
740.374	327.53
740.774	292.42
741.175	259.65
741.576	259.65
741.977	325.19
742.377	322.85
742.778	357.96
743.178	346.25
743.579	336.89
743.979	346.25
744.379	353.27
744.78	320.51
745.18	364.98
745.58	299.44
745.98	318.17
746.38	332.21
746.78	297.1
747.18	285.4
747.58	327.53
747.98	313.49
748.38	301.78
748.779	318.17
749.179	348.59
749.578	336.89
749.978	301.78
750.377	306.46
750.777	332.21
751.176	292.42
751.575	294.76
751.975	362.64
752.374	350.93
752.773	348.59
753.172	325.19
753.571	301.78
753.97	336.89
754.369	343.91
754.768	376.68
755.166	304.12
755.565	306.46
755.964	285.4
756.362	313.49
756.761	348.59
757.159	334.55
757.558	355.62
757.956	315.83
758.354	357.96
758.753	301.78
759.151	341.57
759.549	350.93
759.947	355.62
760.345	311.14
760.743	273.7
761.141	334.55
761.539	428.17
761.936	336.89
762.334	269.02
762.732	320.51
763.129	290.08
763.527	299.44
763.924	350.93
764.322	355.62
764.719	353.27
765.117	271.36
