Data from Al_FLMS009871__370__12-32-02-527.txt Node

Date: Fri Mar 08 12:32:02 CST 2024
User: pe5414po
Spectrometer: FLMS00987
Trigger mode: 0
Integration Time (sec): 1.000000E-1
Scans to average: 1
Electric dark correction enabled: true
Nonlinearity correction enabled: false
Boxcar width: 0
XAxis mode: Wavelengths
Number of Pixels in Spectrum: 2048
>>>>>Begin Spectral Data<<<<<
188.938	-107.66
189.409	-107.66
189.879	-107.66
190.349	-121.71
190.819	-138.09
191.29	-91.28
191.76	-81.92
192.23	-42.13
192.7	-117.03
193.17	-25.75
193.64	-44.47
194.109	-7.02
194.579	-77.24
195.049	25.75
195.519	-44.47
195.988	21.06
196.458	35.11
196.927	51.49
197.397	163.84
197.866	114.69
198.336	119.37
198.805	126.39
199.274	86.6
199.744	170.86
200.213	227.03
200.682	201.29
201.151	250.44
201.62	236.39
202.089	264.48
202.558	194.26
203.027	212.99
203.495	262.14
203.964	269.16
204.433	297.25
204.902	276.18
205.37	304.27
205.839	271.5
206.307	266.82
206.776	252.78
207.244	344.06
207.712	315.97
208.181	257.46
208.649	283.2
209.117	290.23
209.585	318.31
210.053	313.63
210.521	241.08
210.989	334.7
211.457	322.99
211.925	262.14
212.393	194.26
212.861	318.31
213.328	304.27
213.796	292.57
214.264	177.88
214.731	299.59
215.199	257.46
215.666	301.93
216.133	231.71
216.601	243.42
217.068	285.55
217.535	222.35
218.003	264.48
218.47	276.18
218.937	238.73
219.404	269.16
219.871	304.27
220.338	212.99
220.805	297.25
221.271	231.71
221.738	262.14
222.205	269.16
222.671	252.78
223.138	182.56
223.605	304.27
224.071	276.18
224.538	215.33
225.004	191.92
225.47	259.8
225.937	245.76
226.403	297.25
226.869	285.55
227.335	325.33
227.801	299.59
228.267	311.29
228.733	271.5
229.199	227.03
229.665	163.84
230.131	290.23
230.597	283.2
231.062	252.78
231.528	189.58
231.994	212.99
232.459	215.33
232.925	212.99
233.39	257.46
233.856	283.2
234.321	248.1
234.786	294.91
235.252	215.33
235.717	292.57
236.182	245.76
236.647	264.48
237.112	330.02
237.577	210.65
238.042	194.26
238.507	287.89
238.972	222.35
239.436	273.84
239.901	250.44
240.366	271.5
240.83	243.42
241.295	229.37
241.76	217.67
242.224	248.1
242.688	308.95
243.153	229.37
243.617	292.57
244.081	264.48
244.545	283.2
245.01	243.42
245.474	264.48
245.938	259.8
246.402	241.08
246.866	236.39
247.33	280.86
247.793	287.89
248.257	276.18
248.721	276.18
249.185	339.38
249.648	248.1
250.112	262.14
250.575	269.16
251.039	264.48
251.502	283.2
251.965	255.12
252.429	257.46
252.892	238.73
253.355	259.8
253.818	278.52
254.281	301.93
254.744	278.52
255.207	273.84
255.67	271.5
256.133	229.37
256.596	353.42
257.059	290.23
257.522	315.97
257.984	224.69
258.447	269.16
258.909	313.63
259.372	248.1
259.834	234.05
260.297	266.82
260.759	285.55
261.221	231.71
261.684	348.74
262.146	322.99
262.608	250.44
263.07	241.08
263.532	266.82
263.994	301.93
264.456	287.89
264.918	290.23
265.38	304.27
265.842	236.39
266.303	217.67
266.765	322.99
267.227	234.05
267.688	189.58
268.15	297.25
268.611	269.16
269.072	264.48
269.534	285.55
269.995	315.97
270.456	318.31
270.918	243.42
271.379	269.16
271.84	297.25
272.301	234.05
272.762	262.14
273.223	257.46
273.684	299.59
274.144	210.65
274.605	262.14
275.066	313.63
275.527	222.35
275.987	238.73
276.448	245.76
276.908	262.14
277.369	330.02
277.829	280.86
278.289	273.84
278.75	259.8
279.21	290.23
279.67	255.12
280.13	355.76
280.59	255.12
281.05	276.18
281.51	327.67
281.97	344.06
282.43	290.23
282.89	269.16
283.35	236.39
283.809	290.23
284.269	220.01
284.729	304.27
285.188	351.08
285.648	330.02
286.107	257.46
286.567	306.61
287.026	334.7
287.485	297.25
287.944	273.84
288.404	255.12
288.863	304.27
289.322	271.5
289.781	299.59
290.24	287.89
290.699	283.2
291.158	297.25
291.616	280.86
292.075	332.36
292.534	285.55
292.992	297.25
293.451	294.91
293.91	252.78
294.368	311.29
294.827	269.16
295.285	285.55
295.743	315.97
296.202	318.31
296.66	264.48
297.118	266.82
297.576	255.12
298.034	257.46
298.492	248.1
298.95	301.93
299.408	301.93
299.866	283.2
300.324	236.39
300.781	264.48
301.239	259.8
301.697	278.52
302.154	250.44
302.612	301.93
303.069	334.7
303.527	327.67
303.984	332.36
304.441	313.63
304.899	264.48
305.356	248.1
305.813	322.99
306.27	259.8
306.727	306.61
307.184	320.65
307.641	320.65
308.098	241.08
308.555	262.14
309.012	299.59
309.468	315.97
309.925	241.08
310.382	262.14
310.838	215.33
311.295	313.63
311.751	276.18
312.208	257.46
312.664	322.99
313.12	299.59
313.577	297.25
314.033	353.42
314.489	283.2
314.945	217.67
315.401	262.14
315.857	243.42
316.313	294.91
316.769	301.93
317.225	306.61
317.681	304.27
318.136	290.23
318.592	198.95
319.048	292.57
319.503	271.5
319.959	259.8
320.414	252.78
320.869	212.99
321.325	245.76
321.78	238.73
322.235	276.18
322.691	271.5
323.146	276.18
323.601	273.84
324.056	292.57
324.511	264.48
324.966	313.63
325.421	306.61
325.875	348.74
326.33	250.44
326.785	292.57
327.24	231.71
327.694	280.86
328.149	208.31
328.603	304.27
329.058	287.89
329.512	327.67
329.966	266.82
330.421	301.93
330.875	269.16
331.329	285.55
331.783	285.55
332.237	358.1
332.691	255.12
333.145	355.76
333.599	250.44
334.053	330.02
334.507	278.52
334.96	241.08
335.414	341.72
335.868	318.31
336.321	292.57
336.775	304.27
337.228	360.44
337.682	278.52
338.135	318.31
338.588	339.38
339.042	278.52
339.495	348.74
339.948	337.04
340.401	257.46
340.854	297.25
341.307	318.31
341.76	306.61
342.213	304.27
342.666	306.61
343.119	238.73
343.571	276.18
344.024	337.04
344.477	325.33
344.929	271.5
345.382	306.61
345.834	297.25
346.287	285.55
346.739	393.21
347.191	276.18
347.644	322.99
348.096	304.27
348.548	259.8
349	327.67
349.452	311.29
349.904	311.29
350.356	273.84
350.808	276.18
351.26	280.86
351.711	273.84
352.163	311.29
352.615	297.25
353.066	320.65
353.518	346.4
353.969	287.89
354.421	330.02
354.872	294.91
355.324	297.25
355.775	271.5
356.226	257.46
356.677	306.61
357.128	283.2
357.579	271.5
358.03	294.91
358.481	292.57
358.932	322.99
359.383	315.97
359.834	285.55
360.285	273.84
360.735	278.52
361.186	320.65
361.637	318.31
362.087	306.61
362.538	315.97
362.988	318.31
363.438	320.65
363.889	252.78
364.339	290.23
364.789	322.99
365.239	280.86
365.689	320.65
366.139	308.95
366.589	374.49
367.039	255.12
367.489	322.99
367.939	358.1
368.389	262.14
368.839	322.99
369.288	301.93
369.738	353.42
370.187	344.06
370.637	318.31
371.086	315.97
371.536	320.65
371.985	308.95
372.434	238.73
372.884	318.31
373.333	332.36
373.782	250.44
374.231	308.95
374.68	287.89
375.129	355.76
375.578	292.57
376.027	332.36
376.475	308.95
376.924	337.04
377.373	248.1
377.822	283.2
378.27	358.1
378.719	290.23
379.167	383.85
379.616	334.7
380.064	283.2
380.512	255.12
380.961	318.31
381.409	332.36
381.857	252.78
382.305	358.1
382.753	330.02
383.201	322.99
383.649	283.2
384.097	271.5
384.545	330.02
384.992	269.16
385.44	208.31
385.888	264.48
386.335	224.69
386.783	339.38
387.231	280.86
387.678	273.84
388.125	283.2
388.573	285.55
389.02	292.57
389.467	229.37
389.914	245.76
390.362	283.2
390.809	344.06
391.256	259.8
391.703	348.74
392.15	311.29
392.596	325.33
393.043	294.91
393.49	252.78
393.937	301.93
394.383	306.61
394.83	313.63
395.276	320.65
395.723	318.31
396.169	297.25
396.616	308.95
397.062	339.38
397.508	292.57
397.954	327.67
398.401	341.72
398.847	271.5
399.293	269.16
399.739	278.52
400.185	337.04
400.631	292.57
401.076	238.73
401.522	262.14
401.968	276.18
402.414	280.86
402.859	344.06
403.305	376.83
403.75	266.82
404.196	255.12
404.641	360.44
405.086	299.59
405.532	287.89
405.977	330.02
406.422	255.12
406.867	292.57
407.312	276.18
407.757	318.31
408.202	306.61
408.647	320.65
409.092	269.16
409.537	320.65
409.982	299.59
410.426	257.46
410.871	292.57
411.316	299.59
411.76	306.61
412.205	332.36
412.649	297.25
413.093	259.8
413.538	351.08
413.982	294.91
414.426	231.71
414.87	322.99
415.314	322.99
415.758	287.89
416.202	386.19
416.646	341.72
417.09	344.06
417.534	395.55
417.978	304.27
418.421	344.06
418.865	344.06
419.309	248.1
419.752	245.76
420.196	311.29
420.639	290.23
421.083	299.59
421.526	358.1
421.969	372.15
422.412	325.33
422.856	327.67
423.299	355.76
423.742	264.48
424.185	337.04
424.628	337.04
425.071	383.85
425.513	318.31
425.956	306.61
426.399	318.31
426.842	374.49
427.284	337.04
427.727	318.31
428.169	365.12
428.612	351.08
429.054	318.31
429.497	369.8
429.939	276.18
430.381	351.08
430.823	320.65
431.265	402.57
431.707	334.7
432.149	315.97
432.591	367.46
433.033	315.97
433.475	379.17
433.917	393.21
434.359	421.3
434.8	451.72
435.242	486.83
435.684	465.77
436.125	449.38
436.567	440.02
437.008	418.96
437.449	440.02
437.891	486.83
438.332	388.53
438.773	383.85
439.214	454.06
439.656	421.3
440.097	472.79
440.538	437.68
440.978	416.62
441.419	507.9
441.86	435.34
442.301	498.53
442.742	449.38
443.182	461.09
443.623	479.81
444.063	381.51
444.504	540.66
444.944	477.47
445.385	475.13
445.825	433
446.265	514.92
446.706	524.28
447.146	524.28
447.586	440.02
448.026	526.62
448.466	486.83
448.906	575.77
449.346	482.15
449.786	454.06
450.225	461.09
450.665	575.77
451.105	484.49
451.544	535.98
451.984	465.77
452.424	423.64
452.863	465.77
453.302	449.38
453.742	493.85
454.181	463.43
454.62	479.81
455.059	468.11
455.499	472.79
455.938	383.85
456.377	381.51
456.816	451.72
457.254	411.93
457.693	442.36
458.132	430.66
458.571	435.34
459.01	475.13
459.448	416.62
459.887	381.51
460.325	346.4
460.764	414.27
461.202	440.02
461.641	404.91
462.079	388.53
462.517	482.15
462.955	390.87
463.393	322.99
463.832	395.55
464.27	442.36
464.708	372.15
465.145	383.85
465.583	367.46
466.021	409.59
466.459	409.59
466.897	337.04
467.334	397.89
467.772	320.65
468.209	379.17
468.647	360.44
469.084	360.44
469.522	330.02
469.959	372.15
470.396	418.96
470.833	362.78
471.271	311.29
471.708	400.23
472.145	379.17
472.582	369.8
473.019	411.93
473.456	447.04
473.892	360.44
474.329	386.19
474.766	339.38
475.202	327.67
475.639	421.3
476.076	353.42
476.512	423.64
476.949	395.55
477.385	379.17
477.821	407.25
478.258	327.67
478.694	353.42
479.13	362.78
479.566	414.27
480.002	376.83
480.438	379.17
480.874	313.63
481.31	393.21
481.746	395.55
482.181	353.42
482.617	428.32
483.053	386.19
483.488	402.57
483.924	395.55
484.36	435.34
484.795	444.7
485.23	358.1
485.666	454.06
486.101	395.55
486.536	423.64
486.971	348.74
487.407	418.96
487.842	386.19
488.277	414.27
488.712	404.91
489.146	423.64
489.581	416.62
490.016	451.72
490.451	400.23
490.885	376.83
491.32	400.23
491.755	395.55
492.189	353.42
492.624	458.74
493.058	353.42
493.492	397.89
493.927	400.23
494.361	379.17
494.795	327.67
495.229	365.12
495.663	390.87
496.097	421.3
496.531	409.59
496.965	425.98
497.399	421.3
497.833	374.49
498.266	369.8
498.7	411.93
499.134	325.33
499.567	393.21
500.001	341.72
500.434	334.7
500.868	322.99
501.301	341.72
501.734	322.99
502.168	418.96
502.601	360.44
503.034	339.38
503.467	400.23
503.9	376.83
504.333	416.62
504.766	400.23
505.199	423.64
505.632	365.12
506.064	409.59
506.497	348.74
506.93	383.85
507.362	381.51
507.795	374.49
508.227	318.31
508.66	465.77
509.092	435.34
509.524	304.27
509.956	421.3
510.389	407.25
510.821	365.12
511.253	433
511.685	442.36
512.117	411.93
512.549	381.51
512.981	327.67
513.412	390.87
513.844	372.15
514.276	318.31
514.707	440.02
515.139	444.7
515.571	365.12
516.002	411.93
516.433	383.85
516.865	365.12
517.296	433
517.727	383.85
518.159	421.3
518.59	397.89
519.021	407.25
519.452	437.68
519.883	449.38
520.314	388.53
520.744	414.27
521.175	409.59
521.606	411.93
522.037	388.53
522.467	367.46
522.898	381.51
523.328	458.74
523.759	430.66
524.189	353.42
524.62	330.02
525.05	411.93
525.48	430.66
525.91	388.53
526.341	402.57
526.771	358.1
527.201	430.66
527.631	449.38
528.061	418.96
528.49	351.08
528.92	390.87
529.35	435.34
529.78	402.57
530.209	379.17
530.639	437.68
531.068	472.79
531.498	372.15
531.927	407.25
532.357	447.04
532.786	425.98
533.215	498.53
533.644	421.3
534.074	423.64
534.503	430.66
534.932	437.68
535.361	418.96
535.79	421.3
536.218	414.27
536.647	491.51
537.076	393.21
537.505	322.99
537.933	435.34
538.362	437.68
538.79	507.9
539.219	463.43
539.647	507.9
540.076	470.45
540.504	538.32
540.932	601.52
541.36	592.16
541.788	582.79
542.217	685.78
542.645	718.54
543.073	709.18
543.5	681.1
543.928	685.78
544.356	606.2
544.784	772.38
545.211	655.35
545.639	772.38
546.067	657.69
546.494	608.54
546.922	568.75
547.349	655.35
547.776	540.66
548.204	531.3
548.631	514.92
549.058	491.51
549.485	440.02
549.912	449.38
550.339	477.47
550.766	477.47
551.193	550.03
551.62	496.19
552.047	444.7
552.474	472.79
552.9	435.34
553.327	491.51
553.754	458.74
554.18	433
554.607	423.64
555.033	461.09
555.459	400.23
555.886	458.74
556.312	395.55
556.738	376.83
557.164	456.4
557.59	458.74
558.016	402.57
558.442	358.1
558.868	428.32
559.294	365.12
559.72	379.17
560.145	421.3
560.571	437.68
560.997	411.93
561.422	416.62
561.848	404.91
562.273	369.8
562.699	411.93
563.124	407.25
563.549	325.33
563.974	428.32
564.4	451.72
564.825	463.43
565.25	367.46
565.675	383.85
566.1	388.53
566.525	353.42
566.95	489.17
567.374	414.27
567.799	397.89
568.224	465.77
568.648	440.02
569.073	344.06
569.497	465.77
569.922	409.59
570.346	444.7
570.771	379.17
571.195	397.89
571.619	407.25
572.043	407.25
572.467	428.32
572.891	414.27
573.315	362.78
573.739	362.78
574.163	404.91
574.587	425.98
575.011	386.19
575.435	411.93
575.858	397.89
576.282	433
576.705	344.06
577.129	423.64
577.552	379.17
577.976	423.64
578.399	451.72
578.822	430.66
579.245	437.68
579.669	404.91
580.092	414.27
580.515	376.83
580.938	411.93
581.361	402.57
581.784	442.36
582.206	409.59
582.629	479.81
583.052	430.66
583.474	411.93
583.897	461.09
584.32	435.34
584.742	404.91
585.165	458.74
585.587	496.19
586.009	428.32
586.431	428.32
586.854	447.04
587.276	454.06
587.698	402.57
588.12	472.79
588.542	397.89
588.964	486.83
589.386	367.46
589.807	388.53
590.229	423.64
590.651	386.19
591.073	383.85
591.494	437.68
591.916	423.64
592.337	433
592.759	465.77
593.18	374.49
593.601	379.17
594.022	442.36
594.444	376.83
594.865	435.34
595.286	407.25
595.707	484.49
596.128	428.32
596.549	386.19
596.97	409.59
597.39	358.1
597.811	355.76
598.232	411.93
598.652	428.32
599.073	383.85
599.494	376.83
599.914	440.02
600.334	425.98
600.755	454.06
601.175	355.76
601.595	423.64
602.015	355.76
602.436	395.55
602.856	521.94
603.276	379.17
603.696	339.38
604.115	346.4
604.535	362.78
604.955	388.53
605.375	367.46
605.794	325.33
606.214	383.85
606.634	369.8
607.053	376.83
607.473	447.04
607.892	416.62
608.311	402.57
608.731	404.91
609.15	465.77
609.569	575.77
609.988	578.11
610.407	739.61
610.826	840.25
611.245	781.74
611.664	751.31
612.083	734.93
612.501	753.65
612.92	617.9
613.339	559.39
613.757	526.62
614.176	559.39
614.594	535.98
615.013	468.11
615.431	463.43
615.85	447.04
616.268	444.7
616.686	390.87
617.104	411.93
617.522	414.27
617.94	425.98
618.358	395.55
618.776	425.98
619.194	332.36
619.612	409.59
620.03	433
620.447	395.55
620.865	414.27
621.282	470.45
621.7	421.3
622.117	376.83
622.535	367.46
622.952	372.15
623.369	325.33
623.787	416.62
624.204	348.74
624.621	301.93
625.038	369.8
625.455	397.89
625.872	376.83
626.289	390.87
626.706	344.06
627.123	376.83
627.539	414.27
627.956	325.33
628.373	327.67
628.789	322.99
629.206	390.87
629.622	325.33
630.038	407.25
630.455	337.04
630.871	367.46
631.287	346.4
631.703	355.76
632.12	372.15
632.536	379.17
632.952	344.06
633.368	313.63
633.783	341.72
634.199	337.04
634.615	287.89
635.031	327.67
635.446	320.65
635.862	311.29
636.277	355.76
636.693	435.34
637.108	355.76
637.524	386.19
637.939	297.25
638.354	346.4
638.77	315.97
639.185	346.4
639.6	344.06
640.015	322.99
640.43	332.36
640.845	346.4
641.259	257.46
641.674	304.27
642.089	344.06
642.504	301.93
642.918	290.23
643.333	315.97
643.747	301.93
644.162	360.44
644.576	320.65
644.991	322.99
645.405	318.31
645.819	306.61
646.233	292.57
646.647	311.29
647.061	348.74
647.475	318.31
647.889	351.08
648.303	334.7
648.717	278.52
649.131	367.46
649.545	332.36
649.958	334.7
650.372	355.76
650.785	365.12
651.199	306.61
651.612	334.7
652.026	332.36
652.439	318.31
652.852	262.14
653.266	322.99
653.679	388.53
654.092	344.06
654.505	285.55
654.918	220.01
655.331	381.51
655.744	320.65
656.156	294.91
656.569	376.83
656.982	315.97
657.394	285.55
657.807	334.7
658.22	297.25
658.632	273.84
659.044	337.04
659.457	273.84
659.869	322.99
660.281	290.23
660.693	362.78
661.106	360.44
661.518	306.61
661.93	381.51
662.342	262.14
662.754	322.99
663.165	325.33
663.577	271.5
663.989	365.12
664.401	337.04
664.812	315.97
665.224	308.95
665.635	313.63
666.047	294.91
666.458	243.42
666.869	276.18
667.281	346.4
667.692	353.42
668.103	306.61
668.514	416.62
668.925	269.16
669.336	299.59
669.747	313.63
670.158	308.95
670.569	362.78
670.979	262.14
671.39	332.36
671.801	245.76
672.211	299.59
672.622	299.59
673.032	276.18
673.443	362.78
673.853	278.52
674.263	299.59
674.674	341.72
675.084	301.93
675.494	280.86
675.904	271.5
676.314	360.44
676.724	306.61
677.134	339.38
677.544	332.36
677.953	327.67
678.363	250.44
678.773	318.31
679.182	334.7
679.592	334.7
680.001	332.36
680.411	322.99
680.82	313.63
681.23	308.95
681.639	285.55
682.048	334.7
682.457	306.61
682.866	344.06
683.275	313.63
683.684	395.55
684.093	322.99
684.502	290.23
684.911	276.18
685.32	287.89
685.728	259.8
686.137	283.2
686.546	308.95
686.954	287.89
687.363	304.27
687.771	341.72
688.179	334.7
688.588	318.31
688.996	294.91
689.404	292.57
689.812	264.48
690.22	322.99
690.628	308.95
691.036	283.2
691.444	297.25
691.852	330.02
692.26	348.74
692.667	332.36
693.075	339.38
693.483	266.82
693.89	344.06
694.298	283.2
694.705	325.33
695.112	278.52
695.52	353.42
695.927	299.59
696.334	306.61
696.741	304.27
697.148	346.4
697.555	304.27
697.962	327.67
698.369	351.08
698.776	311.29
699.183	271.5
699.59	339.38
699.996	280.86
700.403	292.57
700.81	283.2
701.216	243.42
701.623	330.02
702.029	327.67
702.435	315.97
702.842	301.93
703.248	280.86
703.654	330.02
704.06	234.05
704.466	294.91
704.872	353.42
705.278	299.59
705.684	301.93
706.09	365.12
706.496	264.48
706.901	351.08
707.307	304.27
707.712	400.23
708.118	337.04
708.523	287.89
708.929	339.38
709.334	348.74
709.74	308.95
710.145	374.49
710.55	337.04
710.955	255.12
711.36	334.7
711.765	393.21
712.17	318.31
712.575	294.91
712.98	807.48
713.385	313.63
713.789	313.63
714.194	271.5
714.599	297.25
715.003	315.97
715.408	283.2
715.812	212.99
716.217	313.63
716.621	397.89
717.025	341.72
717.429	292.57
717.833	276.18
718.238	283.2
718.642	344.06
719.046	292.57
719.449	273.84
719.853	292.57
720.257	325.33
720.661	346.4
721.065	311.29
721.468	320.65
721.872	292.57
722.275	294.91
722.679	346.4
723.082	320.65
723.485	320.65
723.889	208.31
724.292	283.2
724.695	318.31
725.098	339.38
725.501	353.42
725.904	301.93
726.307	287.89
726.71	299.59
727.113	222.35
727.516	266.82
727.918	269.16
728.321	308.95
728.724	294.91
729.126	285.55
729.529	283.2
729.931	327.67
730.333	276.18
730.736	245.76
731.138	259.8
731.54	292.57
731.942	308.95
732.344	315.97
732.746	358.1
733.148	374.49
733.55	283.2
733.952	252.78
734.354	285.55
734.756	330.02
735.157	266.82
735.559	241.08
735.96	266.82
736.362	301.93
736.763	269.16
737.165	315.97
737.566	262.14
737.967	292.57
738.368	301.93
738.77	304.27
739.171	290.23
739.572	308.95
739.973	278.52
740.374	334.7
740.774	283.2
741.175	299.59
741.576	299.59
741.977	318.31
742.377	294.91
742.778	255.12
743.178	304.27
743.579	205.97
743.979	369.8
744.379	255.12
744.78	315.97
745.18	334.7
745.58	308.95
745.98	283.2
746.38	320.65
746.78	210.65
747.18	313.63
747.58	248.1
747.98	339.38
748.38	376.83
748.779	301.93
749.179	287.89
749.578	264.48
749.978	306.61
750.377	306.61
750.777	358.1
751.176	210.65
751.575	283.2
751.975	313.63
752.374	304.27
752.773	278.52
753.172	325.33
753.571	297.25
753.97	320.65
754.369	255.12
754.768	285.55
755.166	341.72
755.565	351.08
755.964	344.06
756.362	315.97
756.761	278.52
757.159	315.97
757.558	259.8
757.956	341.72
758.354	262.14
758.753	248.1
759.151	271.5
759.549	271.5
759.947	311.29
760.345	285.55
760.743	306.61
761.141	252.78
761.539	351.08
761.936	283.2
762.334	320.65
762.732	229.37
763.129	304.27
763.527	311.29
763.924	325.33
764.322	259.8
764.719	311.29
765.117	292.57
765.514	292.57
