Data from Al_FLMS009871__373__12-32-02-827.txt Node

Date: Fri Mar 08 12:32:02 CST 2024
User: pe5414po
Spectrometer: FLMS00987
Trigger mode: 0
Integration Time (sec): 1.000000E-1
Scans to average: 1
Electric dark correction enabled: true
Nonlinearity correction enabled: false
Boxcar width: 0
XAxis mode: Wavelengths
Number of Pixels in Spectrum: 2048
>>>>>Begin Spectral Data<<<<<
188.938	-59.39
189.409	-59.39
189.879	-59.39
190.349	-134.29
190.819	-141.31
191.29	-155.35
191.76	-31.3
192.23	-87.48
192.7	-57.05
193.17	-57.05
193.64	-7.9
194.109	-57.05
194.579	-52.37
195.049	-5.56
195.519	13.17
195.988	48.27
196.458	17.85
196.927	85.72
197.397	95.08
197.866	104.45
198.336	146.58
198.805	102.11
199.274	155.94
199.744	221.47
200.213	198.07
200.682	223.81
201.151	191.05
201.62	205.09
202.089	251.9
202.558	221.47
203.027	284.67
203.495	296.37
203.964	247.22
204.433	251.9
204.902	275.31
205.37	240.2
205.839	312.75
206.307	296.37
206.776	237.86
207.244	277.65
207.712	298.71
208.181	254.24
208.649	294.03
209.117	310.41
209.585	265.94
210.053	251.9
210.521	235.52
210.989	277.65
211.457	291.69
211.925	282.33
212.393	298.71
212.861	329.14
213.328	284.67
213.796	202.75
214.264	244.88
214.731	275.31
215.199	263.6
215.666	198.07
216.133	237.86
216.601	301.05
217.068	319.78
217.535	310.41
218.003	315.09
218.47	324.46
218.937	291.69
219.404	254.24
219.871	296.37
220.338	228.49
220.805	223.81
221.271	235.52
221.738	235.52
222.205	279.99
222.671	315.09
223.138	298.71
223.605	296.37
224.071	258.92
224.538	261.26
225.004	195.73
225.47	209.77
225.937	261.26
226.403	279.99
226.869	279.99
227.335	214.45
227.801	240.2
228.267	331.48
228.733	237.86
229.199	205.09
229.665	294.03
230.131	298.71
230.597	268.28
231.062	301.05
231.528	209.77
231.994	240.2
232.459	317.44
232.925	284.67
233.39	291.69
233.856	287.01
234.321	317.44
234.786	242.54
235.252	221.47
235.717	235.52
236.182	298.71
236.647	261.26
237.112	256.58
237.577	270.62
238.042	268.28
238.507	228.49
238.972	256.58
239.436	277.65
239.901	233.18
240.366	294.03
240.83	305.73
241.295	249.56
241.76	294.03
242.224	214.45
242.688	254.24
243.153	251.9
243.617	265.94
244.081	212.11
244.545	303.39
245.01	282.33
245.474	242.54
245.938	244.88
246.402	270.62
246.866	268.28
247.33	268.28
247.793	270.62
248.257	249.56
248.721	298.71
249.185	265.94
249.648	326.8
250.112	265.94
250.575	261.26
251.039	289.35
251.502	240.2
251.965	223.81
252.429	249.56
252.892	237.86
253.355	284.67
253.818	256.58
254.281	209.77
254.744	294.03
255.207	287.01
255.67	249.56
256.133	305.73
256.596	291.69
257.059	277.65
257.522	256.58
257.984	298.71
258.447	195.73
258.909	249.56
259.372	265.94
259.834	277.65
260.297	284.67
260.759	322.12
261.221	308.07
261.684	329.14
262.146	317.44
262.608	277.65
263.07	291.69
263.532	284.67
263.994	235.52
264.456	326.8
264.918	289.35
265.38	263.6
265.842	282.33
266.303	254.24
266.765	303.39
267.227	336.16
267.688	272.96
268.15	291.69
268.611	268.28
269.072	272.96
269.534	275.31
269.995	324.46
270.456	244.88
270.918	279.99
271.379	287.01
271.84	277.65
272.301	265.94
272.762	268.28
273.223	298.71
273.684	265.94
274.144	294.03
274.605	291.69
275.066	322.12
275.527	233.18
275.987	282.33
276.448	291.69
276.908	324.46
277.369	263.6
277.829	308.07
278.289	240.2
278.75	315.09
279.21	298.71
279.67	352.54
280.13	279.99
280.59	317.44
281.05	256.58
281.51	298.71
281.97	284.67
282.43	284.67
282.89	233.18
283.35	268.28
283.809	270.62
284.269	347.86
284.729	272.96
285.188	298.71
285.648	275.31
286.107	289.35
286.567	315.09
287.026	287.01
287.485	298.71
287.944	347.86
288.404	270.62
288.863	322.12
289.322	308.07
289.781	279.99
290.24	240.2
290.699	317.44
291.158	291.69
291.616	336.16
292.075	331.48
292.534	326.8
292.992	270.62
293.451	235.52
293.91	265.94
294.368	329.14
294.827	312.75
295.285	317.44
295.743	315.09
296.202	198.07
296.66	296.37
297.118	282.33
297.576	336.16
298.034	247.22
298.492	268.28
298.95	284.67
299.408	282.33
299.866	261.26
300.324	244.88
300.781	279.99
301.239	301.05
301.697	305.73
302.154	265.94
302.612	310.41
303.069	308.07
303.527	277.65
303.984	331.48
304.441	272.96
304.899	202.75
305.356	265.94
305.813	265.94
306.27	287.01
306.727	258.92
307.184	294.03
307.641	254.24
308.098	263.6
308.555	275.31
309.012	340.84
309.468	315.09
309.925	287.01
310.382	315.09
310.838	244.88
311.295	347.86
311.751	284.67
312.208	284.67
312.664	364.25
313.12	287.01
313.577	291.69
314.033	258.92
314.489	357.22
314.945	392.33
315.401	261.26
315.857	315.09
316.313	392.33
316.769	254.24
317.225	223.81
317.681	275.31
318.136	294.03
318.592	298.71
319.048	249.56
319.503	256.58
319.959	272.96
320.414	272.96
320.869	265.94
321.325	284.67
321.78	263.6
322.235	268.28
322.691	291.69
323.146	329.14
323.601	305.73
324.056	296.37
324.511	303.39
324.966	282.33
325.421	268.28
325.875	322.12
326.33	270.62
326.785	319.78
327.24	268.28
327.694	303.39
328.149	305.73
328.603	317.44
329.058	319.78
329.512	289.35
329.966	282.33
330.421	312.75
330.875	214.45
331.329	287.01
331.783	298.71
332.237	310.41
332.691	305.73
333.145	289.35
333.599	223.81
334.053	219.13
334.507	249.56
334.96	359.56
335.414	289.35
335.868	279.99
336.321	263.6
336.775	368.93
337.228	301.05
337.682	275.31
338.135	265.94
338.588	324.46
339.042	371.27
339.495	315.09
339.948	329.14
340.401	287.01
340.854	308.07
341.307	303.39
341.76	265.94
342.213	310.41
342.666	270.62
343.119	298.71
343.571	254.24
344.024	254.24
344.477	287.01
344.929	294.03
345.382	265.94
345.834	240.2
346.287	343.18
346.739	331.48
347.191	385.31
347.644	324.46
348.096	298.71
348.548	228.49
349	291.69
349.452	319.78
349.904	294.03
350.356	289.35
350.808	305.73
351.26	268.28
351.711	319.78
352.163	272.96
352.615	406.38
353.066	294.03
353.518	317.44
353.969	301.05
354.421	249.56
354.872	249.56
355.324	277.65
355.775	354.88
356.226	319.78
356.677	308.07
357.128	350.2
357.579	289.35
358.03	265.94
358.481	315.09
358.932	312.75
359.383	235.52
359.834	298.71
360.285	291.69
360.735	294.03
361.186	291.69
361.637	244.88
362.087	331.48
362.538	319.78
362.988	287.01
363.438	301.05
363.889	324.46
364.339	385.31
364.789	324.46
365.239	312.75
365.689	361.91
366.139	359.56
366.589	305.73
367.039	294.03
367.489	338.5
367.939	331.48
368.389	329.14
368.839	322.12
369.288	361.91
369.738	371.27
370.187	296.37
370.637	268.28
371.086	310.41
371.536	308.07
371.985	336.16
372.434	345.52
372.884	284.67
373.333	305.73
373.782	322.12
374.231	378.29
374.68	284.67
375.129	263.6
375.578	359.56
376.027	319.78
376.475	291.69
376.924	272.96
377.373	315.09
377.822	347.86
378.27	249.56
378.719	305.73
379.167	310.41
379.616	331.48
380.064	301.05
380.512	279.99
380.961	284.67
381.409	333.82
381.857	249.56
382.305	310.41
382.753	322.12
383.201	277.65
383.649	359.56
384.097	317.44
384.545	291.69
384.992	258.92
385.44	270.62
385.888	352.54
386.335	298.71
386.783	305.73
387.231	294.03
387.678	308.07
388.125	275.31
388.573	298.71
389.02	251.9
389.467	329.14
389.914	312.75
390.362	347.86
390.809	279.99
391.256	359.56
391.703	296.37
392.15	305.73
392.596	357.22
393.043	308.07
393.49	333.82
393.937	331.48
394.383	368.93
394.83	291.69
395.276	354.88
395.723	294.03
396.169	361.91
396.616	315.09
397.062	329.14
397.508	261.26
397.954	282.33
398.401	275.31
398.847	326.8
399.293	296.37
399.739	340.84
400.185	301.05
400.631	375.95
401.076	336.16
401.522	303.39
401.968	277.65
402.414	296.37
402.859	315.09
403.305	317.44
403.75	333.82
404.196	340.84
404.641	294.03
405.086	284.67
405.532	298.71
405.977	312.75
406.422	287.01
406.867	287.01
407.312	296.37
407.757	256.58
408.202	305.73
408.647	317.44
409.092	331.48
409.537	317.44
409.982	338.5
410.426	312.75
410.871	284.67
411.316	277.65
411.76	284.67
412.205	324.46
412.649	347.86
413.093	399.35
413.538	289.35
413.982	301.05
414.426	275.31
414.87	319.78
415.314	340.84
415.758	270.62
416.202	291.69
416.646	333.82
417.09	310.41
417.534	366.59
417.978	289.35
418.421	277.65
418.865	326.8
419.309	324.46
419.752	366.59
420.196	354.88
420.639	378.29
421.083	340.84
421.526	336.16
421.969	347.86
422.412	387.65
422.856	301.05
423.299	277.65
423.742	298.71
424.185	366.59
424.628	366.59
425.071	352.54
425.513	303.39
425.956	382.97
426.399	404.03
426.842	394.67
427.284	279.99
427.727	343.18
428.169	378.29
428.612	357.22
429.054	315.09
429.497	359.56
429.939	364.25
430.381	263.6
430.823	324.46
431.265	401.69
431.707	436.8
432.149	401.69
432.591	385.31
433.033	406.38
433.475	378.29
433.917	457.87
434.359	528.08
434.8	483.61
435.242	530.42
435.684	525.74
436.125	453.19
436.567	446.16
437.008	411.06
437.449	425.1
437.891	389.99
438.332	385.31
438.773	401.69
439.214	467.23
439.656	450.85
440.097	481.27
440.538	450.85
440.978	457.87
441.419	425.1
441.86	511.7
442.301	507.02
442.742	460.21
443.182	518.72
443.623	469.57
444.063	401.69
444.504	516.38
444.944	539.79
445.385	474.25
445.825	460.21
446.265	401.69
446.706	497.66
447.146	467.23
447.586	514.04
448.026	488.29
448.466	471.91
448.906	511.7
449.346	485.95
449.786	434.46
450.225	469.57
450.665	516.38
451.105	467.23
451.544	490.63
451.984	404.03
452.424	446.16
452.863	432.12
453.302	420.42
453.742	516.38
454.181	408.72
454.62	425.1
455.059	436.8
455.499	485.95
455.938	455.53
456.377	434.46
456.816	441.48
457.254	476.59
457.693	439.14
458.132	397.01
458.571	371.27
459.01	404.03
459.448	439.14
459.887	387.65
460.325	460.21
460.764	434.46
461.202	446.16
461.641	429.78
462.079	361.91
462.517	324.46
462.955	441.48
463.393	387.65
463.832	453.19
464.27	406.38
464.708	434.46
465.145	408.72
465.583	347.86
466.021	404.03
466.459	385.31
466.897	343.18
467.334	350.2
467.772	389.99
468.209	380.63
468.647	357.22
469.084	331.48
469.522	357.22
469.959	411.06
470.396	397.01
470.833	366.59
471.271	413.4
471.708	338.5
472.145	392.33
472.582	366.59
473.019	385.31
473.456	432.12
473.892	361.91
474.329	345.52
474.766	422.76
475.202	305.73
475.639	389.99
476.076	387.65
476.512	322.12
476.949	343.18
477.385	368.93
477.821	392.33
478.258	389.99
478.694	394.67
479.13	359.56
479.566	375.95
480.002	382.97
480.438	298.71
480.874	375.95
481.31	380.63
481.746	422.76
482.181	354.88
482.617	420.42
483.053	441.48
483.488	368.93
483.924	347.86
484.36	392.33
484.795	439.14
485.23	380.63
485.666	361.91
486.101	422.76
486.536	401.69
486.971	457.87
487.407	425.1
487.842	401.69
488.277	427.44
488.712	406.38
489.146	415.74
489.581	450.85
490.016	378.29
490.451	336.16
490.885	389.99
491.32	385.31
491.755	394.67
492.189	352.54
492.624	382.97
493.058	406.38
493.492	450.85
493.927	394.67
494.361	471.91
494.795	397.01
495.229	408.72
495.663	422.76
496.097	455.53
496.531	399.35
496.965	446.16
497.399	401.69
497.833	361.91
498.266	392.33
498.7	387.65
499.134	397.01
499.567	448.51
500.001	397.01
500.434	415.74
500.868	361.91
501.301	375.95
501.734	411.06
502.168	413.4
502.601	361.91
503.034	434.46
503.467	385.31
503.9	289.35
504.333	399.35
504.766	359.56
505.199	436.8
505.632	357.22
506.064	429.78
506.497	453.19
506.93	389.99
507.362	401.69
507.795	371.27
508.227	359.56
508.66	385.31
509.092	345.52
509.524	448.51
509.956	354.88
510.389	408.72
510.821	361.91
511.253	453.19
511.685	350.2
512.117	397.01
512.549	397.01
512.981	401.69
513.412	427.44
513.844	422.76
514.276	399.35
514.707	446.16
515.139	453.19
515.571	406.38
516.002	366.59
516.433	312.75
516.865	392.33
517.296	394.67
517.727	432.12
518.159	441.48
518.59	455.53
519.021	453.19
519.452	357.22
519.883	455.53
520.314	446.16
520.744	397.01
521.175	469.57
521.606	385.31
522.037	392.33
522.467	443.82
522.898	338.5
523.328	399.35
523.759	408.72
524.189	439.14
524.62	408.72
525.05	319.78
525.48	415.74
525.91	429.78
526.341	415.74
526.771	476.59
527.201	418.08
527.631	404.03
528.061	406.38
528.49	361.91
528.92	439.14
529.35	382.97
529.78	413.4
530.209	436.8
530.639	406.38
531.068	481.27
531.498	387.65
531.927	427.44
532.357	420.42
532.786	427.44
533.215	413.4
533.644	366.59
534.074	336.16
534.503	425.1
534.932	425.1
535.361	483.61
535.79	399.35
536.218	434.46
536.647	436.8
537.076	399.35
537.505	387.65
537.933	392.33
538.362	460.21
538.79	415.74
539.219	425.1
539.647	539.79
540.076	528.08
540.504	558.51
540.932	525.74
541.36	600.64
541.788	715.33
542.217	722.35
542.645	762.14
543.073	703.62
543.5	642.77
543.928	670.86
544.356	652.13
544.784	755.12
545.211	694.26
545.639	710.65
546.067	635.75
546.494	588.94
546.922	551.49
547.349	549.15
547.776	509.36
548.204	467.23
548.631	518.72
549.058	462.55
549.485	523.4
549.912	469.57
550.339	481.27
550.766	446.16
551.193	488.29
551.62	485.95
552.047	502.34
552.474	464.89
552.9	453.19
553.327	460.21
553.754	425.1
554.18	411.06
554.607	378.29
555.033	427.44
555.459	436.8
555.886	375.95
556.312	373.61
556.738	389.99
557.164	359.56
557.59	411.06
558.016	404.03
558.442	364.25
558.868	364.25
559.294	436.8
559.72	336.16
560.145	389.99
560.571	420.42
560.997	406.38
561.422	392.33
561.848	481.27
562.273	387.65
562.699	443.82
563.124	385.31
563.549	397.01
563.974	389.99
564.4	432.12
564.825	446.16
565.25	436.8
565.675	352.54
566.1	439.14
566.525	399.35
566.95	373.61
567.374	378.29
567.799	378.29
568.224	401.69
568.648	415.74
569.073	392.33
569.497	389.99
569.922	380.63
570.346	368.93
570.771	455.53
571.195	378.29
571.619	392.33
572.043	425.1
572.467	408.72
572.891	411.06
573.315	432.12
573.739	364.25
574.163	394.67
574.587	382.97
575.011	425.1
575.435	418.08
575.858	457.87
576.282	446.16
576.705	434.46
577.129	422.76
577.552	439.14
577.976	476.59
578.399	397.01
578.822	380.63
579.245	385.31
579.669	453.19
580.092	495.32
580.515	357.22
580.938	425.1
581.361	450.85
581.784	460.21
582.206	420.42
582.629	511.7
583.052	492.98
583.474	422.76
583.897	375.95
584.32	368.93
584.742	471.91
585.165	439.14
585.587	422.76
586.009	422.76
586.431	469.57
586.854	446.16
587.276	462.55
587.698	418.08
588.12	389.99
588.542	394.67
588.964	439.14
589.386	455.53
589.807	392.33
590.229	485.95
590.651	422.76
591.073	439.14
591.494	397.01
591.916	434.46
592.337	378.29
592.759	432.12
593.18	415.74
593.601	413.4
594.022	352.54
594.444	357.22
594.865	380.63
595.286	371.27
595.707	366.59
596.128	340.84
596.549	361.91
596.97	406.38
597.39	401.69
597.811	343.18
598.232	361.91
598.652	392.33
599.073	450.85
599.494	382.97
599.914	397.01
600.334	382.97
600.755	415.74
601.175	352.54
601.595	378.29
602.015	361.91
602.436	429.78
602.856	483.61
603.276	340.84
603.696	380.63
604.115	359.56
604.535	336.16
604.955	289.35
605.375	375.95
605.794	373.61
606.214	408.72
606.634	368.93
607.053	448.51
607.473	413.4
607.892	382.97
608.311	359.56
608.731	464.89
609.15	490.63
609.569	591.28
609.988	518.72
610.407	741.07
610.826	790.22
611.245	787.88
611.664	736.39
612.083	712.99
612.501	656.81
612.92	633.41
613.339	600.64
613.757	574.89
614.176	492.98
614.594	474.25
615.013	411.06
615.431	474.25
615.85	418.08
616.268	392.33
616.686	453.19
617.104	387.65
617.522	387.65
617.94	415.74
618.358	368.93
618.776	380.63
619.194	441.48
619.612	399.35
620.03	427.44
620.447	324.46
620.865	387.65
621.282	389.99
621.7	401.69
622.117	411.06
622.535	392.33
622.952	436.8
623.369	336.16
623.787	368.93
624.204	350.2
624.621	382.97
625.038	364.25
625.455	411.06
625.872	375.95
626.289	347.86
626.706	406.38
627.123	364.25
627.539	354.88
627.956	413.4
628.373	305.73
628.789	347.86
629.206	345.52
629.622	340.84
630.038	404.03
630.455	373.61
630.871	389.99
631.287	387.65
631.703	427.44
632.12	389.99
632.536	411.06
632.952	359.56
633.368	413.4
633.783	336.16
634.199	322.12
634.615	378.29
635.031	301.05
635.446	338.5
635.862	322.12
636.277	347.86
636.693	385.31
637.108	399.35
637.524	361.91
637.939	301.05
638.354	329.14
638.77	301.05
639.185	317.44
639.6	317.44
640.015	338.5
640.43	305.73
640.845	315.09
641.259	270.62
641.674	368.93
642.089	272.96
642.504	284.67
642.918	279.99
643.333	308.07
643.747	305.73
644.162	347.86
644.576	324.46
644.991	392.33
645.405	336.16
645.819	345.52
646.233	394.67
646.647	415.74
647.061	289.35
647.475	350.2
647.889	397.01
648.303	301.05
648.717	319.78
649.131	336.16
649.545	343.18
649.958	296.37
650.372	338.5
650.785	310.41
651.199	340.84
651.612	350.2
652.026	331.48
652.439	291.69
652.852	310.41
653.266	329.14
653.679	343.18
654.092	287.01
654.505	375.95
654.918	371.27
655.331	366.59
655.744	294.03
656.156	298.71
656.569	352.54
656.982	354.88
657.394	310.41
657.807	343.18
658.22	331.48
658.632	312.75
659.044	303.39
659.457	319.78
659.869	340.84
660.281	282.33
660.693	343.18
661.106	287.01
661.518	324.46
661.93	305.73
662.342	333.82
662.754	368.93
663.165	350.2
663.577	336.16
663.989	382.97
664.401	284.67
664.812	305.73
665.224	324.46
665.635	303.39
666.047	340.84
666.458	291.69
666.869	298.71
667.281	265.94
667.692	333.82
668.103	319.78
668.514	305.73
668.925	364.25
669.336	333.82
669.747	331.48
670.158	301.05
670.569	350.2
670.979	298.71
671.39	345.52
671.801	216.79
672.211	263.6
672.622	268.28
673.032	350.2
673.443	298.71
673.853	324.46
674.263	296.37
674.674	289.35
675.084	310.41
675.494	294.03
675.904	284.67
676.314	279.99
676.724	284.67
677.134	310.41
677.544	301.05
677.953	324.46
678.363	340.84
678.773	366.59
679.182	338.5
679.592	291.69
680.001	312.75
680.411	338.5
680.82	324.46
681.23	413.4
681.639	305.73
682.048	315.09
682.457	310.41
682.866	308.07
683.275	282.33
683.684	364.25
684.093	275.31
684.502	254.24
684.911	331.48
685.32	338.5
685.728	289.35
686.137	287.01
686.546	291.69
686.954	319.78
687.363	371.27
687.771	270.62
688.179	312.75
688.588	296.37
688.996	287.01
689.404	298.71
689.812	359.56
690.22	324.46
690.628	312.75
691.036	261.26
691.444	279.99
691.852	287.01
692.26	387.65
692.667	319.78
693.075	256.58
693.483	279.99
693.89	275.31
694.298	287.01
694.705	329.14
695.112	310.41
695.52	354.88
695.927	291.69
696.334	308.07
696.741	272.96
697.148	268.28
697.555	326.8
697.962	305.73
698.369	256.58
698.776	357.22
699.183	308.07
699.59	378.29
699.996	294.03
700.403	380.63
700.81	244.88
701.216	284.67
701.623	347.86
702.029	301.05
702.435	350.2
702.842	296.37
703.248	272.96
703.654	272.96
704.06	371.27
704.466	315.09
704.872	298.71
705.278	310.41
705.684	301.05
706.09	312.75
706.496	364.25
706.901	331.48
707.307	301.05
707.712	310.41
708.118	333.82
708.523	364.25
708.929	380.63
709.334	352.54
709.74	287.01
710.145	298.71
710.55	294.03
710.955	317.44
711.36	326.8
711.765	406.38
712.17	373.61
712.575	343.18
712.98	804.27
713.385	368.93
713.789	357.22
714.194	331.48
714.599	294.03
715.003	312.75
715.408	301.05
715.812	315.09
716.217	296.37
716.621	272.96
717.025	291.69
717.429	338.5
717.833	350.2
718.238	336.16
718.642	268.28
719.046	296.37
719.449	254.24
719.853	333.82
720.257	279.99
720.661	261.26
721.065	298.71
721.468	296.37
721.872	331.48
722.275	256.58
722.679	303.39
723.082	294.03
723.485	261.26
723.889	324.46
724.292	287.01
724.695	254.24
725.098	329.14
725.501	317.44
725.904	265.94
726.307	256.58
726.71	258.92
727.113	357.22
727.516	331.48
727.918	291.69
728.321	338.5
728.724	326.8
729.126	315.09
729.529	375.95
729.931	389.99
730.333	333.82
730.736	322.12
731.138	275.31
731.54	272.96
731.942	279.99
732.344	303.39
732.746	329.14
733.148	375.95
733.55	329.14
733.952	322.12
734.354	361.91
734.756	287.01
735.157	315.09
735.559	287.01
735.96	240.2
736.362	336.16
736.763	294.03
737.165	308.07
737.566	340.84
737.967	237.86
738.368	364.25
738.77	287.01
739.171	308.07
739.572	315.09
739.973	329.14
740.374	322.12
740.774	275.31
741.175	326.8
741.576	326.8
741.977	338.5
742.377	352.54
742.778	305.73
743.178	265.94
743.579	359.56
743.979	291.69
744.379	345.52
744.78	317.44
745.18	324.46
745.58	235.52
745.98	315.09
746.38	275.31
746.78	279.99
747.18	308.07
747.58	282.33
747.98	265.94
748.38	352.54
748.779	312.75
749.179	247.22
749.578	272.96
749.978	329.14
750.377	359.56
750.777	277.65
751.176	305.73
751.575	249.56
751.975	315.09
752.374	347.86
752.773	284.67
753.172	322.12
753.571	312.75
753.97	322.12
754.369	310.41
754.768	333.82
755.166	310.41
755.565	282.33
755.964	324.46
756.362	324.46
756.761	350.2
757.159	305.73
757.558	352.54
757.956	251.9
758.354	284.67
758.753	305.73
759.151	373.61
759.549	331.48
759.947	303.39
760.345	394.67
760.743	317.44
761.141	294.03
761.539	310.41
761.936	329.14
762.334	324.46
762.732	317.44
763.129	287.01
763.527	319.78
763.924	380.63
