Data from Al_FLMS009871__807__15-24-56-707.txt Node

Date: Fri Mar 08 15:24:56 CST 2024
User: pe5414po
Spectrometer: FLMS00987
Trigger mode: 0
Integration Time (sec): 1.000000E-1
Scans to average: 1
Electric dark correction enabled: true
Nonlinearity correction enabled: false
Boxcar width: 0
XAxis mode: Wavelengths
Number of Pixels in Spectrum: 2048
>>>>>Begin Spectral Data<<<<<
188.938	-46.66
189.409	-46.66
189.879	-46.66
190.349	-112.2
190.819	-91.13
191.29	-88.79
191.76	-81.77
192.23	-88.79
192.7	-102.84
193.17	-18.58
193.64	-2.19
194.109	-4.53
194.579	-30.28
195.049	4.83
195.519	-4.53
195.988	-20.92
196.458	39.94
196.927	72.7
197.397	72.7
197.866	161.64
198.336	91.43
198.805	182.71
199.274	203.77
199.744	199.09
200.213	224.84
200.682	185.05
201.151	264.63
201.62	273.99
202.089	210.79
202.558	271.65
203.027	227.18
203.495	285.69
203.964	257.61
204.433	320.8
204.902	262.29
205.37	351.23
205.839	259.95
206.307	316.12
206.776	309.1
207.244	295.05
207.712	259.95
208.181	334.84
208.649	259.95
209.117	360.59
209.585	273.99
210.053	273.99
210.521	292.71
210.989	306.76
211.457	269.31
211.925	295.05
212.393	313.78
212.861	313.78
213.328	325.48
213.796	316.12
214.264	292.71
214.731	316.12
215.199	339.52
215.666	325.48
216.133	311.44
216.601	281.01
217.068	302.08
217.535	295.05
218.003	278.67
218.47	355.91
218.937	285.69
219.404	369.95
219.871	330.16
220.338	311.44
220.805	281.01
221.271	292.71
221.738	283.35
222.205	299.73
222.671	313.78
223.138	210.79
223.605	229.52
224.071	285.69
224.538	252.92
225.004	316.12
225.47	311.44
225.937	273.99
226.403	245.9
226.869	304.42
227.335	273.99
227.801	187.39
228.267	271.65
228.733	266.97
229.199	306.76
229.665	360.59
230.131	285.69
230.597	281.01
231.062	273.99
231.528	278.67
231.994	288.03
232.459	269.31
232.925	281.01
233.39	318.46
233.856	255.26
234.321	250.58
234.786	339.52
235.252	220.16
235.717	365.27
236.182	313.78
236.647	320.8
237.112	309.1
237.577	297.39
238.042	229.52
238.507	330.16
238.972	299.73
239.436	299.73
239.901	348.89
240.366	316.12
240.83	262.29
241.295	262.29
241.76	257.61
242.224	271.65
242.688	227.18
243.153	309.1
243.617	206.11
244.081	273.99
244.545	243.56
245.01	313.78
245.474	327.82
245.938	309.1
246.402	281.01
246.866	252.92
247.33	306.76
247.793	379.31
248.257	290.37
248.721	304.42
249.185	252.92
249.648	255.26
250.112	344.21
250.575	281.01
251.039	306.76
251.502	276.33
251.965	304.42
252.429	297.39
252.892	276.33
253.355	367.61
253.818	288.03
254.281	231.86
254.744	306.76
255.207	302.08
255.67	313.78
256.133	306.76
256.596	273.99
257.059	297.39
257.522	281.01
257.984	311.44
258.447	288.03
258.909	323.14
259.372	273.99
259.834	304.42
260.297	276.33
260.759	306.76
261.221	339.52
261.684	351.23
262.146	330.16
262.608	325.48
263.07	353.57
263.532	281.01
263.994	259.95
264.456	323.14
264.918	339.52
265.38	330.16
265.842	332.5
266.303	372.29
266.765	306.76
267.227	238.88
267.688	327.82
268.15	316.12
268.611	297.39
269.072	302.08
269.534	353.57
269.995	304.42
270.456	297.39
270.918	283.35
271.379	327.82
271.84	306.76
272.301	292.71
272.762	245.9
273.223	257.61
273.684	313.78
274.144	306.76
274.605	313.78
275.066	323.14
275.527	302.08
275.987	250.58
276.448	330.16
276.908	358.25
277.369	334.84
277.829	299.73
278.289	250.58
278.75	276.33
279.21	295.05
279.67	362.93
280.13	304.42
280.59	376.97
281.05	311.44
281.51	395.7
281.97	372.29
282.43	316.12
282.89	304.42
283.35	238.88
283.809	355.91
284.269	311.44
284.729	334.84
285.188	241.22
285.648	245.9
286.107	332.5
286.567	337.18
287.026	306.76
287.485	316.12
287.944	341.86
288.404	386.33
288.863	332.5
289.322	302.08
289.781	353.57
290.24	297.39
290.699	327.82
291.158	311.44
291.616	309.1
292.075	330.16
292.534	273.99
292.992	299.73
293.451	323.14
293.91	337.18
294.368	281.01
294.827	276.33
295.285	355.91
295.743	250.58
296.202	332.5
296.66	337.18
297.118	273.99
297.576	323.14
298.034	292.71
298.492	302.08
298.95	276.33
299.408	299.73
299.866	292.71
300.324	276.33
300.781	266.97
301.239	245.9
301.697	337.18
302.154	313.78
302.612	306.76
303.069	288.03
303.527	318.46
303.984	341.86
304.441	250.58
304.899	297.39
305.356	353.57
305.813	327.82
306.27	334.84
306.727	334.84
307.184	367.61
307.641	372.29
308.098	341.86
308.555	288.03
309.012	344.21
309.468	360.59
309.925	288.03
310.382	306.76
310.838	339.52
311.295	316.12
311.751	320.8
312.208	297.39
312.664	339.52
313.12	327.82
313.577	348.89
314.033	295.05
314.489	334.84
314.945	281.01
315.401	248.24
315.857	309.1
316.313	353.57
316.769	297.39
317.225	332.5
317.681	334.84
318.136	323.14
318.592	330.16
319.048	269.31
319.503	278.67
319.959	362.93
320.414	259.95
320.869	290.37
321.325	297.39
321.78	386.33
322.235	292.71
322.691	311.44
323.146	369.95
323.601	330.16
324.056	337.18
324.511	299.73
324.966	369.95
325.421	316.12
325.875	271.65
326.33	252.92
326.785	398.04
327.24	423.78
327.694	241.22
328.149	341.86
328.603	355.91
329.058	297.39
329.512	323.14
329.966	236.54
330.421	259.95
330.875	327.82
331.329	334.84
331.783	320.8
332.237	323.14
332.691	339.52
333.145	355.91
333.599	306.76
334.053	360.59
334.507	264.63
334.96	383.99
335.414	299.73
335.868	306.76
336.321	302.08
336.775	313.78
337.228	379.31
337.682	327.82
338.135	306.76
338.588	295.05
339.042	344.21
339.495	297.39
339.948	257.61
340.401	325.48
340.854	339.52
341.307	320.8
341.76	330.16
342.213	227.18
342.666	302.08
343.119	351.23
343.571	304.42
344.024	309.1
344.477	304.42
344.929	337.18
345.382	320.8
345.834	339.52
346.287	332.5
346.739	311.44
347.191	323.14
347.644	341.86
348.096	369.95
348.548	353.57
349	271.65
349.452	316.12
349.904	306.76
350.356	297.39
350.808	330.16
351.26	299.73
351.711	311.44
352.163	269.31
352.615	362.93
353.066	346.55
353.518	365.27
353.969	360.59
354.421	334.84
354.872	358.25
355.324	295.05
355.775	299.73
356.226	358.25
356.677	288.03
357.128	262.29
357.579	269.31
358.03	299.73
358.481	323.14
358.932	311.44
359.383	369.95
359.834	344.21
360.285	365.27
360.735	348.89
361.186	318.46
361.637	264.63
362.087	302.08
362.538	327.82
362.988	323.14
363.438	374.63
363.889	360.59
364.339	281.01
364.789	369.95
365.239	362.93
365.689	355.91
366.139	306.76
366.589	323.14
367.039	316.12
367.489	376.97
367.939	299.73
368.389	330.16
368.839	367.61
369.288	273.99
369.738	266.97
370.187	313.78
370.637	271.65
371.086	346.55
371.536	313.78
371.985	344.21
372.434	250.58
372.884	271.65
373.333	351.23
373.782	395.7
374.231	311.44
374.68	376.97
375.129	295.05
375.578	353.57
376.027	276.33
376.475	266.97
376.924	383.99
377.373	311.44
377.822	395.7
378.27	320.8
378.719	372.29
379.167	332.5
379.616	318.46
380.064	374.63
380.512	304.42
380.961	264.63
381.409	325.48
381.857	346.55
382.305	309.1
382.753	320.8
383.201	323.14
383.649	320.8
384.097	360.59
384.545	337.18
384.992	327.82
385.44	292.71
385.888	346.55
386.335	372.29
386.783	299.73
387.231	346.55
387.678	327.82
388.125	304.42
388.573	330.16
389.02	327.82
389.467	313.78
389.914	327.82
390.362	362.93
390.809	323.14
391.256	318.46
391.703	339.52
392.15	323.14
392.596	348.89
393.043	339.52
393.49	360.59
393.937	365.27
394.383	330.16
394.83	323.14
395.276	318.46
395.723	278.67
396.169	299.73
396.616	332.5
397.062	353.57
397.508	383.99
397.954	348.89
398.401	323.14
398.847	344.21
399.293	344.21
399.739	304.42
400.185	327.82
400.631	391.02
401.076	372.29
401.522	311.44
401.968	362.93
402.414	388.68
402.859	362.93
403.305	306.76
403.75	276.33
404.196	391.02
404.641	381.65
405.086	353.57
405.532	339.52
405.977	302.08
406.422	376.97
406.867	316.12
407.312	269.31
407.757	365.27
408.202	313.78
408.647	252.92
409.092	264.63
409.537	325.48
409.982	355.91
410.426	297.39
410.871	285.69
411.316	360.59
411.76	325.48
412.205	304.42
412.649	330.16
413.093	269.31
413.538	316.12
413.982	353.57
414.426	316.12
414.87	341.86
415.314	376.97
415.758	339.52
416.202	358.25
416.646	311.44
417.09	348.89
417.534	388.68
417.978	285.69
418.421	290.37
418.865	295.05
419.309	332.5
419.752	325.48
420.196	330.16
420.639	351.23
421.083	376.97
421.526	334.84
421.969	353.57
422.412	337.18
422.856	334.84
423.299	332.5
423.742	348.89
424.185	325.48
424.628	351.23
425.071	395.7
425.513	283.35
425.956	271.65
426.399	325.48
426.842	353.57
427.284	346.55
427.727	337.18
428.169	313.78
428.612	372.29
429.054	344.21
429.497	355.91
429.939	299.73
430.381	344.21
430.823	358.25
431.265	339.52
431.707	304.42
432.149	332.5
432.591	344.21
433.033	341.86
433.475	360.59
433.917	419.1
434.359	259.95
434.8	334.84
435.242	302.08
435.684	339.52
436.125	395.7
436.567	273.99
437.008	353.57
437.449	355.91
437.891	323.14
438.332	365.27
438.773	271.65
439.214	348.89
439.656	299.73
440.097	344.21
440.538	276.33
440.978	360.59
441.419	332.5
441.86	365.27
442.301	367.61
442.742	344.21
443.182	372.29
443.623	381.65
444.063	369.95
444.504	313.78
444.944	339.52
445.385	330.16
445.825	273.99
446.265	278.67
446.706	358.25
447.146	323.14
447.586	299.73
448.026	252.92
448.466	297.39
448.906	290.37
449.346	297.39
449.786	337.18
450.225	383.99
450.665	367.61
451.105	295.05
451.544	386.33
451.984	318.46
452.424	295.05
452.863	355.91
453.302	358.25
453.742	351.23
454.181	285.69
454.62	302.08
455.059	309.1
455.499	346.55
455.938	330.16
456.377	334.84
456.816	346.55
457.254	337.18
457.693	323.14
458.132	295.05
458.571	316.12
459.01	318.46
459.448	309.1
459.887	297.39
460.325	330.16
460.764	339.52
461.202	341.86
461.641	313.78
462.079	362.93
462.517	323.14
462.955	369.95
463.393	381.65
463.832	320.8
464.27	325.48
464.708	339.52
465.145	302.08
465.583	353.57
466.021	337.18
466.459	372.29
466.897	323.14
467.334	323.14
467.772	348.89
468.209	299.73
468.647	330.16
469.084	339.52
469.522	362.93
469.959	229.52
470.396	360.59
470.833	313.78
471.271	309.1
471.708	339.52
472.145	334.84
472.582	344.21
473.019	306.76
473.456	355.91
473.892	276.33
474.329	348.89
474.766	344.21
475.202	334.84
475.639	435.49
476.076	367.61
476.512	407.4
476.949	320.8
477.385	330.16
477.821	292.71
478.258	318.46
478.694	362.93
479.13	346.55
479.566	365.27
480.002	365.27
480.438	369.95
480.874	348.89
481.31	318.46
481.746	285.69
482.181	327.82
482.617	348.89
483.053	337.18
483.488	276.33
483.924	311.44
484.36	374.63
484.795	332.5
485.23	355.91
485.666	311.44
486.101	341.86
486.536	337.18
486.971	297.39
487.407	337.18
487.842	313.78
488.277	386.33
488.712	369.95
489.146	316.12
489.581	365.27
490.016	311.44
490.451	351.23
490.885	316.12
491.32	344.21
491.755	369.95
492.189	341.86
492.624	367.61
493.058	423.78
493.492	325.48
493.927	306.76
494.361	306.76
494.795	351.23
495.229	313.78
495.663	334.84
496.097	344.21
496.531	330.16
496.965	320.8
497.399	302.08
497.833	348.89
498.266	367.61
498.7	323.14
499.134	313.78
499.567	346.55
500.001	351.23
500.434	337.18
500.868	292.71
501.301	344.21
501.734	295.05
502.168	348.89
502.601	309.1
503.034	304.42
503.467	330.16
503.9	302.08
504.333	313.78
504.766	379.31
505.199	372.29
505.632	323.14
506.064	355.91
506.497	292.71
506.93	339.52
507.362	362.93
507.795	381.65
508.227	355.91
508.66	355.91
509.092	379.31
509.524	269.31
509.956	358.25
510.389	332.5
510.821	238.88
511.253	348.89
511.685	334.84
512.117	327.82
512.549	306.76
512.981	372.29
513.412	351.23
513.844	325.48
514.276	327.82
514.707	358.25
515.139	353.57
515.571	273.99
516.002	292.71
516.433	365.27
516.865	355.91
517.296	339.52
517.727	323.14
518.159	327.82
518.59	351.23
519.021	346.55
519.452	351.23
519.883	372.29
520.314	332.5
520.744	297.39
521.175	360.59
521.606	348.89
522.037	320.8
522.467	306.76
522.898	245.9
523.328	316.12
523.759	309.1
524.189	309.1
524.62	353.57
525.05	304.42
525.48	362.93
525.91	318.46
526.341	360.59
526.771	353.57
527.201	283.35
527.631	316.12
528.061	309.1
528.49	348.89
528.92	358.25
529.35	295.05
529.78	302.08
530.209	388.68
530.639	332.5
531.068	337.18
531.498	302.08
531.927	323.14
532.357	306.76
532.786	302.08
533.215	327.82
533.644	360.59
534.074	353.57
534.503	330.16
534.932	309.1
535.361	327.82
535.79	334.84
536.218	353.57
536.647	313.78
537.076	313.78
537.505	318.46
537.933	409.74
538.362	339.52
538.79	227.18
539.219	362.93
539.647	355.91
540.076	353.57
540.504	341.86
540.932	281.01
541.36	334.84
541.788	355.91
542.217	381.65
542.645	320.8
543.073	276.33
543.5	339.52
543.928	313.78
544.356	330.16
544.784	327.82
545.211	320.8
545.639	346.55
546.067	339.52
546.494	323.14
546.922	337.18
547.349	313.78
547.776	383.99
548.204	341.86
548.631	325.48
549.058	398.04
549.485	405.06
549.912	332.5
550.339	344.21
550.766	334.84
551.193	386.33
551.62	327.82
552.047	358.25
552.474	386.33
552.9	339.52
553.327	281.01
553.754	365.27
554.18	369.95
554.607	383.99
555.033	332.5
555.459	285.69
555.886	318.46
556.312	353.57
556.738	309.1
557.164	330.16
557.59	376.97
558.016	295.05
558.442	348.89
558.868	290.37
559.294	304.42
559.72	341.86
560.145	358.25
560.571	309.1
560.997	299.73
561.422	358.25
561.848	316.12
562.273	360.59
562.699	416.76
563.124	304.42
563.549	327.82
563.974	316.12
564.4	311.44
564.825	325.48
565.25	391.02
565.675	388.68
566.1	348.89
566.525	435.49
566.95	283.35
567.374	367.61
567.799	297.39
568.224	266.97
568.648	419.1
569.073	346.55
569.497	295.05
569.922	348.89
570.346	339.52
570.771	391.02
571.195	346.55
571.619	405.06
572.043	383.99
572.467	369.95
572.891	292.71
573.315	369.95
573.739	309.1
574.163	271.65
574.587	288.03
575.011	374.63
575.435	311.44
575.858	332.5
576.282	327.82
576.705	353.57
577.129	351.23
577.552	355.91
577.976	358.25
578.399	281.01
578.822	306.76
579.245	320.8
579.669	248.24
580.092	295.05
580.515	323.14
580.938	344.21
581.361	374.63
581.784	367.61
582.206	362.93
582.629	311.44
583.052	348.89
583.474	332.5
583.897	313.78
584.32	316.12
584.742	285.69
585.165	323.14
585.587	306.76
586.009	348.89
586.431	334.84
586.854	306.76
587.276	311.44
587.698	302.08
588.12	281.01
588.542	250.58
588.964	414.42
589.386	341.86
589.807	346.55
590.229	369.95
590.651	311.44
591.073	365.27
591.494	391.02
591.916	369.95
592.337	344.21
592.759	332.5
593.18	346.55
593.601	358.25
594.022	306.76
594.444	288.03
594.865	334.84
595.286	327.82
595.707	295.05
596.128	334.84
596.549	362.93
596.97	376.97
597.39	327.82
597.811	348.89
598.232	306.76
598.652	386.33
599.073	355.91
599.494	412.08
599.914	355.91
600.334	334.84
600.755	332.5
601.175	337.18
601.595	290.37
602.015	285.69
602.436	320.8
602.856	461.23
603.276	323.14
603.696	337.18
604.115	367.61
604.535	374.63
604.955	369.95
605.375	316.12
605.794	290.37
606.214	262.29
606.634	346.55
607.053	283.35
607.473	292.71
607.892	276.33
608.311	332.5
608.731	337.18
609.15	285.69
609.569	318.46
609.988	302.08
610.407	334.84
610.826	337.18
611.245	316.12
611.664	323.14
612.083	323.14
612.501	353.57
612.92	351.23
613.339	353.57
613.757	414.42
614.176	339.52
614.594	311.44
615.013	334.84
615.431	376.97
615.85	290.37
616.268	351.23
616.686	369.95
617.104	386.33
617.522	309.1
617.94	360.59
618.358	353.57
618.776	376.97
619.194	379.31
619.612	285.69
620.03	316.12
620.447	283.35
620.865	295.05
621.282	311.44
621.7	316.12
622.117	316.12
622.535	341.86
622.952	292.71
623.369	355.91
623.787	358.25
624.204	311.44
624.621	325.48
625.038	341.86
625.455	313.78
625.872	318.46
626.289	388.68
626.706	358.25
627.123	250.58
627.539	302.08
627.956	313.78
628.373	437.83
628.789	332.5
629.206	367.61
629.622	355.91
630.038	334.84
630.455	367.61
630.871	339.52
631.287	369.95
631.703	299.73
632.12	358.25
632.536	281.01
632.952	365.27
633.368	325.48
633.783	327.82
634.199	327.82
634.615	309.1
635.031	318.46
635.446	297.39
635.862	271.65
636.277	299.73
636.693	327.82
637.108	383.99
637.524	353.57
637.939	355.91
638.354	281.01
638.77	281.01
639.185	351.23
639.6	278.67
640.015	351.23
640.43	323.14
640.845	369.95
641.259	306.76
641.674	358.25
642.089	316.12
642.504	311.44
642.918	334.84
643.333	325.48
643.747	299.73
644.162	362.93
644.576	346.55
644.991	325.48
645.405	306.76
645.819	337.18
646.233	334.84
646.647	374.63
647.061	325.48
647.475	325.48
647.889	337.18
648.303	376.97
648.717	383.99
649.131	302.08
649.545	334.84
649.958	351.23
650.372	369.95
650.785	327.82
651.199	313.78
651.612	311.44
652.026	292.71
652.439	306.76
652.852	332.5
653.266	316.12
653.679	299.73
654.092	346.55
654.505	297.39
654.918	334.84
655.331	372.29
655.744	346.55
656.156	337.18
656.569	325.48
656.982	325.48
657.394	311.44
657.807	327.82
658.22	313.78
658.632	348.89
659.044	376.97
659.457	355.91
659.869	383.99
660.281	344.21
660.693	290.37
661.106	341.86
661.518	323.14
661.93	290.37
662.342	386.33
662.754	402.72
663.165	311.44
663.577	297.39
663.989	327.82
664.401	337.18
664.812	234.2
665.224	281.01
665.635	288.03
666.047	355.91
666.458	295.05
666.869	365.27
667.281	304.42
667.692	306.76
668.103	351.23
668.514	376.97
668.925	351.23
669.336	302.08
669.747	353.57
670.158	339.52
670.569	351.23
670.979	334.84
671.39	346.55
671.801	311.44
672.211	323.14
672.622	376.97
673.032	316.12
673.443	416.76
673.853	309.1
674.263	362.93
674.674	309.1
675.084	372.29
675.494	358.25
675.904	346.55
676.314	348.89
676.724	304.42
677.134	311.44
677.544	309.1
677.953	276.33
678.363	337.18
678.773	386.33
679.182	318.46
679.592	337.18
680.001	344.21
680.411	351.23
680.82	383.99
681.23	341.86
681.639	313.78
682.048	330.16
682.457	306.76
682.866	379.31
683.275	316.12
683.684	330.16
684.093	393.36
684.502	433.15
684.911	344.21
685.32	376.97
685.728	290.37
686.137	276.33
686.546	360.59
686.954	250.58
687.363	295.05
687.771	285.69
688.179	311.44
688.588	353.57
688.996	283.35
689.404	339.52
689.812	334.84
690.22	360.59
690.628	362.93
691.036	341.86
691.444	332.5
691.852	316.12
692.26	292.71
692.667	348.89
693.075	376.97
693.483	376.97
693.89	292.71
694.298	369.95
694.705	266.97
695.112	351.23
695.52	281.01
695.927	281.01
696.334	325.48
696.741	316.12
697.148	320.8
697.555	360.59
697.962	365.27
698.369	362.93
698.776	325.48
699.183	327.82
699.59	395.7
699.996	323.14
700.403	278.67
700.81	334.84
701.216	318.46
701.623	327.82
702.029	348.89
702.435	334.84
702.842	353.57
703.248	365.27
703.654	262.29
704.06	374.63
704.466	339.52
704.872	348.89
705.278	426.12
705.684	327.82
706.09	369.95
706.496	341.86
706.901	290.37
707.307	302.08
707.712	323.14
708.118	353.57
708.523	283.35
708.929	304.42
709.334	262.29
709.74	348.89
710.145	348.89
710.55	346.55
710.955	283.35
711.36	299.73
711.765	318.46
712.17	313.78
712.575	271.65
712.98	936.36
713.385	360.59
713.789	323.14
714.194	367.61
714.599	416.76
715.003	327.82
715.408	334.84
715.812	372.29
716.217	337.18
716.621	362.93
717.025	337.18
717.429	362.93
717.833	325.48
718.238	355.91
718.642	344.21
719.046	355.91
719.449	325.48
719.853	316.12
720.257	341.86
720.661	353.57
721.065	262.29
721.468	353.57
721.872	334.84
722.275	344.21
722.679	348.89
723.082	304.42
723.485	362.93
723.889	367.61
724.292	330.16
724.695	304.42
725.098	288.03
725.501	269.31
725.904	327.82
726.307	327.82
726.71	344.21
727.113	372.29
727.516	316.12
727.918	252.92
728.321	374.63
728.724	372.29
729.126	405.06
729.529	334.84
729.931	337.18
730.333	369.95
730.736	297.39
731.138	355.91
731.54	386.33
731.942	360.59
732.344	400.38
732.746	353.57
733.148	309.1
733.55	379.31
733.952	376.97
734.354	348.89
734.756	292.71
735.157	346.55
735.559	353.57
735.96	337.18
736.362	281.01
736.763	346.55
737.165	299.73
737.566	231.86
737.967	257.61
738.368	281.01
738.77	383.99
739.171	262.29
739.572	269.31
739.973	288.03
740.374	318.46
740.774	332.5
741.175	365.27
741.576	273.99
741.977	320.8
742.377	313.78
742.778	339.52
743.178	295.05
743.579	365.27
743.979	285.69
744.379	330.16
744.78	332.5
745.18	306.76
745.58	318.46
745.98	306.76
746.38	327.82
746.78	330.16
747.18	325.48
747.58	309.1
747.98	283.35
748.38	281.01
748.779	309.1
749.179	362.93
749.578	295.05
749.978	327.82
750.377	276.33
750.777	290.37
751.176	292.71
751.575	306.76
751.975	346.55
752.374	339.52
752.773	393.36
753.172	337.18
753.571	302.08
753.97	313.78
754.369	351.23
754.768	332.5
755.166	290.37
755.565	313.78
755.964	316.12
756.362	325.48
756.761	344.21
757.159	355.91
757.558	391.02
757.956	311.44
758.354	348.89
758.753	344.21
759.151	341.86
759.549	292.71
759.947	332.5
760.345	323.14
760.743	344.21
761.141	297.39
761.539	299.73
761.936	325.48
762.334	316.12
762.732	311.44
763.129	367.61
763.527	309.1
763.924	330.16
764.322	372.29
