Data from Al_FLMS009871__816__15-24-57-607.txt Node

Date: Fri Mar 08 15:24:57 CST 2024
User: pe5414po
Spectrometer: FLMS00987
Trigger mode: 0
Integration Time (sec): 1.000000E-1
Scans to average: 1
Electric dark correction enabled: true
Nonlinearity correction enabled: false
Boxcar width: 0
XAxis mode: Wavelengths
Number of Pixels in Spectrum: 2048
>>>>>Begin Spectral Data<<<<<
188.938	-56.03
189.409	-56.03
189.879	-56.03
190.349	-151.99
190.819	-109.86
191.29	-107.52
191.76	-72.41
192.23	-86.45
192.7	-18.58
193.17	-91.13
193.64	-100.5
194.109	-25.6
194.579	-9.22
195.049	-23.26
195.519	2.49
195.988	49.3
196.458	35.25
196.927	46.96
197.397	77.38
197.866	152.28
198.336	171.01
198.805	238.88
199.274	187.39
199.744	231.86
200.213	213.14
200.682	250.58
201.151	297.39
201.62	252.92
202.089	304.42
202.558	201.43
203.027	304.42
203.495	262.29
203.964	220.16
204.433	273.99
204.902	302.08
205.37	250.58
205.839	196.75
206.307	339.52
206.776	264.63
207.244	273.99
207.712	281.01
208.181	257.61
208.649	283.35
209.117	334.84
209.585	283.35
210.053	238.88
210.521	283.35
210.989	259.95
211.457	252.92
211.925	288.03
212.393	292.71
212.861	311.44
213.328	285.69
213.796	295.05
214.264	318.46
214.731	306.76
215.199	283.35
215.666	320.8
216.133	320.8
216.601	187.39
217.068	220.16
217.535	255.26
218.003	273.99
218.47	269.31
218.937	252.92
219.404	194.41
219.871	344.21
220.338	241.22
220.805	295.05
221.271	295.05
221.738	266.97
222.205	238.88
222.671	220.16
223.138	217.82
223.605	217.82
224.071	269.31
224.538	208.45
225.004	236.54
225.47	278.67
225.937	273.99
226.403	295.05
226.869	255.26
227.335	288.03
227.801	309.1
228.267	283.35
228.733	311.44
229.199	227.18
229.665	266.97
230.131	271.65
230.597	250.58
231.062	292.71
231.528	255.26
231.994	255.26
232.459	281.01
232.925	252.92
233.39	297.39
233.856	297.39
234.321	264.63
234.786	206.11
235.252	290.37
235.717	290.37
236.182	290.37
236.647	325.48
237.112	295.05
237.577	238.88
238.042	313.78
238.507	281.01
238.972	248.24
239.436	199.09
239.901	250.58
240.366	273.99
240.83	229.52
241.295	306.76
241.76	339.52
242.224	229.52
242.688	236.54
243.153	264.63
243.617	276.33
244.081	306.76
244.545	273.99
245.01	222.5
245.474	203.77
245.938	255.26
246.402	290.37
246.866	222.5
247.33	210.79
247.793	266.97
248.257	208.45
248.721	285.69
249.185	224.84
249.648	231.86
250.112	213.14
250.575	250.58
251.039	288.03
251.502	299.73
251.965	337.18
252.429	271.65
252.892	285.69
253.355	318.46
253.818	252.92
254.281	323.14
254.744	299.73
255.207	283.35
255.67	299.73
256.133	271.65
256.596	344.21
257.059	327.82
257.522	306.76
257.984	276.33
258.447	323.14
258.909	299.73
259.372	276.33
259.834	295.05
260.297	255.26
260.759	278.67
261.221	262.29
261.684	288.03
262.146	288.03
262.608	334.84
263.07	332.5
263.532	243.56
263.994	309.1
264.456	318.46
264.918	290.37
265.38	311.44
265.842	323.14
266.303	290.37
266.765	332.5
267.227	290.37
267.688	278.67
268.15	320.8
268.611	360.59
269.072	297.39
269.534	327.82
269.995	327.82
270.456	227.18
270.918	264.63
271.379	210.79
271.84	266.97
272.301	309.1
272.762	259.95
273.223	292.71
273.684	278.67
274.144	231.86
274.605	248.24
275.066	281.01
275.527	302.08
275.987	295.05
276.448	327.82
276.908	316.12
277.369	304.42
277.829	306.76
278.289	297.39
278.75	276.33
279.21	262.29
279.67	311.44
280.13	285.69
280.59	238.88
281.05	320.8
281.51	304.42
281.97	297.39
282.43	311.44
282.89	264.63
283.35	269.31
283.809	297.39
284.269	355.91
284.729	231.86
285.188	278.67
285.648	323.14
286.107	290.37
286.567	318.46
287.026	304.42
287.485	346.55
287.944	325.48
288.404	327.82
288.863	252.92
289.322	325.48
289.781	276.33
290.24	346.55
290.699	341.86
291.158	309.1
291.616	290.37
292.075	320.8
292.534	383.99
292.992	269.31
293.451	299.73
293.91	238.88
294.368	273.99
294.827	337.18
295.285	299.73
295.743	285.69
296.202	269.31
296.66	306.76
297.118	290.37
297.576	262.29
298.034	278.67
298.492	266.97
298.95	299.73
299.408	262.29
299.866	332.5
300.324	299.73
300.781	264.63
301.239	276.33
301.697	318.46
302.154	269.31
302.612	281.01
303.069	278.67
303.527	302.08
303.984	285.69
304.441	285.69
304.899	281.01
305.356	304.42
305.813	259.95
306.27	297.39
306.727	288.03
307.184	285.69
307.641	259.95
308.098	281.01
308.555	304.42
309.012	290.37
309.468	334.84
309.925	290.37
310.382	281.01
310.838	320.8
311.295	290.37
311.751	318.46
312.208	379.31
312.664	323.14
313.12	288.03
313.577	379.31
314.033	341.86
314.489	255.26
314.945	376.97
315.401	281.01
315.857	339.52
316.313	344.21
316.769	358.25
317.225	348.89
317.681	309.1
318.136	325.48
318.592	252.92
319.048	344.21
319.503	278.67
319.959	295.05
320.414	309.1
320.869	304.42
321.325	318.46
321.78	271.65
322.235	297.39
322.691	248.24
323.146	325.48
323.601	234.2
324.056	309.1
324.511	295.05
324.966	297.39
325.421	266.97
325.875	281.01
326.33	295.05
326.785	283.35
327.24	299.73
327.694	325.48
328.149	304.42
328.603	311.44
329.058	316.12
329.512	318.46
329.966	332.5
330.421	297.39
330.875	358.25
331.329	276.33
331.783	281.01
332.237	302.08
332.691	351.23
333.145	353.57
333.599	297.39
334.053	369.95
334.507	320.8
334.96	288.03
335.414	323.14
335.868	379.31
336.321	348.89
336.775	334.84
337.228	337.18
337.682	311.44
338.135	259.95
338.588	339.52
339.042	337.18
339.495	285.69
339.948	306.76
340.401	337.18
340.854	264.63
341.307	309.1
341.76	269.31
342.213	365.27
342.666	309.1
343.119	269.31
343.571	323.14
344.024	281.01
344.477	351.23
344.929	271.65
345.382	355.91
345.834	306.76
346.287	285.69
346.739	264.63
347.191	257.61
347.644	262.29
348.096	318.46
348.548	283.35
349	292.71
349.452	283.35
349.904	351.23
350.356	327.82
350.808	269.31
351.26	297.39
351.711	250.58
352.163	330.16
352.615	346.55
353.066	299.73
353.518	304.42
353.969	252.92
354.421	264.63
354.872	266.97
355.324	327.82
355.775	264.63
356.226	332.5
356.677	283.35
357.128	320.8
357.579	313.78
358.03	376.97
358.481	334.84
358.932	283.35
359.383	330.16
359.834	288.03
360.285	273.99
360.735	295.05
361.186	358.25
361.637	297.39
362.087	295.05
362.538	288.03
362.988	297.39
363.438	306.76
363.889	318.46
364.339	292.71
364.789	402.72
365.239	346.55
365.689	346.55
366.139	309.1
366.589	367.61
367.039	355.91
367.489	355.91
367.939	309.1
368.389	323.14
368.839	391.02
369.288	299.73
369.738	318.46
370.187	355.91
370.637	297.39
371.086	332.5
371.536	341.86
371.985	281.01
372.434	304.42
372.884	318.46
373.333	311.44
373.782	250.58
374.231	360.59
374.68	306.76
375.129	290.37
375.578	320.8
376.027	337.18
376.475	311.44
376.924	281.01
377.373	299.73
377.822	358.25
378.27	313.78
378.719	297.39
379.167	337.18
379.616	295.05
380.064	306.76
380.512	353.57
380.961	360.59
381.409	332.5
381.857	278.67
382.305	327.82
382.753	304.42
383.201	320.8
383.649	320.8
384.097	304.42
384.545	276.33
384.992	250.58
385.44	250.58
385.888	344.21
386.335	367.61
386.783	330.16
387.231	309.1
387.678	346.55
388.125	257.61
388.573	297.39
389.02	320.8
389.467	327.82
389.914	281.01
390.362	278.67
390.809	299.73
391.256	302.08
391.703	309.1
392.15	313.78
392.596	355.91
393.043	351.23
393.49	283.35
393.937	355.91
394.383	325.48
394.83	304.42
395.276	273.99
395.723	311.44
396.169	341.86
396.616	313.78
397.062	316.12
397.508	348.89
397.954	306.76
398.401	372.29
398.847	348.89
399.293	266.97
399.739	278.67
400.185	295.05
400.631	271.65
401.076	348.89
401.522	288.03
401.968	276.33
402.414	367.61
402.859	313.78
403.305	353.57
403.75	224.84
404.196	283.35
404.641	259.95
405.086	236.54
405.532	295.05
405.977	327.82
406.422	278.67
406.867	351.23
407.312	334.84
407.757	273.99
408.202	281.01
408.647	337.18
409.092	236.54
409.537	309.1
409.982	306.76
410.426	313.78
410.871	323.14
411.316	283.35
411.76	313.78
412.205	309.1
412.649	330.16
413.093	255.26
413.538	330.16
413.982	288.03
414.426	327.82
414.87	273.99
415.314	288.03
415.758	344.21
416.202	351.23
416.646	309.1
417.09	306.76
417.534	351.23
417.978	341.86
418.421	306.76
418.865	234.2
419.309	281.01
419.752	334.84
420.196	344.21
420.639	332.5
421.083	313.78
421.526	318.46
421.969	313.78
422.412	337.18
422.856	381.65
423.299	367.61
423.742	313.78
424.185	320.8
424.628	299.73
425.071	327.82
425.513	269.31
425.956	288.03
426.399	288.03
426.842	327.82
427.284	271.65
427.727	323.14
428.169	337.18
428.612	313.78
429.054	323.14
429.497	383.99
429.939	344.21
430.381	313.78
430.823	339.52
431.265	334.84
431.707	337.18
432.149	323.14
432.591	325.48
433.033	297.39
433.475	276.33
433.917	332.5
434.359	283.35
434.8	229.52
435.242	323.14
435.684	325.48
436.125	297.39
436.567	306.76
437.008	269.31
437.449	311.44
437.891	262.29
438.332	332.5
438.773	309.1
439.214	355.91
439.656	292.71
440.097	299.73
440.538	283.35
440.978	327.82
441.419	341.86
441.86	306.76
442.301	355.91
442.742	316.12
443.182	309.1
443.623	273.99
444.063	341.86
444.504	337.18
444.944	299.73
445.385	295.05
445.825	311.44
446.265	358.25
446.706	299.73
447.146	295.05
447.586	297.39
448.026	302.08
448.466	283.35
448.906	337.18
449.346	316.12
449.786	365.27
450.225	376.97
450.665	264.63
451.105	313.78
451.544	295.05
451.984	337.18
452.424	339.52
452.863	288.03
453.302	339.52
453.742	339.52
454.181	337.18
454.62	348.89
455.059	309.1
455.499	302.08
455.938	292.71
456.377	341.86
456.816	334.84
457.254	351.23
457.693	273.99
458.132	325.48
458.571	344.21
459.01	313.78
459.448	330.16
459.887	264.63
460.325	323.14
460.764	360.59
461.202	297.39
461.641	255.26
462.079	316.12
462.517	358.25
462.955	320.8
463.393	262.29
463.832	344.21
464.27	318.46
464.708	273.99
465.145	339.52
465.583	318.46
466.021	276.33
466.459	313.78
466.897	297.39
467.334	306.76
467.772	299.73
468.209	273.99
468.647	288.03
469.084	323.14
469.522	369.95
469.959	299.73
470.396	325.48
470.833	295.05
471.271	306.76
471.708	348.89
472.145	323.14
472.582	262.29
473.019	325.48
473.456	323.14
473.892	302.08
474.329	386.33
474.766	257.61
475.202	281.01
475.639	288.03
476.076	316.12
476.512	362.93
476.949	386.33
477.385	266.97
477.821	313.78
478.258	346.55
478.694	313.78
479.13	316.12
479.566	306.76
480.002	292.71
480.438	243.56
480.874	325.48
481.31	341.86
481.746	355.91
482.181	325.48
482.617	360.59
483.053	327.82
483.488	273.99
483.924	360.59
484.36	337.18
484.795	302.08
485.23	313.78
485.666	273.99
486.101	306.76
486.536	369.95
486.971	348.89
487.407	348.89
487.842	330.16
488.277	290.37
488.712	320.8
489.146	269.31
489.581	344.21
490.016	297.39
490.451	337.18
490.885	269.31
491.32	243.56
491.755	337.18
492.189	355.91
492.624	252.92
493.058	285.69
493.492	402.72
493.927	309.1
494.361	281.01
494.795	224.84
495.229	358.25
495.663	323.14
496.097	327.82
496.531	290.37
496.965	285.69
497.399	259.95
497.833	283.35
498.266	281.01
498.7	341.86
499.134	306.76
499.567	426.12
500.001	306.76
500.434	299.73
500.868	316.12
501.301	281.01
501.734	297.39
502.168	281.01
502.601	295.05
503.034	337.18
503.467	271.65
503.9	341.86
504.333	374.63
504.766	358.25
505.199	341.86
505.632	309.1
506.064	358.25
506.497	252.92
506.93	316.12
507.362	320.8
507.795	285.69
508.227	264.63
508.66	304.42
509.092	341.86
509.524	283.35
509.956	325.48
510.389	339.52
510.821	325.48
511.253	362.93
511.685	325.48
512.117	351.23
512.549	334.84
512.981	337.18
513.412	346.55
513.844	281.01
514.276	330.16
514.707	290.37
515.139	309.1
515.571	327.82
516.002	332.5
516.433	381.65
516.865	346.55
517.296	360.59
517.727	313.78
518.159	362.93
518.59	327.82
519.021	318.46
519.452	227.18
519.883	306.76
520.314	332.5
520.744	290.37
521.175	257.61
521.606	358.25
522.037	252.92
522.467	278.67
522.898	295.05
523.328	306.76
523.759	330.16
524.189	309.1
524.62	299.73
525.05	395.7
525.48	276.33
525.91	334.84
526.341	299.73
526.771	337.18
527.201	348.89
527.631	306.76
528.061	388.68
528.49	323.14
528.92	238.88
529.35	250.58
529.78	379.31
530.209	302.08
530.639	348.89
531.068	325.48
531.498	327.82
531.927	302.08
532.357	306.76
532.786	344.21
533.215	313.78
533.644	285.69
534.074	306.76
534.503	299.73
534.932	388.68
535.361	325.48
535.79	292.71
536.218	304.42
536.647	351.23
537.076	288.03
537.505	332.5
537.933	353.57
538.362	358.25
538.79	236.54
539.219	299.73
539.647	288.03
540.076	304.42
540.504	292.71
540.932	320.8
541.36	262.29
541.788	224.84
542.217	241.22
542.645	316.12
543.073	245.9
543.5	290.37
543.928	313.78
544.356	402.72
544.784	346.55
545.211	255.26
545.639	327.82
546.067	302.08
546.494	295.05
546.922	318.46
547.349	330.16
547.776	369.95
548.204	288.03
548.631	250.58
549.058	332.5
549.485	334.84
549.912	273.99
550.339	266.97
550.766	285.69
551.193	292.71
551.62	360.59
552.047	288.03
552.474	292.71
552.9	259.95
553.327	330.16
553.754	348.89
554.18	402.72
554.607	297.39
555.033	327.82
555.459	339.52
555.886	362.93
556.312	327.82
556.738	346.55
557.164	355.91
557.59	269.31
558.016	341.86
558.442	290.37
558.868	309.1
559.294	266.97
559.72	299.73
560.145	358.25
560.571	309.1
560.997	309.1
561.422	264.63
561.848	281.01
562.273	245.9
562.699	248.24
563.124	318.46
563.549	344.21
563.974	313.78
564.4	311.44
564.825	339.52
565.25	309.1
565.675	262.29
566.1	320.8
566.525	316.12
566.95	316.12
567.374	266.97
567.799	299.73
568.224	362.93
568.648	262.29
569.073	355.91
569.497	320.8
569.922	360.59
570.346	318.46
570.771	355.91
571.195	346.55
571.619	283.35
572.043	297.39
572.467	346.55
572.891	332.5
573.315	327.82
573.739	367.61
574.163	304.42
574.587	295.05
575.011	339.52
575.435	318.46
575.858	288.03
576.282	306.76
576.705	325.48
577.129	334.84
577.552	281.01
577.976	323.14
578.399	346.55
578.822	351.23
579.245	360.59
579.669	365.27
580.092	358.25
580.515	323.14
580.938	339.52
581.361	288.03
581.784	281.01
582.206	231.86
582.629	334.84
583.052	330.16
583.474	374.63
583.897	351.23
584.32	365.27
584.742	276.33
585.165	283.35
585.587	276.33
586.009	334.84
586.431	290.37
586.854	297.39
587.276	292.71
587.698	344.21
588.12	266.97
588.542	327.82
588.964	337.18
589.386	297.39
589.807	337.18
590.229	245.9
590.651	285.69
591.073	276.33
591.494	295.05
591.916	299.73
592.337	292.71
592.759	297.39
593.18	367.61
593.601	311.44
594.022	304.42
594.444	297.39
594.865	257.61
595.286	358.25
595.707	330.16
596.128	311.44
596.549	266.97
596.97	334.84
597.39	311.44
597.811	311.44
598.232	288.03
598.652	283.35
599.073	355.91
599.494	292.71
599.914	311.44
600.334	313.78
600.755	250.58
601.175	369.95
601.595	306.76
602.015	264.63
602.436	320.8
602.856	421.44
603.276	311.44
603.696	323.14
604.115	325.48
604.535	278.67
604.955	285.69
605.375	334.84
605.794	316.12
606.214	351.23
606.634	318.46
607.053	269.31
607.473	318.46
607.892	355.91
608.311	311.44
608.731	313.78
609.15	299.73
609.569	304.42
609.988	332.5
610.407	259.95
610.826	283.35
611.245	266.97
611.664	297.39
612.083	241.22
612.501	290.37
612.92	316.12
613.339	362.93
613.757	332.5
614.176	355.91
614.594	327.82
615.013	309.1
615.431	262.29
615.85	269.31
616.268	365.27
616.686	295.05
617.104	318.46
617.522	304.42
617.94	285.69
618.358	281.01
618.776	334.84
619.194	299.73
619.612	288.03
620.03	297.39
620.447	281.01
620.865	337.18
621.282	351.23
621.7	369.95
622.117	271.65
622.535	327.82
622.952	285.69
623.369	297.39
623.787	288.03
624.204	276.33
624.621	299.73
625.038	325.48
625.455	271.65
625.872	276.33
626.289	250.58
626.706	351.23
627.123	355.91
627.539	337.18
627.956	330.16
628.373	266.97
628.789	316.12
629.206	374.63
629.622	271.65
630.038	297.39
630.455	264.63
630.871	285.69
631.287	290.37
631.703	313.78
632.12	290.37
632.536	278.67
632.952	344.21
633.368	327.82
633.783	259.95
634.199	318.46
634.615	238.88
635.031	210.79
635.446	383.99
635.862	276.33
636.277	351.23
636.693	306.76
637.108	362.93
637.524	341.86
637.939	269.31
638.354	348.89
638.77	351.23
639.185	271.65
639.6	330.16
640.015	266.97
640.43	334.84
640.845	297.39
641.259	266.97
641.674	334.84
642.089	339.52
642.504	309.1
642.918	337.18
643.333	297.39
643.747	220.16
644.162	339.52
644.576	337.18
644.991	299.73
645.405	309.1
645.819	372.29
646.233	358.25
646.647	327.82
647.061	337.18
647.475	313.78
647.889	327.82
648.303	306.76
648.717	271.65
649.131	299.73
649.545	344.21
649.958	285.69
650.372	309.1
650.785	271.65
651.199	313.78
651.612	266.97
652.026	316.12
652.439	257.61
652.852	341.86
653.266	217.82
653.679	316.12
654.092	332.5
654.505	320.8
654.918	316.12
655.331	320.8
655.744	309.1
656.156	259.95
656.569	316.12
656.982	337.18
657.394	288.03
657.807	313.78
658.22	355.91
658.632	281.01
659.044	266.97
659.457	252.92
659.869	353.57
660.281	299.73
660.693	313.78
661.106	316.12
661.518	290.37
661.93	355.91
662.342	332.5
662.754	255.26
663.165	383.99
663.577	374.63
663.989	299.73
664.401	353.57
664.812	273.99
665.224	290.37
665.635	313.78
666.047	346.55
666.458	337.18
666.869	311.44
667.281	281.01
667.692	250.58
668.103	281.01
668.514	309.1
668.925	353.57
669.336	332.5
669.747	304.42
670.158	309.1
670.569	337.18
670.979	360.59
671.39	339.52
671.801	283.35
672.211	243.56
672.622	341.86
673.032	245.9
673.443	306.76
673.853	358.25
674.263	337.18
674.674	367.61
675.084	255.26
675.494	309.1
675.904	288.03
676.314	327.82
676.724	259.95
677.134	348.89
677.544	355.91
677.953	318.46
678.363	323.14
678.773	360.59
679.182	325.48
679.592	313.78
680.001	290.37
680.411	320.8
680.82	320.8
681.23	304.42
681.639	306.76
682.048	412.08
682.457	241.22
682.866	269.31
683.275	320.8
683.684	295.05
684.093	337.18
684.502	327.82
684.911	295.05
685.32	283.35
685.728	241.22
686.137	276.33
686.546	271.65
686.954	297.39
687.363	288.03
687.771	257.61
688.179	353.57
688.588	299.73
688.996	360.59
689.404	360.59
689.812	278.67
690.22	341.86
690.628	360.59
691.036	320.8
691.444	330.16
691.852	355.91
692.26	330.16
692.667	330.16
693.075	344.21
693.483	386.33
693.89	299.73
694.298	330.16
694.705	297.39
695.112	365.27
695.52	283.35
695.927	309.1
696.334	376.97
696.741	285.69
697.148	355.91
697.555	325.48
697.962	309.1
698.369	273.99
698.776	278.67
699.183	355.91
699.59	327.82
699.996	332.5
700.403	231.86
700.81	229.52
701.216	290.37
701.623	299.73
702.029	297.39
702.435	318.46
702.842	320.8
703.248	295.05
703.654	220.16
704.06	290.37
704.466	355.91
704.872	316.12
705.278	255.26
705.684	362.93
706.09	299.73
706.496	295.05
706.901	276.33
707.307	367.61
707.712	327.82
708.118	365.27
708.523	311.44
708.929	283.35
709.334	297.39
709.74	248.24
710.145	295.05
710.55	325.48
710.955	320.8
711.36	355.91
711.765	283.35
712.17	302.08
712.575	351.23
712.98	798.27
713.385	323.14
713.789	273.99
714.194	245.9
714.599	297.39
715.003	362.93
715.408	316.12
715.812	283.35
716.217	358.25
716.621	257.61
717.025	304.42
717.429	318.46
717.833	358.25
718.238	278.67
718.642	306.76
719.046	306.76
719.449	252.92
719.853	297.39
720.257	266.97
720.661	341.86
721.065	337.18
721.468	323.14
721.872	318.46
722.275	288.03
722.679	297.39
723.082	365.27
723.485	302.08
723.889	304.42
724.292	323.14
724.695	266.97
725.098	313.78
725.501	302.08
725.904	278.67
726.307	358.25
726.71	316.12
727.113	330.16
727.516	316.12
727.918	210.79
728.321	297.39
728.724	318.46
729.126	292.71
729.529	304.42
729.931	316.12
730.333	318.46
730.736	248.24
731.138	278.67
731.54	320.8
731.942	262.29
732.344	266.97
732.746	292.71
733.148	313.78
733.55	325.48
733.952	374.63
734.354	325.48
734.756	330.16
735.157	297.39
735.559	313.78
735.96	295.05
736.362	266.97
736.763	273.99
737.165	388.68
737.566	297.39
737.967	241.22
738.368	292.71
738.77	297.39
739.171	311.44
739.572	309.1
739.973	271.65
740.374	339.52
740.774	341.86
741.175	367.61
741.576	309.1
741.977	295.05
742.377	348.89
742.778	311.44
743.178	302.08
743.579	248.24
743.979	325.48
744.379	311.44
744.78	250.58
745.18	367.61
745.58	297.39
745.98	327.82
746.38	348.89
746.78	360.59
747.18	353.57
747.58	271.65
747.98	304.42
748.38	339.52
748.779	278.67
749.179	355.91
749.578	388.68
749.978	302.08
750.377	255.26
750.777	290.37
751.176	271.65
751.575	227.18
751.975	306.76
752.374	316.12
752.773	285.69
753.172	393.36
753.571	273.99
753.97	295.05
754.369	285.69
754.768	231.86
755.166	281.01
755.565	264.63
755.964	334.84
756.362	283.35
756.761	271.65
757.159	313.78
757.558	297.39
757.956	313.78
758.354	288.03
758.753	313.78
759.151	348.89
759.549	341.86
759.947	311.44
760.345	271.65
760.743	325.48
761.141	344.21
761.539	175.69
761.936	278.67
762.334	304.42
762.732	262.29
763.129	304.42
763.527	313.78
763.924	332.5
764.322	297.39
