Data from Al_FLMS009871__817__15-24-57-707.txt Node

Date: Fri Mar 08 15:24:57 CST 2024
User: pe5414po
Spectrometer: FLMS00987
Trigger mode: 0
Integration Time (sec): 1.000000E-1
Scans to average: 1
Electric dark correction enabled: true
Nonlinearity correction enabled: false
Boxcar width: 0
XAxis mode: Wavelengths
Number of Pixels in Spectrum: 2048
>>>>>Begin Spectral Data<<<<<
188.938	-87.18
189.409	-87.18
189.879	-87.18
190.349	-124.63
190.819	-110.59
191.29	-82.5
191.76	-80.16
192.23	-89.53
192.7	1.76
193.17	-42.71
193.64	-23.99
194.109	-23.99
194.579	-70.8
195.049	-5.27
195.519	55.59
195.988	8.78
196.458	18.14
196.927	41.54
197.397	83.67
197.866	104.74
198.336	104.74
198.805	128.14
199.274	167.93
199.744	212.4
200.213	205.38
200.682	219.43
201.151	189
201.62	217.08
202.089	240.49
202.558	263.9
203.027	256.87
203.495	247.51
203.964	247.51
204.433	320.07
204.902	247.51
205.37	331.77
205.839	270.92
206.307	299
206.776	336.45
207.244	261.55
207.712	284.96
208.181	287.3
208.649	376.24
209.117	310.71
209.585	249.85
210.053	299
210.521	273.26
210.989	308.37
211.457	280.28
211.925	371.56
212.393	296.66
212.861	303.68
213.328	320.07
213.796	277.94
214.264	273.26
214.731	235.81
215.199	275.6
215.666	303.68
216.133	212.4
216.601	196.02
217.068	261.55
217.535	322.41
218.003	270.92
218.47	301.34
218.937	259.21
219.404	235.81
219.871	228.79
220.338	277.94
220.805	266.24
221.271	245.17
221.738	275.6
222.205	233.47
222.671	245.17
223.138	252.19
223.605	233.47
224.071	228.79
224.538	226.45
225.004	322.41
225.47	212.4
225.937	245.17
226.403	327.09
226.869	270.92
227.335	327.09
227.801	249.85
228.267	210.06
228.733	362.2
229.199	221.77
229.665	324.75
230.131	385.6
230.597	275.6
231.062	245.17
231.528	226.45
231.994	249.85
232.459	355.18
232.925	256.87
233.39	233.47
233.856	228.79
234.321	310.71
234.786	296.66
235.252	186.66
235.717	287.3
236.182	256.87
236.647	280.28
237.112	235.81
237.577	259.21
238.042	235.81
238.507	252.19
238.972	310.71
239.436	303.68
239.901	277.94
240.366	327.09
240.83	287.3
241.295	299
241.76	313.05
242.224	259.21
242.688	249.85
243.153	273.26
243.617	301.34
244.081	261.55
244.545	273.26
245.01	263.9
245.474	289.64
245.938	308.37
246.402	277.94
246.866	256.87
247.33	364.54
247.793	259.21
248.257	343.47
248.721	324.75
249.185	233.47
249.648	301.34
250.112	320.07
250.575	240.49
251.039	240.49
251.502	245.17
251.965	289.64
252.429	303.68
252.892	263.9
253.355	226.45
253.818	261.55
254.281	282.62
254.744	266.24
255.207	303.68
255.67	313.05
256.133	249.85
256.596	336.45
257.059	224.11
257.522	266.24
257.984	350.5
258.447	268.58
258.909	310.71
259.372	235.81
259.834	261.55
260.297	270.92
260.759	245.17
261.221	336.45
261.684	313.05
262.146	282.62
262.608	259.21
263.07	294.32
263.532	277.94
263.994	317.73
264.456	322.41
264.918	301.34
265.38	327.09
265.842	310.71
266.303	306.03
266.765	280.28
267.227	299
267.688	249.85
268.15	299
268.611	254.53
269.072	254.53
269.534	357.52
269.995	235.81
270.456	287.3
270.918	275.6
271.379	247.51
271.84	299
272.301	247.51
272.762	320.07
273.223	275.6
273.684	214.74
274.144	310.71
274.605	313.05
275.066	242.83
275.527	275.6
275.987	320.07
276.448	233.47
276.908	275.6
277.369	268.58
277.829	219.43
278.289	266.24
278.75	268.58
279.21	345.81
279.67	315.39
280.13	322.41
280.59	270.92
281.05	301.34
281.51	291.98
281.97	348.15
282.43	331.77
282.89	245.17
283.35	345.81
283.809	289.64
284.269	303.68
284.729	247.51
285.188	256.87
285.648	338.79
286.107	245.17
286.567	238.15
287.026	313.05
287.485	289.64
287.944	280.28
288.404	238.15
288.863	322.41
289.322	280.28
289.781	287.3
290.24	324.75
290.699	378.58
291.158	270.92
291.616	329.43
292.075	249.85
292.534	291.98
292.992	303.68
293.451	306.03
293.91	289.64
294.368	348.15
294.827	308.37
295.285	299
295.743	263.9
296.202	329.43
296.66	322.41
297.118	254.53
297.576	306.03
298.034	299
298.492	294.32
298.95	336.45
299.408	284.96
299.866	334.11
300.324	296.66
300.781	345.81
301.239	357.52
301.697	308.37
302.154	287.3
302.612	277.94
303.069	310.71
303.527	256.87
303.984	334.11
304.441	310.71
304.899	310.71
305.356	294.32
305.813	313.05
306.27	277.94
306.727	289.64
307.184	294.32
307.641	355.18
308.098	317.73
308.555	282.62
309.012	338.79
309.468	289.64
309.925	343.47
310.382	291.98
310.838	289.64
311.295	317.73
311.751	282.62
312.208	254.53
312.664	317.73
313.12	334.11
313.577	277.94
314.033	303.68
314.489	350.5
314.945	357.52
315.401	343.47
315.857	348.15
316.313	336.45
316.769	317.73
317.225	256.87
317.681	329.43
318.136	341.13
318.592	310.71
319.048	268.58
319.503	275.6
319.959	345.81
320.414	284.96
320.869	303.68
321.325	282.62
321.78	256.87
322.235	287.3
322.691	275.6
323.146	308.37
323.601	280.28
324.056	317.73
324.511	277.94
324.966	270.92
325.421	343.47
325.875	301.34
326.33	240.49
326.785	366.88
327.24	348.15
327.694	306.03
328.149	317.73
328.603	357.52
329.058	308.37
329.512	294.32
329.966	277.94
330.421	315.39
330.875	331.77
331.329	306.03
331.783	341.13
332.237	352.84
332.691	263.9
333.145	280.28
333.599	348.15
334.053	308.37
334.507	310.71
334.96	331.77
335.414	301.34
335.868	270.92
336.321	263.9
336.775	280.28
337.228	331.77
337.682	359.86
338.135	324.75
338.588	256.87
339.042	320.07
339.495	336.45
339.948	308.37
340.401	348.15
340.854	341.13
341.307	284.96
341.76	296.66
342.213	315.39
342.666	364.54
343.119	289.64
343.571	336.45
344.024	306.03
344.477	296.66
344.929	320.07
345.382	306.03
345.834	362.2
346.287	273.26
346.739	306.03
347.191	317.73
347.644	338.79
348.096	320.07
348.548	331.77
349	282.62
349.452	273.26
349.904	345.81
350.356	247.51
350.808	336.45
351.26	270.92
351.711	308.37
352.163	287.3
352.615	280.28
353.066	301.34
353.518	301.34
353.969	263.9
354.421	282.62
354.872	296.66
355.324	341.13
355.775	303.68
356.226	294.32
356.677	359.86
357.128	301.34
357.579	313.05
358.03	308.37
358.481	299
358.932	331.77
359.383	322.41
359.834	317.73
360.285	301.34
360.735	343.47
361.186	322.41
361.637	345.81
362.087	385.6
362.538	313.05
362.988	306.03
363.438	308.37
363.889	334.11
364.339	341.13
364.789	355.18
365.239	320.07
365.689	329.43
366.139	390.28
366.589	359.86
367.039	413.69
367.489	350.5
367.939	345.81
368.389	334.11
368.839	303.68
369.288	299
369.738	284.96
370.187	301.34
370.637	296.66
371.086	317.73
371.536	334.11
371.985	299
372.434	350.5
372.884	366.88
373.333	306.03
373.782	315.39
374.231	352.84
374.68	331.77
375.129	345.81
375.578	291.98
376.027	348.15
376.475	273.26
376.924	387.94
377.373	334.11
377.822	317.73
378.27	308.37
378.719	359.86
379.167	303.68
379.616	324.75
380.064	320.07
380.512	310.71
380.961	327.09
381.409	336.45
381.857	366.88
382.305	308.37
382.753	289.64
383.201	320.07
383.649	306.03
384.097	345.81
384.545	296.66
384.992	254.53
385.44	336.45
385.888	282.62
386.335	324.75
386.783	320.07
387.231	289.64
387.678	324.75
388.125	355.18
388.573	296.66
389.02	327.09
389.467	291.98
389.914	310.71
390.362	320.07
390.809	291.98
391.256	277.94
391.703	294.32
392.15	303.68
392.596	322.41
393.043	247.51
393.49	329.43
393.937	331.77
394.383	336.45
394.83	308.37
395.276	303.68
395.723	242.83
396.169	364.54
396.616	287.3
397.062	306.03
397.508	284.96
397.954	324.75
398.401	301.34
398.847	329.43
399.293	324.75
399.739	392.62
400.185	390.28
400.631	369.22
401.076	289.64
401.522	273.26
401.968	348.15
402.414	306.03
402.859	350.5
403.305	282.62
403.75	322.41
404.196	233.47
404.641	315.39
405.086	284.96
405.532	341.13
405.977	238.15
406.422	268.58
406.867	301.34
407.312	317.73
407.757	284.96
408.202	345.81
408.647	348.15
409.092	350.5
409.537	324.75
409.982	345.81
410.426	315.39
410.871	322.41
411.316	327.09
411.76	291.98
412.205	291.98
412.649	357.52
413.093	341.13
413.538	296.66
413.982	336.45
414.426	299
414.87	313.05
415.314	327.09
415.758	324.75
416.202	287.3
416.646	282.62
417.09	336.45
417.534	315.39
417.978	296.66
418.421	352.84
418.865	322.41
419.309	338.79
419.752	380.92
420.196	324.75
420.639	324.75
421.083	303.68
421.526	327.09
421.969	385.6
422.412	334.11
422.856	329.43
423.299	317.73
423.742	334.11
424.185	401.99
424.628	362.2
425.071	303.68
425.513	301.34
425.956	277.94
426.399	296.66
426.842	338.79
427.284	322.41
427.727	373.9
428.169	376.24
428.612	334.11
429.054	355.18
429.497	359.86
429.939	324.75
430.381	299
430.823	259.21
431.265	263.9
431.707	299
432.149	399.65
432.591	296.66
433.033	306.03
433.475	313.05
433.917	371.56
434.359	291.98
434.8	343.47
435.242	296.66
435.684	369.22
436.125	306.03
436.567	322.41
437.008	259.21
437.449	245.17
437.891	303.68
438.332	296.66
438.773	322.41
439.214	291.98
439.656	322.41
440.097	350.5
440.538	296.66
440.978	280.28
441.419	369.22
441.86	341.13
442.301	364.54
442.742	329.43
443.182	315.39
443.623	284.96
444.063	327.09
444.504	315.39
444.944	331.77
445.385	338.79
445.825	294.32
446.265	306.03
446.706	343.47
447.146	299
447.586	313.05
448.026	284.96
448.466	320.07
448.906	385.6
449.346	296.66
449.786	303.68
450.225	345.81
450.665	252.19
451.105	341.13
451.544	315.39
451.984	303.68
452.424	348.15
452.863	315.39
453.302	355.18
453.742	362.2
454.181	266.24
454.62	294.32
455.059	287.3
455.499	380.92
455.938	277.94
456.377	336.45
456.816	355.18
457.254	324.75
457.693	380.92
458.132	324.75
458.571	301.34
459.01	287.3
459.448	291.98
459.887	324.75
460.325	357.52
460.764	322.41
461.202	273.26
461.641	383.26
462.079	357.52
462.517	313.05
462.955	336.45
463.393	317.73
463.832	306.03
464.27	299
464.708	313.05
465.145	324.75
465.583	296.66
466.021	291.98
466.459	245.17
466.897	350.5
467.334	310.71
467.772	320.07
468.209	327.09
468.647	350.5
469.084	327.09
469.522	280.28
469.959	364.54
470.396	329.43
470.833	224.11
471.271	268.58
471.708	357.52
472.145	310.71
472.582	322.41
473.019	334.11
473.456	334.11
473.892	341.13
474.329	336.45
474.766	378.58
475.202	291.98
475.639	263.9
476.076	336.45
476.512	334.11
476.949	313.05
477.385	331.77
477.821	327.09
478.258	282.62
478.694	324.75
479.13	341.13
479.566	261.55
480.002	362.2
480.438	303.68
480.874	338.79
481.31	313.05
481.746	324.75
482.181	259.21
482.617	327.09
483.053	308.37
483.488	378.58
483.924	254.53
484.36	371.56
484.795	394.97
485.23	306.03
485.666	355.18
486.101	327.09
486.536	338.79
486.971	336.45
487.407	320.07
487.842	320.07
488.277	306.03
488.712	355.18
489.146	362.2
489.581	303.68
490.016	275.6
490.451	324.75
490.885	306.03
491.32	315.39
491.755	317.73
492.189	336.45
492.624	376.24
493.058	371.56
493.492	352.84
493.927	329.43
494.361	273.26
494.795	383.26
495.229	366.88
495.663	287.3
496.097	373.9
496.531	369.22
496.965	399.65
497.399	322.41
497.833	254.53
498.266	306.03
498.7	327.09
499.134	324.75
499.567	317.73
500.001	322.41
500.434	306.03
500.868	324.75
501.301	338.79
501.734	338.79
502.168	252.19
502.601	376.24
503.034	320.07
503.467	313.05
503.9	345.81
504.333	301.34
504.766	313.05
505.199	392.62
505.632	331.77
506.064	282.62
506.497	303.68
506.93	233.47
507.362	320.07
507.795	331.77
508.227	280.28
508.66	336.45
509.092	320.07
509.524	299
509.956	266.24
510.389	338.79
510.821	366.88
511.253	317.73
511.685	301.34
512.117	322.41
512.549	266.24
512.981	308.37
513.412	343.47
513.844	284.96
514.276	378.58
514.707	350.5
515.139	282.62
515.571	282.62
516.002	364.54
516.433	308.37
516.865	369.22
517.296	313.05
517.727	303.68
518.159	306.03
518.59	310.71
519.021	322.41
519.452	345.81
519.883	247.51
520.314	240.49
520.744	242.83
521.175	378.58
521.606	282.62
522.037	317.73
522.467	259.21
522.898	287.3
523.328	322.41
523.759	336.45
524.189	324.75
524.62	282.62
525.05	338.79
525.48	327.09
525.91	324.75
526.341	320.07
526.771	289.64
527.201	280.28
527.631	315.39
528.061	263.9
528.49	341.13
528.92	329.43
529.35	366.88
529.78	277.94
530.209	294.32
530.639	331.77
531.068	336.45
531.498	266.24
531.927	306.03
532.357	327.09
532.786	355.18
533.215	291.98
533.644	294.32
534.074	376.24
534.503	296.66
534.932	273.26
535.361	317.73
535.79	313.05
536.218	275.6
536.647	338.79
537.076	327.09
537.505	334.11
537.933	289.64
538.362	345.81
538.79	275.6
539.219	306.03
539.647	338.79
540.076	357.52
540.504	273.26
540.932	294.32
541.36	324.75
541.788	350.5
542.217	383.26
542.645	270.92
543.073	336.45
543.5	306.03
543.928	289.64
544.356	348.15
544.784	362.2
545.211	315.39
545.639	291.98
546.067	315.39
546.494	280.28
546.922	306.03
547.349	296.66
547.776	284.96
548.204	362.2
548.631	301.34
549.058	203.04
549.485	357.52
549.912	317.73
550.339	301.34
550.766	308.37
551.193	385.6
551.62	364.54
552.047	310.71
552.474	280.28
552.9	376.24
553.327	256.87
553.754	352.84
554.18	369.22
554.607	357.52
555.033	294.32
555.459	369.22
555.886	301.34
556.312	289.64
556.738	322.41
557.164	336.45
557.59	266.24
558.016	299
558.442	343.47
558.868	308.37
559.294	334.11
559.72	261.55
560.145	315.39
560.571	268.58
560.997	315.39
561.422	334.11
561.848	343.47
562.273	296.66
562.699	301.34
563.124	357.52
563.549	366.88
563.974	329.43
564.4	334.11
564.825	275.6
565.25	313.05
565.675	364.54
566.1	313.05
566.525	362.2
566.95	336.45
567.374	355.18
567.799	366.88
568.224	355.18
568.648	310.71
569.073	320.07
569.497	301.34
569.922	247.51
570.346	301.34
570.771	303.68
571.195	303.68
571.619	284.96
572.043	289.64
572.467	327.09
572.891	280.28
573.315	341.13
573.739	299
574.163	338.79
574.587	338.79
575.011	301.34
575.435	275.6
575.858	306.03
576.282	331.77
576.705	355.18
577.129	392.62
577.552	303.68
577.976	334.11
578.399	378.58
578.822	315.39
579.245	301.34
579.669	247.51
580.092	263.9
580.515	341.13
580.938	357.52
581.361	270.92
581.784	317.73
582.206	261.55
582.629	317.73
583.052	284.96
583.474	324.75
583.897	301.34
584.32	343.47
584.742	301.34
585.165	308.37
585.587	357.52
586.009	252.19
586.431	301.34
586.854	341.13
587.276	301.34
587.698	383.26
588.12	296.66
588.542	317.73
588.964	331.77
589.386	299
589.807	348.15
590.229	348.15
590.651	334.11
591.073	345.81
591.494	352.84
591.916	350.5
592.337	270.92
592.759	320.07
593.18	306.03
593.601	334.11
594.022	308.37
594.444	296.66
594.865	317.73
595.286	296.66
595.707	315.39
596.128	338.79
596.549	343.47
596.97	324.75
597.39	287.3
597.811	352.84
598.232	336.45
598.652	385.6
599.073	296.66
599.494	338.79
599.914	320.07
600.334	371.56
600.755	289.64
601.175	352.84
601.595	416.03
602.015	345.81
602.436	352.84
602.856	488.59
603.276	315.39
603.696	350.5
604.115	310.71
604.535	385.6
604.955	322.41
605.375	277.94
605.794	341.13
606.214	322.41
606.634	289.64
607.053	350.5
607.473	338.79
607.892	252.19
608.311	359.86
608.731	352.84
609.15	284.96
609.569	322.41
609.988	324.75
610.407	336.45
610.826	306.03
611.245	331.77
611.664	322.41
612.083	320.07
612.501	357.52
612.92	399.65
613.339	359.86
613.757	299
614.176	294.32
614.594	327.09
615.013	348.15
615.431	322.41
615.85	320.07
616.268	322.41
616.686	291.98
617.104	294.32
617.522	284.96
617.94	280.28
618.358	317.73
618.776	313.05
619.194	313.05
619.612	280.28
620.03	334.11
620.447	296.66
620.865	336.45
621.282	383.26
621.7	329.43
622.117	249.85
622.535	310.71
622.952	315.39
623.369	259.21
623.787	327.09
624.204	277.94
624.621	256.87
625.038	306.03
625.455	348.15
625.872	357.52
626.289	338.79
626.706	341.13
627.123	315.39
627.539	299
627.956	294.32
628.373	270.92
628.789	369.22
629.206	362.2
629.622	249.85
630.038	341.13
630.455	329.43
630.871	327.09
631.287	329.43
631.703	287.3
632.12	355.18
632.536	322.41
632.952	315.39
633.368	266.24
633.783	324.75
634.199	320.07
634.615	289.64
635.031	320.07
635.446	327.09
635.862	282.62
636.277	364.54
636.693	362.2
637.108	341.13
637.524	329.43
637.939	355.18
638.354	287.3
638.77	273.26
639.185	322.41
639.6	308.37
640.015	310.71
640.43	301.34
640.845	280.28
641.259	313.05
641.674	366.88
642.089	313.05
642.504	364.54
642.918	287.3
643.333	289.64
643.747	317.73
644.162	299
644.576	362.2
644.991	362.2
645.405	324.75
645.819	263.9
646.233	282.62
646.647	287.3
647.061	291.98
647.475	268.58
647.889	313.05
648.303	345.81
648.717	329.43
649.131	313.05
649.545	310.71
649.958	322.41
650.372	291.98
650.785	275.6
651.199	289.64
651.612	308.37
652.026	336.45
652.439	327.09
652.852	350.5
653.266	291.98
653.679	348.15
654.092	320.07
654.505	357.52
654.918	308.37
655.331	299
655.744	331.77
656.156	313.05
656.569	289.64
656.982	306.03
657.394	287.3
657.807	317.73
658.22	322.41
658.632	259.21
659.044	366.88
659.457	320.07
659.869	310.71
660.281	299
660.693	409.01
661.106	364.54
661.518	359.86
661.93	317.73
662.342	352.84
662.754	352.84
663.165	338.79
663.577	313.05
663.989	362.2
664.401	352.84
664.812	301.34
665.224	336.45
665.635	275.6
666.047	324.75
666.458	277.94
666.869	275.6
667.281	306.03
667.692	341.13
668.103	277.94
668.514	376.24
668.925	308.37
669.336	287.3
669.747	317.73
670.158	277.94
670.569	373.9
670.979	235.81
671.39	404.33
671.801	287.3
672.211	287.3
672.622	306.03
673.032	359.86
673.443	299
673.853	366.88
674.263	366.88
674.674	352.84
675.084	280.28
675.494	301.34
675.904	369.22
676.314	284.96
676.724	287.3
677.134	306.03
677.544	336.45
677.953	392.62
678.363	247.51
678.773	409.01
679.182	338.79
679.592	245.17
680.001	268.58
680.411	280.28
680.82	310.71
681.23	345.81
681.639	299
682.048	343.47
682.457	291.98
682.866	336.45
683.275	301.34
683.684	310.71
684.093	362.2
684.502	359.86
684.911	362.2
685.32	392.62
685.728	373.9
686.137	343.47
686.546	355.18
686.954	291.98
687.363	306.03
687.771	366.88
688.179	380.92
688.588	348.15
688.996	284.96
689.404	371.56
689.812	331.77
690.22	376.24
690.628	322.41
691.036	355.18
691.444	315.39
691.852	303.68
692.26	308.37
692.667	303.68
693.075	263.9
693.483	329.43
693.89	355.18
694.298	282.62
694.705	345.81
695.112	378.58
695.52	387.94
695.927	352.84
696.334	350.5
696.741	249.85
697.148	261.55
697.555	280.28
697.962	320.07
698.369	238.15
698.776	254.53
699.183	376.24
699.59	324.75
699.996	308.37
700.403	327.09
700.81	303.68
701.216	341.13
701.623	334.11
702.029	291.98
702.435	380.92
702.842	299
703.248	378.58
703.654	306.03
704.06	242.83
704.466	291.98
704.872	366.88
705.278	313.05
705.684	324.75
706.09	338.79
706.496	392.62
706.901	383.26
707.307	383.26
707.712	343.47
708.118	387.94
708.523	296.66
708.929	296.66
709.334	324.75
709.74	352.84
710.145	401.99
710.55	301.34
710.955	376.24
711.36	277.94
711.765	273.26
712.17	338.79
712.575	341.13
712.98	884.14
713.385	291.98
713.789	355.18
714.194	317.73
714.599	289.64
715.003	294.32
715.408	327.09
715.812	282.62
716.217	343.47
716.621	329.43
717.025	270.92
717.429	320.07
717.833	294.32
718.238	390.28
718.642	331.77
719.046	394.97
719.449	383.26
719.853	317.73
720.257	385.6
720.661	294.32
721.065	256.87
721.468	315.39
721.872	254.53
722.275	266.24
722.679	327.09
723.082	355.18
723.485	324.75
723.889	345.81
724.292	313.05
724.695	287.3
725.098	362.2
725.501	324.75
725.904	296.66
726.307	270.92
726.71	291.98
727.113	357.52
727.516	320.07
727.918	338.79
728.321	348.15
728.724	308.37
729.126	331.77
729.529	336.45
729.931	308.37
730.333	345.81
730.736	320.07
731.138	387.94
731.54	310.71
731.942	362.2
732.344	371.56
732.746	359.86
733.148	327.09
733.55	350.5
733.952	254.53
734.354	231.13
734.756	313.05
735.157	310.71
735.559	317.73
735.96	364.54
736.362	315.39
736.763	322.41
737.165	350.5
737.566	259.21
737.967	348.15
738.368	296.66
738.77	303.68
739.171	317.73
739.572	315.39
739.973	327.09
740.374	277.94
740.774	308.37
741.175	315.39
741.576	301.34
741.977	320.07
742.377	306.03
742.778	310.71
743.178	310.71
743.579	313.05
743.979	331.77
744.379	320.07
744.78	327.09
745.18	280.28
745.58	336.45
745.98	336.45
746.38	284.96
746.78	329.43
747.18	287.3
747.58	315.39
747.98	315.39
748.38	350.5
748.779	336.45
749.179	320.07
749.578	357.52
749.978	385.6
750.377	439.44
750.777	231.13
751.176	359.86
751.575	350.5
751.975	284.96
752.374	287.3
752.773	329.43
753.172	313.05
753.571	299
753.97	327.09
754.369	287.3
754.768	369.22
755.166	299
755.565	334.11
755.964	348.15
756.362	352.84
756.761	299
757.159	315.39
757.558	263.9
757.956	280.28
758.354	348.15
758.753	352.84
759.151	371.56
759.549	299
759.947	329.43
760.345	289.64
760.743	352.84
761.141	287.3
761.539	338.79
761.936	313.05
762.334	301.34
762.732	380.92
763.129	296.66
763.527	270.92
763.924	275.6
764.322	294.32
764.719	329.43
765.117	357.52
765.514	357.52
765.911	233.47
766.308	317.73
766.705	266.24
767.102	336.45
767.499	289.64
