Data from Al_FLMS009871__800__15-24-56-007.txt Node

Date: Fri Mar 08 15:24:56 CST 2024
User: pe5414po
Spectrometer: FLMS00987
Trigger mode: 0
Integration Time (sec): 1.000000E-1
Scans to average: 1
Electric dark correction enabled: true
Nonlinearity correction enabled: false
Boxcar width: 0
XAxis mode: Wavelengths
Number of Pixels in Spectrum: 2048
>>>>>Begin Spectral Data<<<<<
188.938	-35.11
189.409	-35.11
189.879	-35.11
190.349	-149.79
190.819	-131.07
191.29	-63.19
191.76	-42.13
192.23	-60.85
192.7	-91.28
193.17	-49.15
193.64	-11.7
194.109	-46.81
194.579	-23.41
195.049	21.06
195.519	-51.49
195.988	28.09
196.458	16.38
196.927	70.22
197.397	138.09
197.866	93.62
198.336	72.56
198.805	135.75
199.274	168.52
199.744	187.24
200.213	236.39
200.682	224.69
201.151	191.92
201.62	203.63
202.089	231.71
202.558	259.8
203.027	283.2
203.495	262.14
203.964	252.78
204.433	318.31
204.902	215.33
205.37	259.8
205.839	269.16
206.307	362.78
206.776	297.25
207.244	255.12
207.712	276.18
208.181	313.63
208.649	290.23
209.117	299.59
209.585	245.76
210.053	322.99
210.521	341.72
210.989	311.29
211.457	259.8
211.925	287.89
212.393	285.55
212.861	290.23
213.328	344.06
213.796	332.36
214.264	332.36
214.731	318.31
215.199	255.12
215.666	257.46
216.133	294.91
216.601	332.36
217.068	245.76
217.535	315.97
218.003	290.23
218.47	252.78
218.937	290.23
219.404	287.89
219.871	285.55
220.338	278.52
220.805	297.25
221.271	283.2
221.738	243.42
222.205	271.5
222.671	313.63
223.138	276.18
223.605	283.2
224.071	255.12
224.538	287.89
225.004	266.82
225.47	229.37
225.937	301.93
226.403	287.89
226.869	238.73
227.335	266.82
227.801	243.42
228.267	334.7
228.733	205.97
229.199	285.55
229.665	285.55
230.131	241.08
230.597	294.91
231.062	320.65
231.528	266.82
231.994	276.18
232.459	313.63
232.925	257.46
233.39	287.89
233.856	234.05
234.321	266.82
234.786	234.05
235.252	322.99
235.717	285.55
236.182	344.06
236.647	318.31
237.112	283.2
237.577	238.73
238.042	322.99
238.507	262.14
238.972	325.33
239.436	278.52
239.901	299.59
240.366	322.99
240.83	311.29
241.295	276.18
241.76	234.05
242.224	292.57
242.688	220.01
243.153	348.74
243.617	262.14
244.081	297.25
244.545	358.1
245.01	285.55
245.474	278.52
245.938	283.2
246.402	285.55
246.866	269.16
247.33	313.63
247.793	346.4
248.257	259.8
248.721	280.86
249.185	299.59
249.648	262.14
250.112	264.48
250.575	252.78
251.039	334.7
251.502	306.61
251.965	259.8
252.429	301.93
252.892	245.76
253.355	308.95
253.818	271.5
254.281	299.59
254.744	273.84
255.207	287.89
255.67	283.2
256.133	330.02
256.596	264.48
257.059	301.93
257.522	257.46
257.984	315.97
258.447	301.93
258.909	306.61
259.372	311.29
259.834	276.18
260.297	337.04
260.759	320.65
261.221	276.18
261.684	306.61
262.146	276.18
262.608	278.52
263.07	334.7
263.532	341.72
263.994	299.59
264.456	252.78
264.918	280.86
265.38	294.91
265.842	271.5
266.303	264.48
266.765	278.52
267.227	330.02
267.688	276.18
268.15	306.61
268.611	320.65
269.072	280.86
269.534	278.52
269.995	276.18
270.456	313.63
270.918	301.93
271.379	339.38
271.84	276.18
272.301	322.99
272.762	308.95
273.223	264.48
273.684	339.38
274.144	397.89
274.605	369.8
275.066	306.61
275.527	334.7
275.987	245.76
276.448	271.5
276.908	280.86
277.369	280.86
277.829	332.36
278.289	283.2
278.75	367.46
279.21	278.52
279.67	348.74
280.13	322.99
280.59	269.16
281.05	315.97
281.51	304.27
281.97	292.57
282.43	285.55
282.89	271.5
283.35	313.63
283.809	285.55
284.269	306.61
284.729	313.63
285.188	287.89
285.648	318.31
286.107	276.18
286.567	341.72
287.026	276.18
287.485	327.67
287.944	381.51
288.404	280.86
288.863	411.93
289.322	327.67
289.781	292.57
290.24	304.27
290.699	283.2
291.158	306.61
291.616	301.93
292.075	325.33
292.534	327.67
292.992	362.78
293.451	229.37
293.91	339.38
294.368	313.63
294.827	245.76
295.285	327.67
295.743	332.36
296.202	367.46
296.66	252.78
297.118	325.33
297.576	306.61
298.034	365.12
298.492	306.61
298.95	311.29
299.408	285.55
299.866	327.67
300.324	259.8
300.781	252.78
301.239	372.15
301.697	276.18
302.154	325.33
302.612	276.18
303.069	325.33
303.527	318.31
303.984	271.5
304.441	346.4
304.899	304.27
305.356	271.5
305.813	292.57
306.27	320.65
306.727	311.29
307.184	355.76
307.641	287.89
308.098	311.29
308.555	301.93
309.012	241.08
309.468	297.25
309.925	294.91
310.382	334.7
310.838	325.33
311.295	360.44
311.751	337.04
312.208	332.36
312.664	318.31
313.12	308.95
313.577	322.99
314.033	278.52
314.489	332.36
314.945	344.06
315.401	311.29
315.857	355.76
316.313	285.55
316.769	280.86
317.225	327.67
317.681	325.33
318.136	330.02
318.592	271.5
319.048	330.02
319.503	297.25
319.959	294.91
320.414	320.65
320.869	376.83
321.325	339.38
321.78	341.72
322.235	280.86
322.691	315.97
323.146	292.57
323.601	283.2
324.056	322.99
324.511	372.15
324.966	299.59
325.421	334.7
325.875	334.7
326.33	280.86
326.785	299.59
327.24	301.93
327.694	280.86
328.149	337.04
328.603	255.12
329.058	269.16
329.512	250.44
329.966	306.61
330.421	301.93
330.875	259.8
331.329	332.36
331.783	322.99
332.237	374.49
332.691	269.16
333.145	294.91
333.599	318.31
334.053	374.49
334.507	278.52
334.96	280.86
335.414	299.59
335.868	339.38
336.321	348.74
336.775	322.99
337.228	325.33
337.682	330.02
338.135	320.65
338.588	330.02
339.042	341.72
339.495	351.08
339.948	372.15
340.401	278.52
340.854	339.38
341.307	290.23
341.76	285.55
342.213	294.91
342.666	365.12
343.119	339.38
343.571	320.65
344.024	294.91
344.477	299.59
344.929	311.29
345.382	348.74
345.834	344.06
346.287	318.31
346.739	297.25
347.191	250.44
347.644	311.29
348.096	369.8
348.548	306.61
349	304.27
349.452	285.55
349.904	306.61
350.356	271.5
350.808	369.8
351.26	379.17
351.711	299.59
352.163	360.44
352.615	339.38
353.066	313.63
353.518	313.63
353.969	334.7
354.421	337.04
354.872	358.1
355.324	369.8
355.775	248.1
356.226	299.59
356.677	306.61
357.128	358.1
357.579	355.76
358.03	299.59
358.481	320.65
358.932	351.08
359.383	292.57
359.834	311.29
360.285	325.33
360.735	367.46
361.186	346.4
361.637	301.93
362.087	339.38
362.538	332.36
362.988	372.15
363.438	311.29
363.889	306.61
364.339	325.33
364.789	304.27
365.239	290.23
365.689	315.97
366.139	224.69
366.589	327.67
367.039	294.91
367.489	348.74
367.939	313.63
368.389	358.1
368.839	353.42
369.288	355.76
369.738	339.38
370.187	355.76
370.637	348.74
371.086	327.67
371.536	306.61
371.985	339.38
372.434	315.97
372.884	344.06
373.333	339.38
373.782	355.76
374.231	358.1
374.68	360.44
375.129	322.99
375.578	311.29
376.027	344.06
376.475	376.83
376.924	402.57
377.373	243.42
377.822	287.89
378.27	304.27
378.719	259.8
379.167	297.25
379.616	320.65
380.064	304.27
380.512	337.04
380.961	337.04
381.409	313.63
381.857	301.93
382.305	294.91
382.753	348.74
383.201	376.83
383.649	407.25
384.097	334.7
384.545	313.63
384.992	325.33
385.44	339.38
385.888	327.67
386.335	397.89
386.783	327.67
387.231	341.72
387.678	344.06
388.125	344.06
388.573	388.53
389.02	358.1
389.467	276.18
389.914	327.67
390.362	341.72
390.809	355.76
391.256	339.38
391.703	290.23
392.15	297.25
392.596	313.63
393.043	348.74
393.49	376.83
393.937	362.78
394.383	304.27
394.83	365.12
395.276	297.25
395.723	250.44
396.169	318.31
396.616	337.04
397.062	353.42
397.508	299.59
397.954	285.55
398.401	367.46
398.847	381.51
399.293	355.76
399.739	315.97
400.185	397.89
400.631	353.42
401.076	280.86
401.522	306.61
401.968	332.36
402.414	360.44
402.859	337.04
403.305	269.16
403.75	365.12
404.196	351.08
404.641	318.31
405.086	320.65
405.532	290.23
405.977	320.65
406.422	276.18
406.867	292.57
407.312	301.93
407.757	334.7
408.202	250.44
408.647	313.63
409.092	287.89
409.537	325.33
409.982	365.12
410.426	294.91
410.871	313.63
411.316	402.57
411.76	308.95
412.205	353.42
412.649	322.99
413.093	327.67
413.538	278.52
413.982	315.97
414.426	322.99
414.87	308.95
415.314	315.97
415.758	280.86
416.202	360.44
416.646	299.59
417.09	311.29
417.534	308.95
417.978	334.7
418.421	341.72
418.865	339.38
419.309	311.29
419.752	287.89
420.196	355.76
420.639	383.85
421.083	339.38
421.526	353.42
421.969	308.95
422.412	334.7
422.856	311.29
423.299	339.38
423.742	308.95
424.185	325.33
424.628	322.99
425.071	348.74
425.513	353.42
425.956	306.61
426.399	304.27
426.842	318.31
427.284	325.33
427.727	257.46
428.169	341.72
428.612	337.04
429.054	287.89
429.497	252.78
429.939	318.31
430.381	365.12
430.823	315.97
431.265	351.08
431.707	330.02
432.149	287.89
432.591	315.97
433.033	346.4
433.475	351.08
433.917	353.42
434.359	304.27
434.8	327.67
435.242	301.93
435.684	308.95
436.125	294.91
436.567	322.99
437.008	311.29
437.449	376.83
437.891	297.25
438.332	304.27
438.773	280.86
439.214	344.06
439.656	330.02
440.097	332.36
440.538	304.27
440.978	344.06
441.419	337.04
441.86	301.93
442.301	327.67
442.742	308.95
443.182	355.76
443.623	330.02
444.063	334.7
444.504	344.06
444.944	334.7
445.385	344.06
445.825	297.25
446.265	304.27
446.706	252.78
447.146	351.08
447.586	383.85
448.026	322.99
448.466	290.23
448.906	339.38
449.346	379.17
449.786	306.61
450.225	365.12
450.665	353.42
451.105	278.52
451.544	332.36
451.984	285.55
452.424	301.93
452.863	280.86
453.302	337.04
453.742	351.08
454.181	294.91
454.62	315.97
455.059	330.02
455.499	358.1
455.938	318.31
456.377	322.99
456.816	327.67
457.254	306.61
457.693	334.7
458.132	372.15
458.571	318.31
459.01	320.65
459.448	304.27
459.887	299.59
460.325	346.4
460.764	330.02
461.202	381.51
461.641	327.67
462.079	315.97
462.517	353.42
462.955	287.89
463.393	351.08
463.832	325.33
464.27	360.44
464.708	276.18
465.145	332.36
465.583	379.17
466.021	360.44
466.459	308.95
466.897	322.99
467.334	355.76
467.772	397.89
468.209	369.8
468.647	344.06
469.084	346.4
469.522	339.38
469.959	337.04
470.396	322.99
470.833	360.44
471.271	376.83
471.708	344.06
472.145	311.29
472.582	322.99
473.019	280.86
473.456	386.19
473.892	393.21
474.329	320.65
474.766	327.67
475.202	292.57
475.639	339.38
476.076	297.25
476.512	376.83
476.949	325.33
477.385	278.52
477.821	358.1
478.258	332.36
478.694	297.25
479.13	322.99
479.566	360.44
480.002	390.87
480.438	322.99
480.874	299.59
481.31	318.31
481.746	322.99
482.181	285.55
482.617	332.36
483.053	376.83
483.488	334.7
483.924	346.4
484.36	252.78
484.795	308.95
485.23	301.93
485.666	351.08
486.101	330.02
486.536	344.06
486.971	330.02
487.407	339.38
487.842	374.49
488.277	339.38
488.712	322.99
489.146	311.29
489.581	320.65
490.016	367.46
490.451	297.25
490.885	351.08
491.32	273.84
491.755	315.97
492.189	278.52
492.624	360.44
493.058	355.76
493.492	334.7
493.927	365.12
494.361	276.18
494.795	308.95
495.229	325.33
495.663	327.67
496.097	259.8
496.531	322.99
496.965	320.65
497.399	313.63
497.833	301.93
498.266	332.36
498.7	346.4
499.134	283.2
499.567	266.82
500.001	353.42
500.434	351.08
500.868	386.19
501.301	339.38
501.734	374.49
502.168	313.63
502.601	304.27
503.034	320.65
503.467	334.7
503.9	362.78
504.333	351.08
504.766	285.55
505.199	278.52
505.632	369.8
506.064	318.31
506.497	290.23
506.93	327.67
507.362	313.63
507.795	341.72
508.227	297.25
508.66	330.02
509.092	339.38
509.524	341.72
509.956	322.99
510.389	294.91
510.821	362.78
511.253	372.15
511.685	397.89
512.117	360.44
512.549	290.23
512.981	308.95
513.412	346.4
513.844	388.53
514.276	318.31
514.707	320.65
515.139	348.74
515.571	334.7
516.002	285.55
516.433	334.7
516.865	287.89
517.296	315.97
517.727	304.27
518.159	341.72
518.59	332.36
519.021	318.31
519.452	257.46
519.883	322.99
520.314	346.4
520.744	337.04
521.175	348.74
521.606	346.4
522.037	360.44
522.467	315.97
522.898	287.89
523.328	334.7
523.759	320.65
524.189	346.4
524.62	304.27
525.05	332.36
525.48	332.36
525.91	334.7
526.341	311.29
526.771	374.49
527.201	327.67
527.631	308.95
528.061	355.76
528.49	334.7
528.92	348.74
529.35	301.93
529.78	273.84
530.209	315.97
530.639	397.89
531.068	273.84
531.498	344.06
531.927	372.15
532.357	351.08
532.786	290.23
533.215	334.7
533.644	313.63
534.074	337.04
534.503	379.17
534.932	315.97
535.361	383.85
535.79	294.91
536.218	315.97
536.647	360.44
537.076	327.67
537.505	273.84
537.933	388.53
538.362	355.76
538.79	337.04
539.219	334.7
539.647	353.42
540.076	332.36
540.504	376.83
540.932	376.83
541.36	262.14
541.788	322.99
542.217	388.53
542.645	292.57
543.073	358.1
543.5	273.84
543.928	365.12
544.356	280.86
544.784	301.93
545.211	339.38
545.639	311.29
546.067	353.42
546.494	287.89
546.922	306.61
547.349	376.83
547.776	330.02
548.204	308.95
548.631	290.23
549.058	276.18
549.485	353.42
549.912	353.42
550.339	278.52
550.766	372.15
551.193	351.08
551.62	322.99
552.047	327.67
552.474	369.8
552.9	276.18
553.327	374.49
553.754	308.95
554.18	311.29
554.607	318.31
555.033	337.04
555.459	315.97
555.886	344.06
556.312	353.42
556.738	344.06
557.164	306.61
557.59	322.99
558.016	262.14
558.442	294.91
558.868	257.46
559.294	332.36
559.72	318.31
560.145	320.65
560.571	299.59
560.997	299.59
561.422	304.27
561.848	339.38
562.273	292.57
562.699	301.93
563.124	334.7
563.549	322.99
563.974	320.65
564.4	283.2
564.825	287.89
565.25	341.72
565.675	285.55
566.1	339.38
566.525	358.1
566.95	308.95
567.374	285.55
567.799	280.86
568.224	376.83
568.648	362.78
569.073	287.89
569.497	332.36
569.922	259.8
570.346	292.57
570.771	379.17
571.195	327.67
571.619	337.04
572.043	304.27
572.467	344.06
572.891	248.1
573.315	292.57
573.739	250.44
574.163	299.59
574.587	360.44
575.011	304.27
575.435	315.97
575.858	341.72
576.282	325.33
576.705	257.46
577.129	318.31
577.552	337.04
577.976	299.59
578.399	332.36
578.822	294.91
579.245	320.65
579.669	278.52
580.092	292.57
580.515	313.63
580.938	308.95
581.361	339.38
581.784	313.63
582.206	372.15
582.629	351.08
583.052	311.29
583.474	297.25
583.897	285.55
584.32	318.31
584.742	351.08
585.165	395.55
585.587	327.67
586.009	327.67
586.431	297.25
586.854	341.72
587.276	344.06
587.698	325.33
588.12	278.52
588.542	346.4
588.964	355.76
589.386	313.63
589.807	322.99
590.229	379.17
590.651	358.1
591.073	311.29
591.494	332.36
591.916	322.99
592.337	313.63
592.759	273.84
593.18	376.83
593.601	280.86
594.022	337.04
594.444	360.44
594.865	348.74
595.286	353.42
595.707	344.06
596.128	362.78
596.549	285.55
596.97	320.65
597.39	346.4
597.811	341.72
598.232	351.08
598.652	374.49
599.073	325.33
599.494	344.06
599.914	313.63
600.334	332.36
600.755	339.38
601.175	388.53
601.595	397.89
602.015	313.63
602.436	322.99
602.856	512.58
603.276	393.21
603.696	322.99
604.115	346.4
604.535	304.27
604.955	337.04
605.375	287.89
605.794	318.31
606.214	344.06
606.634	351.08
607.053	339.38
607.473	379.17
607.892	367.46
608.311	383.85
608.731	299.59
609.15	306.61
609.569	383.85
609.988	325.33
610.407	358.1
610.826	339.38
611.245	341.72
611.664	367.46
612.083	318.31
612.501	287.89
612.92	283.2
613.339	276.18
613.757	362.78
614.176	278.52
614.594	313.63
615.013	315.97
615.431	369.8
615.85	337.04
616.268	318.31
616.686	337.04
617.104	313.63
617.522	355.76
617.94	297.25
618.358	287.89
618.776	320.65
619.194	313.63
619.612	259.8
620.03	346.4
620.447	290.23
620.865	348.74
621.282	318.31
621.7	355.76
622.117	311.29
622.535	297.25
622.952	311.29
623.369	297.25
623.787	301.93
624.204	301.93
624.621	374.49
625.038	259.8
625.455	379.17
625.872	362.78
626.289	269.16
626.706	301.93
627.123	285.55
627.539	280.86
627.956	299.59
628.373	327.67
628.789	348.74
629.206	346.4
629.622	287.89
630.038	278.52
630.455	283.2
630.871	292.57
631.287	292.57
631.703	341.72
632.12	346.4
632.536	297.25
632.952	287.89
633.368	311.29
633.783	351.08
634.199	334.7
634.615	294.91
635.031	341.72
635.446	311.29
635.862	322.99
636.277	374.49
636.693	322.99
637.108	327.67
637.524	428.32
637.939	318.31
638.354	367.46
638.77	285.55
639.185	325.33
639.6	355.76
640.015	344.06
640.43	315.97
640.845	360.44
641.259	327.67
641.674	381.51
642.089	308.95
642.504	308.95
642.918	374.49
643.333	358.1
643.747	294.91
644.162	348.74
644.576	325.33
644.991	339.38
645.405	344.06
645.819	341.72
646.233	362.78
646.647	238.73
647.061	353.42
647.475	290.23
647.889	280.86
648.303	322.99
648.717	337.04
649.131	299.59
649.545	386.19
649.958	390.87
650.372	322.99
650.785	320.65
651.199	353.42
651.612	330.02
652.026	304.27
652.439	355.76
652.852	259.8
653.266	280.86
653.679	344.06
654.092	322.99
654.505	297.25
654.918	290.23
655.331	287.89
655.744	402.57
656.156	299.59
656.569	313.63
656.982	344.06
657.394	355.76
657.807	301.93
658.22	339.38
658.632	351.08
659.044	360.44
659.457	306.61
659.869	311.29
660.281	339.38
660.693	304.27
661.106	322.99
661.518	313.63
661.93	315.97
662.342	334.7
662.754	351.08
663.165	355.76
663.577	341.72
663.989	341.72
664.401	280.86
664.812	304.27
665.224	330.02
665.635	271.5
666.047	238.73
666.458	311.29
666.869	238.73
667.281	278.52
667.692	325.33
668.103	313.63
668.514	362.78
668.925	388.53
669.336	332.36
669.747	299.59
670.158	304.27
670.569	332.36
670.979	346.4
671.39	374.49
671.801	348.74
672.211	360.44
672.622	290.23
673.032	301.93
673.443	292.57
673.853	330.02
674.263	294.91
674.674	386.19
675.084	395.55
675.494	358.1
675.904	241.08
676.314	374.49
676.724	362.78
677.134	301.93
677.544	348.74
677.953	365.12
678.363	433
678.773	407.25
679.182	367.46
679.592	367.46
680.001	320.65
680.411	287.89
680.82	313.63
681.23	334.7
681.639	311.29
682.048	311.29
682.457	407.25
682.866	318.31
683.275	332.36
683.684	311.29
684.093	358.1
684.502	294.91
684.911	250.44
685.32	290.23
685.728	306.61
686.137	306.61
686.546	308.95
686.954	294.91
687.363	264.48
687.771	304.27
688.179	327.67
688.588	320.65
688.996	332.36
689.404	353.42
689.812	332.36
690.22	344.06
690.628	372.15
691.036	351.08
691.444	271.5
691.852	327.67
692.26	388.53
692.667	388.53
693.075	299.59
693.483	283.2
693.89	297.25
694.298	365.12
694.705	327.67
695.112	395.55
695.52	348.74
695.927	308.95
696.334	325.33
696.741	297.25
697.148	306.61
697.555	311.29
697.962	283.2
698.369	276.18
698.776	248.1
699.183	383.85
699.59	339.38
699.996	227.03
700.403	332.36
700.81	313.63
701.216	301.93
701.623	362.78
702.029	386.19
702.435	332.36
702.842	318.31
703.248	367.46
703.654	299.59
704.06	334.7
704.466	374.49
704.872	339.38
705.278	381.51
705.684	390.87
706.09	332.36
706.496	334.7
706.901	353.42
707.307	290.23
707.712	276.18
708.118	290.23
708.523	322.99
708.929	379.17
709.334	362.78
709.74	313.63
710.145	273.84
710.55	308.95
710.955	322.99
711.36	294.91
711.765	341.72
712.17	358.1
712.575	287.89
712.98	828.55
713.385	374.49
713.789	355.76
714.194	264.48
714.599	257.46
715.003	304.27
715.408	339.38
715.812	320.65
716.217	250.44
716.621	290.23
717.025	276.18
717.429	344.06
717.833	320.65
718.238	294.91
718.642	330.02
719.046	332.36
719.449	285.55
719.853	339.38
720.257	332.36
720.661	315.97
721.065	341.72
721.468	299.59
721.872	292.57
722.275	299.59
722.679	351.08
723.082	341.72
723.485	278.52
723.889	353.42
724.292	320.65
724.695	388.53
725.098	308.95
725.501	290.23
725.904	304.27
726.307	320.65
726.71	318.31
727.113	292.57
727.516	362.78
727.918	341.72
728.321	330.02
728.724	395.55
729.126	348.74
729.529	299.59
729.931	369.8
730.333	315.97
730.736	325.33
731.138	278.52
731.54	297.25
731.942	266.82
732.344	351.08
732.746	290.23
733.148	285.55
733.55	262.14
733.952	313.63
734.354	337.04
734.756	339.38
735.157	280.86
735.559	273.84
735.96	351.08
736.362	334.7
736.763	353.42
737.165	301.93
737.566	306.61
737.967	304.27
738.368	318.31
738.77	332.36
739.171	372.15
739.572	322.99
739.973	346.4
740.374	339.38
740.774	280.86
741.175	318.31
741.576	294.91
741.977	339.38
742.377	325.33
742.778	315.97
743.178	287.89
743.579	318.31
743.979	297.25
744.379	346.4
744.78	360.44
745.18	341.72
745.58	325.33
745.98	360.44
746.38	301.93
746.78	308.95
747.18	290.23
747.58	365.12
747.98	299.59
748.38	315.97
748.779	334.7
749.179	306.61
749.578	334.7
749.978	358.1
750.377	313.63
750.777	327.67
751.176	322.99
751.575	337.04
751.975	372.15
752.374	379.17
752.773	339.38
753.172	266.82
753.571	315.97
753.97	374.49
754.369	294.91
754.768	292.57
755.166	369.8
755.565	294.91
755.964	297.25
756.362	299.59
756.761	330.02
757.159	304.27
757.558	332.36
757.956	341.72
758.354	330.02
758.753	269.16
759.151	355.76
759.549	369.8
759.947	360.44
760.345	334.7
760.743	294.91
761.141	404.91
761.539	327.67
761.936	290.23
762.334	365.12
762.732	346.4
763.129	395.55
763.527	344.06
763.924	362.78
764.322	255.12
764.719	278.52
765.117	306.61
