Data from Al_FLMS009871__810__15-24-57-006.txt Node

Date: Fri Mar 08 15:24:57 CST 2024
User: pe5414po
Spectrometer: FLMS00987
Trigger mode: 0
Integration Time (sec): 1.000000E-1
Scans to average: 1
Electric dark correction enabled: true
Nonlinearity correction enabled: false
Boxcar width: 0
XAxis mode: Wavelengths
Number of Pixels in Spectrum: 2048
>>>>>Begin Spectral Data<<<<<
188.938	-74.02
189.409	-74.02
189.879	-74.02
190.349	-78.7
190.819	-127.85
191.29	-27.21
191.76	-85.72
192.23	-123.17
192.7	-85.72
193.17	-74.02
193.64	-59.98
194.109	-67
194.579	-1.46
195.049	-43.59
195.519	38.33
195.988	7.9
196.458	101.52
196.927	96.84
197.397	94.5
197.866	127.27
198.336	101.52
198.805	157.69
199.274	160.03
199.744	122.59
200.213	148.33
200.682	190.46
201.151	209.19
201.62	272.38
202.089	192.8
202.558	302.81
203.027	234.93
203.495	272.38
203.964	323.87
204.433	241.95
204.902	206.84
205.37	309.83
205.839	272.38
206.307	298.13
206.776	302.81
207.244	286.42
207.712	300.47
208.181	192.8
208.649	227.91
209.117	272.38
209.585	312.17
210.053	281.74
210.521	316.85
210.989	267.7
211.457	230.25
211.925	281.74
212.393	216.21
212.861	260.68
213.328	307.49
213.796	274.72
214.264	234.93
214.731	244.29
215.199	270.04
215.666	256
216.133	244.29
216.601	234.93
217.068	220.89
217.535	256
218.003	319.19
218.47	263.02
218.937	253.66
219.404	298.13
219.871	263.02
220.338	286.42
220.805	244.29
221.271	216.21
221.738	218.55
222.205	309.83
222.671	237.27
223.138	192.8
223.605	272.38
224.071	220.89
224.538	281.74
225.004	272.38
225.47	246.63
225.937	258.34
226.403	223.23
226.869	234.93
227.335	291.1
227.801	202.16
228.267	204.5
228.733	199.82
229.199	202.16
229.665	244.29
230.131	279.4
230.597	274.72
231.062	234.93
231.528	298.13
231.994	197.48
232.459	213.87
232.925	230.25
233.39	291.1
233.856	223.23
234.321	272.38
234.786	246.63
235.252	241.95
235.717	225.57
236.182	256
236.647	300.47
237.112	239.61
237.577	265.36
238.042	248.97
238.507	337.91
238.972	239.61
239.436	270.04
239.901	206.84
240.366	237.27
240.83	263.02
241.295	279.4
241.76	204.5
242.224	267.7
242.688	216.21
243.153	277.06
243.617	279.4
244.081	232.59
244.545	349.62
245.01	211.53
245.474	270.04
245.938	270.04
246.402	298.13
246.866	309.83
247.33	227.91
247.793	223.23
248.257	284.08
248.721	274.72
249.185	300.47
249.648	258.34
250.112	270.04
250.575	206.84
251.039	291.1
251.502	328.55
251.965	293.44
252.429	237.27
252.892	253.66
253.355	258.34
253.818	286.42
254.281	309.83
254.744	291.1
255.207	342.6
255.67	316.85
256.133	265.36
256.596	239.61
257.059	328.55
257.522	302.81
257.984	270.04
258.447	314.51
258.909	270.04
259.372	272.38
259.834	263.02
260.297	284.08
260.759	232.59
261.221	265.36
261.684	263.02
262.146	267.7
262.608	277.06
263.07	241.95
263.532	300.47
263.994	300.47
264.456	241.95
264.918	246.63
265.38	204.5
265.842	160.03
266.303	267.7
266.765	251.32
267.227	272.38
267.688	326.21
268.15	258.34
268.611	274.72
269.072	302.81
269.534	309.83
269.995	284.08
270.456	321.53
270.918	263.02
271.379	258.34
271.84	220.89
272.301	267.7
272.762	263.02
273.223	291.1
273.684	274.72
274.144	274.72
274.605	288.76
275.066	286.42
275.527	253.66
275.987	309.83
276.448	281.74
276.908	316.85
277.369	307.49
277.829	295.79
278.289	323.87
278.75	351.96
279.21	293.44
279.67	265.36
280.13	307.49
280.59	288.76
281.05	288.76
281.51	272.38
281.97	328.55
282.43	330.89
282.89	246.63
283.35	265.36
283.809	319.19
284.269	286.42
284.729	337.91
285.188	300.47
285.648	267.7
286.107	291.1
286.567	246.63
287.026	197.48
287.485	291.1
287.944	293.44
288.404	305.15
288.863	333.23
289.322	244.29
289.781	291.1
290.24	286.42
290.699	256
291.158	284.08
291.616	281.74
292.075	272.38
292.534	246.63
292.992	351.96
293.451	314.51
293.91	323.87
294.368	244.29
294.827	314.51
295.285	298.13
295.743	241.95
296.202	251.32
296.66	267.7
297.118	237.27
297.576	363.66
298.034	251.32
298.492	321.53
298.95	265.36
299.408	202.16
299.866	246.63
300.324	260.68
300.781	277.06
301.239	258.34
301.697	227.91
302.154	286.42
302.612	373.02
303.069	284.08
303.527	312.17
303.984	225.57
304.441	265.36
304.899	251.32
305.356	333.23
305.813	253.66
306.27	286.42
306.727	267.7
307.184	312.17
307.641	354.3
308.098	267.7
308.555	298.13
309.012	312.17
309.468	230.25
309.925	223.23
310.382	227.91
310.838	298.13
311.295	319.19
311.751	302.81
312.208	279.4
312.664	305.15
313.12	241.95
313.577	244.29
314.033	328.55
314.489	363.66
314.945	274.72
315.401	246.63
315.857	370.68
316.313	267.7
316.769	270.04
317.225	277.06
317.681	267.7
318.136	298.13
318.592	256
319.048	284.08
319.503	298.13
319.959	260.68
320.414	270.04
320.869	286.42
321.325	263.02
321.78	326.21
322.235	241.95
322.691	312.17
323.146	237.27
323.601	309.83
324.056	321.53
324.511	270.04
324.966	314.51
325.421	277.06
325.875	351.96
326.33	347.28
326.785	330.89
327.24	307.49
327.694	279.4
328.149	279.4
328.603	291.1
329.058	234.93
329.512	354.3
329.966	321.53
330.421	293.44
330.875	305.15
331.329	263.02
331.783	288.76
332.237	361.32
332.691	333.23
333.145	349.62
333.599	309.83
334.053	354.3
334.507	368.34
334.96	293.44
335.414	309.83
335.868	342.6
336.321	293.44
336.775	291.1
337.228	370.68
337.682	375.36
338.135	358.98
338.588	319.19
339.042	328.55
339.495	279.4
339.948	258.34
340.401	370.68
340.854	295.79
341.307	286.42
341.76	209.19
342.213	298.13
342.666	321.53
343.119	274.72
343.571	321.53
344.024	295.79
344.477	316.85
344.929	286.42
345.382	272.38
345.834	281.74
346.287	251.32
346.739	344.94
347.191	344.94
347.644	323.87
348.096	295.79
348.548	274.72
349	241.95
349.452	274.72
349.904	246.63
350.356	302.81
350.808	295.79
351.26	279.4
351.711	328.55
352.163	286.42
352.615	319.19
353.066	316.85
353.518	265.36
353.969	291.1
354.421	302.81
354.872	281.74
355.324	312.17
355.775	272.38
356.226	323.87
356.677	263.02
357.128	244.29
357.579	248.97
358.03	248.97
358.481	293.44
358.932	314.51
359.383	281.74
359.834	260.68
360.285	349.62
360.735	300.47
361.186	265.36
361.637	342.6
362.087	344.94
362.538	319.19
362.988	263.02
363.438	300.47
363.889	307.49
364.339	340.26
364.789	295.79
365.239	361.32
365.689	323.87
366.139	349.62
366.589	333.23
367.039	326.21
367.489	316.85
367.939	312.17
368.389	295.79
368.839	316.85
369.288	330.89
369.738	330.89
370.187	319.19
370.637	307.49
371.086	293.44
371.536	347.28
371.985	263.02
372.434	230.25
372.884	227.91
373.333	347.28
373.782	356.64
374.231	333.23
374.68	302.81
375.129	286.42
375.578	272.38
376.027	272.38
376.475	373.02
376.924	286.42
377.373	312.17
377.822	244.29
378.27	286.42
378.719	288.76
379.167	335.57
379.616	328.55
380.064	272.38
380.512	312.17
380.961	316.85
381.409	260.68
381.857	263.02
382.305	300.47
382.753	370.68
383.201	298.13
383.649	330.89
384.097	309.83
384.545	295.79
384.992	265.36
385.44	330.89
385.888	267.7
386.335	314.51
386.783	349.62
387.231	239.61
387.678	234.93
388.125	251.32
388.573	237.27
389.02	281.74
389.467	274.72
389.914	319.19
390.362	274.72
390.809	253.66
391.256	347.28
391.703	323.87
392.15	272.38
392.596	342.6
393.043	319.19
393.49	230.25
393.937	284.08
394.383	286.42
394.83	241.95
395.276	277.06
395.723	307.49
396.169	291.1
396.616	307.49
397.062	270.04
397.508	293.44
397.954	293.44
398.401	234.93
398.847	354.3
399.293	349.62
399.739	305.15
400.185	314.51
400.631	333.23
401.076	316.85
401.522	300.47
401.968	335.57
402.414	302.81
402.859	312.17
403.305	312.17
403.75	272.38
404.196	265.36
404.641	258.34
405.086	281.74
405.532	286.42
405.977	309.83
406.422	333.23
406.867	335.57
407.312	295.79
407.757	312.17
408.202	291.1
408.647	284.08
409.092	307.49
409.537	302.81
409.982	258.34
410.426	309.83
410.871	277.06
411.316	256
411.76	305.15
412.205	302.81
412.649	295.79
413.093	256
413.538	314.51
413.982	241.95
414.426	309.83
414.87	241.95
415.314	309.83
415.758	265.36
416.202	321.53
416.646	342.6
417.09	293.44
417.534	272.38
417.978	263.02
418.421	253.66
418.865	265.36
419.309	323.87
419.752	319.19
420.196	328.55
420.639	309.83
421.083	309.83
421.526	302.81
421.969	291.1
422.412	272.38
422.856	300.47
423.299	309.83
423.742	286.42
424.185	314.51
424.628	361.32
425.071	300.47
425.513	342.6
425.956	265.36
426.399	227.91
426.842	260.68
427.284	286.42
427.727	274.72
428.169	314.51
428.612	267.7
429.054	340.26
429.497	344.94
429.939	361.32
430.381	396.43
430.823	335.57
431.265	211.53
431.707	213.87
432.149	270.04
432.591	305.15
433.033	270.04
433.475	312.17
433.917	330.89
434.359	265.36
434.8	265.36
435.242	316.85
435.684	300.47
436.125	267.7
436.567	248.97
437.008	272.38
437.449	270.04
437.891	286.42
438.332	213.87
438.773	298.13
439.214	323.87
439.656	401.11
440.097	326.21
440.538	354.3
440.978	354.3
441.419	302.81
441.86	335.57
442.301	288.76
442.742	307.49
443.182	274.72
443.623	300.47
444.063	293.44
444.504	298.13
444.944	358.98
445.385	305.15
445.825	281.74
446.265	314.51
446.706	251.32
447.146	277.06
447.586	298.13
448.026	309.83
448.466	251.32
448.906	382.39
449.346	298.13
449.786	288.76
450.225	314.51
450.665	288.76
451.105	265.36
451.544	298.13
451.984	270.04
452.424	358.98
452.863	330.89
453.302	291.1
453.742	284.08
454.181	237.27
454.62	333.23
455.059	244.29
455.499	319.19
455.938	300.47
456.377	286.42
456.816	246.63
457.254	267.7
457.693	272.38
458.132	361.32
458.571	307.49
459.01	309.83
459.448	307.49
459.887	305.15
460.325	279.4
460.764	274.72
461.202	361.32
461.641	288.76
462.079	326.21
462.517	358.98
462.955	356.64
463.393	335.57
463.832	288.76
464.27	274.72
464.708	258.34
465.145	239.61
465.583	265.36
466.021	302.81
466.459	267.7
466.897	302.81
467.334	256
467.772	244.29
468.209	333.23
468.647	307.49
469.084	342.6
469.522	314.51
469.959	347.28
470.396	209.19
470.833	270.04
471.271	260.68
471.708	302.81
472.145	263.02
472.582	234.93
473.019	288.76
473.456	293.44
473.892	351.96
474.329	258.34
474.766	314.51
475.202	307.49
475.639	300.47
476.076	288.76
476.512	270.04
476.949	307.49
477.385	302.81
477.821	309.83
478.258	284.08
478.694	321.53
479.13	335.57
479.566	281.74
480.002	281.74
480.438	220.89
480.874	300.47
481.31	307.49
481.746	328.55
482.181	244.29
482.617	340.26
483.053	361.32
483.488	330.89
483.924	277.06
484.36	309.83
484.795	305.15
485.23	302.81
485.666	286.42
486.101	298.13
486.536	337.91
486.971	340.26
487.407	347.28
487.842	330.89
488.277	307.49
488.712	272.38
489.146	314.51
489.581	248.97
490.016	277.06
490.451	335.57
490.885	300.47
491.32	256
491.755	288.76
492.189	349.62
492.624	321.53
493.058	267.7
493.492	281.74
493.927	293.44
494.361	253.66
494.795	291.1
495.229	340.26
495.663	314.51
496.097	333.23
496.531	253.66
496.965	291.1
497.399	295.79
497.833	302.81
498.266	326.21
498.7	347.28
499.134	314.51
499.567	284.08
500.001	286.42
500.434	274.72
500.868	272.38
501.301	288.76
501.734	277.06
502.168	270.04
502.601	342.6
503.034	323.87
503.467	316.85
503.9	265.36
504.333	326.21
504.766	382.39
505.199	340.26
505.632	274.72
506.064	267.7
506.497	284.08
506.93	260.68
507.362	295.79
507.795	263.02
508.227	321.53
508.66	328.55
509.092	218.55
509.524	312.17
509.956	272.38
510.389	314.51
510.821	295.79
511.253	291.1
511.685	356.64
512.117	323.87
512.549	298.13
512.981	298.13
513.412	337.91
513.844	286.42
514.276	307.49
514.707	223.23
515.139	265.36
515.571	370.68
516.002	288.76
516.433	293.44
516.865	270.04
517.296	258.34
517.727	358.98
518.159	227.91
518.59	314.51
519.021	326.21
519.452	401.11
519.883	319.19
520.314	309.83
520.744	270.04
521.175	284.08
521.606	307.49
522.037	291.1
522.467	347.28
522.898	302.81
523.328	323.87
523.759	288.76
524.189	253.66
524.62	309.83
525.05	295.79
525.48	307.49
525.91	316.85
526.341	408.13
526.771	314.51
527.201	260.68
527.631	349.62
528.061	316.85
528.49	237.27
528.92	293.44
529.35	274.72
529.78	319.19
530.209	232.59
530.639	380.04
531.068	263.02
531.498	291.1
531.927	333.23
532.357	312.17
532.786	293.44
533.215	234.93
533.644	295.79
534.074	312.17
534.503	370.68
534.932	347.28
535.361	300.47
535.79	307.49
536.218	220.89
536.647	344.94
537.076	328.55
537.505	323.87
537.933	293.44
538.362	288.76
538.79	284.08
539.219	286.42
539.647	312.17
540.076	328.55
540.504	241.95
540.932	300.47
541.36	335.57
541.788	370.68
542.217	267.7
542.645	302.81
543.073	281.74
543.5	316.85
543.928	293.44
544.356	265.36
544.784	361.32
545.211	323.87
545.639	312.17
546.067	337.91
546.494	328.55
546.922	288.76
547.349	293.44
547.776	291.1
548.204	281.74
548.631	263.02
549.058	293.44
549.485	323.87
549.912	323.87
550.339	295.79
550.766	309.83
551.193	351.96
551.62	265.36
552.047	293.44
552.474	321.53
552.9	277.06
553.327	298.13
553.754	267.7
554.18	333.23
554.607	253.66
555.033	298.13
555.459	284.08
555.886	349.62
556.312	321.53
556.738	323.87
557.164	316.85
557.59	272.38
558.016	305.15
558.442	370.68
558.868	358.98
559.294	284.08
559.72	291.1
560.145	302.81
560.571	326.21
560.997	309.83
561.422	305.15
561.848	319.19
562.273	281.74
562.699	256
563.124	319.19
563.549	326.21
563.974	281.74
564.4	342.6
564.825	319.19
565.25	248.97
565.675	312.17
566.1	263.02
566.525	265.36
566.95	295.79
567.374	279.4
567.799	333.23
568.224	286.42
568.648	347.28
569.073	256
569.497	270.04
569.922	340.26
570.346	288.76
570.771	272.38
571.195	300.47
571.619	298.13
572.043	309.83
572.467	270.04
572.891	272.38
573.315	333.23
573.739	284.08
574.163	319.19
574.587	340.26
575.011	375.36
575.435	326.21
575.858	300.47
576.282	291.1
576.705	328.55
577.129	272.38
577.552	382.39
577.976	300.47
578.399	309.83
578.822	314.51
579.245	351.96
579.669	293.44
580.092	309.83
580.515	342.6
580.938	270.04
581.361	279.4
581.784	234.93
582.206	328.55
582.629	274.72
583.052	330.89
583.474	354.3
583.897	356.64
584.32	323.87
584.742	337.91
585.165	286.42
585.587	307.49
586.009	309.83
586.431	316.85
586.854	244.29
587.276	288.76
587.698	260.68
588.12	286.42
588.542	321.53
588.964	277.06
589.386	265.36
589.807	288.76
590.229	312.17
590.651	337.91
591.073	312.17
591.494	272.38
591.916	358.98
592.337	305.15
592.759	263.02
593.18	342.6
593.601	300.47
594.022	309.83
594.444	284.08
594.865	286.42
595.286	316.85
595.707	258.34
596.128	347.28
596.549	319.19
596.97	232.59
597.39	274.72
597.811	312.17
598.232	295.79
598.652	253.66
599.073	274.72
599.494	300.47
599.914	248.97
600.334	274.72
600.755	267.7
601.175	314.51
601.595	272.38
602.015	307.49
602.436	291.1
602.856	443.24
603.276	363.66
603.696	319.19
604.115	302.81
604.535	347.28
604.955	300.47
605.375	302.81
605.794	337.91
606.214	323.87
606.634	351.96
607.053	305.15
607.473	333.23
607.892	314.51
608.311	241.95
608.731	293.44
609.15	330.89
609.569	307.49
609.988	321.53
610.407	251.32
610.826	277.06
611.245	248.97
611.664	330.89
612.083	295.79
612.501	326.21
612.92	307.49
613.339	298.13
613.757	291.1
614.176	344.94
614.594	335.57
615.013	335.57
615.431	302.81
615.85	300.47
616.268	256
616.686	335.57
617.104	316.85
617.522	323.87
617.94	300.47
618.358	300.47
618.776	298.13
619.194	363.66
619.612	302.81
620.03	286.42
620.447	309.83
620.865	274.72
621.282	204.5
621.7	314.51
622.117	349.62
622.535	248.97
622.952	300.47
623.369	307.49
623.787	326.21
624.204	300.47
624.621	321.53
625.038	300.47
625.455	227.91
625.872	265.36
626.289	384.73
626.706	281.74
627.123	281.74
627.539	272.38
627.956	239.61
628.373	244.29
628.789	398.77
629.206	323.87
629.622	253.66
630.038	326.21
630.455	361.32
630.871	321.53
631.287	354.3
631.703	370.68
632.12	340.26
632.536	330.89
632.952	323.87
633.368	270.04
633.783	284.08
634.199	291.1
634.615	286.42
635.031	307.49
635.446	298.13
635.862	314.51
636.277	305.15
636.693	279.4
637.108	302.81
637.524	316.85
637.939	330.89
638.354	307.49
638.77	288.76
639.185	323.87
639.6	326.21
640.015	305.15
640.43	279.4
640.845	288.76
641.259	298.13
641.674	274.72
642.089	335.57
642.504	321.53
642.918	298.13
643.333	349.62
643.747	295.79
644.162	274.72
644.576	356.64
644.991	354.3
645.405	267.7
645.819	195.14
646.233	366
646.647	361.32
647.061	349.62
647.475	256
647.889	298.13
648.303	337.91
648.717	251.32
649.131	305.15
649.545	305.15
649.958	270.04
650.372	305.15
650.785	302.81
651.199	363.66
651.612	209.19
652.026	256
652.439	274.72
652.852	272.38
653.266	321.53
653.679	351.96
654.092	351.96
654.505	347.28
654.918	319.19
655.331	263.02
655.744	316.85
656.156	312.17
656.569	248.97
656.982	248.97
657.394	267.7
657.807	284.08
658.22	305.15
658.632	284.08
659.044	316.85
659.457	260.68
659.869	300.47
660.281	260.68
660.693	300.47
661.106	251.32
661.518	321.53
661.93	248.97
662.342	316.85
662.754	337.91
663.165	368.34
663.577	333.23
663.989	293.44
664.401	246.63
664.812	319.19
665.224	295.79
665.635	312.17
666.047	342.6
666.458	263.02
666.869	281.74
667.281	335.57
667.692	356.64
668.103	368.34
668.514	342.6
668.925	323.87
669.336	354.3
669.747	263.02
670.158	328.55
670.569	358.98
670.979	312.17
671.39	298.13
671.801	277.06
672.211	300.47
672.622	277.06
673.032	267.7
673.443	270.04
673.853	312.17
674.263	328.55
674.674	316.85
675.084	265.36
675.494	340.26
675.904	323.87
676.314	323.87
676.724	326.21
677.134	295.79
677.544	333.23
677.953	302.81
678.363	302.81
678.773	312.17
679.182	227.91
679.592	312.17
680.001	295.79
680.411	300.47
680.82	328.55
681.23	305.15
681.639	277.06
682.048	251.32
682.457	291.1
682.866	319.19
683.275	330.89
683.684	279.4
684.093	316.85
684.502	295.79
684.911	323.87
685.32	309.83
685.728	246.63
686.137	241.95
686.546	241.95
686.954	274.72
687.363	291.1
687.771	300.47
688.179	288.76
688.588	288.76
688.996	263.02
689.404	305.15
689.812	267.7
690.22	260.68
690.628	330.89
691.036	234.93
691.444	377.7
691.852	302.81
692.26	340.26
692.667	337.91
693.075	272.38
693.483	328.55
693.89	286.42
694.298	319.19
694.705	309.83
695.112	342.6
695.52	300.47
695.927	335.57
696.334	253.66
696.741	328.55
697.148	274.72
697.555	281.74
697.962	307.49
698.369	230.25
698.776	258.34
699.183	309.83
699.59	272.38
699.996	302.81
700.403	293.44
700.81	326.21
701.216	286.42
701.623	277.06
702.029	277.06
702.435	314.51
702.842	302.81
703.248	335.57
703.654	260.68
704.06	279.4
704.466	279.4
704.872	347.28
705.278	312.17
705.684	316.85
706.09	349.62
706.496	316.85
706.901	319.19
707.307	300.47
707.712	284.08
708.118	291.1
708.523	274.72
708.929	319.19
709.334	333.23
709.74	309.83
710.145	309.83
710.55	328.55
710.955	295.79
711.36	354.3
711.765	291.1
712.17	323.87
712.575	295.79
712.98	873.9
713.385	279.4
713.789	281.74
714.194	330.89
714.599	270.04
715.003	267.7
715.408	237.27
715.812	253.66
716.217	295.79
716.621	302.81
717.025	307.49
717.429	267.7
717.833	323.87
718.238	387.07
718.642	286.42
719.046	326.21
719.449	349.62
719.853	358.98
720.257	337.91
720.661	251.32
721.065	288.76
721.468	305.15
721.872	295.79
722.275	267.7
722.679	246.63
723.082	288.76
723.485	279.4
723.889	256
724.292	335.57
724.695	281.74
725.098	279.4
725.501	326.21
725.904	337.91
726.307	316.85
726.71	347.28
727.113	321.53
727.516	326.21
727.918	351.96
728.321	288.76
728.724	347.28
729.126	356.64
729.529	312.17
729.931	321.53
730.333	302.81
730.736	333.23
731.138	314.51
731.54	337.91
731.942	342.6
732.344	305.15
732.746	307.49
733.148	279.4
733.55	272.38
733.952	302.81
734.354	344.94
734.756	279.4
735.157	307.49
735.559	309.83
735.96	295.79
736.362	373.02
736.763	237.27
737.165	330.89
737.566	263.02
737.967	218.55
738.368	265.36
738.77	295.79
739.171	333.23
739.572	300.47
739.973	234.93
740.374	342.6
740.774	326.21
741.175	241.95
741.576	291.1
741.977	267.7
742.377	293.44
742.778	330.89
743.178	260.68
743.579	272.38
743.979	274.72
744.379	225.57
744.78	220.89
745.18	279.4
745.58	323.87
745.98	309.83
746.38	263.02
746.78	326.21
747.18	298.13
747.58	284.08
747.98	337.91
748.38	267.7
748.779	284.08
749.179	307.49
749.578	291.1
749.978	309.83
750.377	274.72
750.777	286.42
751.176	302.81
751.575	239.61
751.975	286.42
752.374	295.79
752.773	316.85
753.172	337.91
753.571	302.81
753.97	274.72
754.369	330.89
754.768	349.62
755.166	394.09
755.565	277.06
755.964	337.91
756.362	342.6
756.761	244.29
757.159	286.42
757.558	326.21
757.956	272.38
758.354	330.89
758.753	277.06
759.151	358.98
759.549	256
759.947	342.6
760.345	319.19
760.743	270.04
761.141	244.29
761.539	314.51
761.936	256
762.334	281.74
762.732	349.62
763.129	295.79
763.527	335.57
763.924	323.87
764.322	319.19
764.719	267.7
765.117	312.17
765.514	284.08
765.911	312.17
766.308	277.06
