Data from Al_FLMS009871__805__15-24-56-507.txt Node

Date: Fri Mar 08 15:24:56 CST 2024
User: pe5414po
Spectrometer: FLMS00987
Trigger mode: 0
Integration Time (sec): 1.000000E-1
Scans to average: 1
Electric dark correction enabled: true
Nonlinearity correction enabled: false
Boxcar width: 0
XAxis mode: Wavelengths
Number of Pixels in Spectrum: 2048
>>>>>Begin Spectral Data<<<<<
188.938	-97.57
189.409	-97.57
189.879	-97.57
190.349	-55.44
190.819	-57.78
191.29	-69.48
191.76	-81.19
192.23	-137.36
192.7	-109.27
193.17	-43.74
193.64	-50.76
194.109	-60.12
194.579	33.5
195.049	-13.31
195.519	5.41
195.988	47.54
196.458	47.54
196.927	103.71
197.397	113.08
197.866	108.4
198.336	106.06
198.805	171.59
199.274	129.46
199.744	166.91
200.213	276.91
200.682	150.53
201.151	248.83
201.62	279.26
202.089	251.17
202.558	262.87
203.027	274.57
203.495	248.83
203.964	227.76
204.433	265.21
204.902	255.85
205.37	342.45
205.839	351.81
206.307	393.94
206.776	337.77
207.244	309.68
207.712	323.73
208.181	393.94
208.649	335.43
209.117	363.51
209.585	307.34
210.053	272.23
210.521	283.94
210.989	386.92
211.457	344.79
211.925	316.7
212.393	330.75
212.861	356.49
213.328	262.87
213.796	307.34
214.264	251.17
214.731	333.09
215.199	302.66
215.666	274.57
216.133	293.3
216.601	344.79
217.068	234.78
217.535	300.32
218.003	290.96
218.47	258.19
218.937	358.83
219.404	251.17
219.871	255.85
220.338	265.21
220.805	253.51
221.271	272.23
221.738	293.3
222.205	234.78
222.671	351.81
223.138	283.94
223.605	283.94
224.071	272.23
224.538	283.94
225.004	272.23
225.47	319.04
225.937	216.06
226.403	274.57
226.869	234.78
227.335	241.81
227.801	223.08
228.267	265.21
228.733	319.04
229.199	307.34
229.665	330.75
230.131	274.57
230.597	258.19
231.062	246.49
231.528	279.26
231.994	323.73
232.459	267.55
232.925	300.32
233.39	258.19
233.856	241.81
234.321	300.32
234.786	314.36
235.252	260.53
235.717	295.64
236.182	316.7
236.647	316.7
237.112	276.91
237.577	302.66
238.042	300.32
238.507	260.53
238.972	340.11
239.436	351.81
239.901	258.19
240.366	241.81
240.83	316.7
241.295	351.81
241.76	319.04
242.224	230.1
242.688	265.21
243.153	302.66
243.617	333.09
244.081	297.98
244.545	286.28
245.01	305
245.474	295.64
245.938	319.04
246.402	269.89
246.866	286.28
247.33	258.19
247.793	300.32
248.257	293.3
248.721	260.53
249.185	323.73
249.648	225.42
250.112	288.62
250.575	319.04
251.039	297.98
251.502	295.64
251.965	330.75
252.429	288.62
252.892	246.49
253.355	288.62
253.818	267.55
254.281	272.23
254.744	321.38
255.207	314.36
255.67	307.34
256.133	290.96
256.596	251.17
257.059	361.17
257.522	328.41
257.984	255.85
258.447	293.3
258.909	316.7
259.372	281.6
259.834	326.07
260.297	305
260.759	300.32
261.221	312.02
261.684	288.62
262.146	297.98
262.608	342.45
263.07	246.49
263.532	328.41
263.994	269.89
264.456	269.89
264.918	281.6
265.38	323.73
265.842	293.3
266.303	288.62
266.765	251.17
267.227	260.53
267.688	305
268.15	337.77
268.611	340.11
269.072	302.66
269.534	279.26
269.995	328.41
270.456	326.07
270.918	314.36
271.379	319.04
271.84	307.34
272.301	330.75
272.762	368.2
273.223	290.96
273.684	274.57
274.144	372.88
274.605	262.87
275.066	276.91
275.527	297.98
275.987	309.68
276.448	321.38
276.908	297.98
277.369	337.77
277.829	326.07
278.289	330.75
278.75	328.41
279.21	283.94
279.67	330.75
280.13	326.07
280.59	375.22
281.05	297.98
281.51	305
281.97	351.81
282.43	368.2
282.89	335.43
283.35	321.38
283.809	258.19
284.269	328.41
284.729	314.36
285.188	302.66
285.648	370.54
286.107	333.09
286.567	302.66
287.026	276.91
287.485	286.28
287.944	281.6
288.404	384.58
288.863	295.64
289.322	309.68
289.781	276.91
290.24	293.3
290.699	269.89
291.158	328.41
291.616	279.26
292.075	375.22
292.534	347.13
292.992	316.7
293.451	312.02
293.91	340.11
294.368	293.3
294.827	377.56
295.285	321.38
295.743	328.41
296.202	267.55
296.66	323.73
297.118	314.36
297.576	286.28
298.034	279.26
298.492	365.85
298.95	295.64
299.408	305
299.866	337.77
300.324	283.94
300.781	302.66
301.239	244.15
301.697	281.6
302.154	283.94
302.612	314.36
303.069	295.64
303.527	307.34
303.984	344.79
304.441	290.96
304.899	314.36
305.356	295.64
305.813	363.51
306.27	321.38
306.727	302.66
307.184	365.85
307.641	267.55
308.098	326.07
308.555	328.41
309.012	314.36
309.468	288.62
309.925	305
310.382	274.57
310.838	330.75
311.295	333.09
311.751	344.79
312.208	323.73
312.664	365.85
313.12	281.6
313.577	272.23
314.033	260.53
314.489	356.49
314.945	326.07
315.401	297.98
315.857	312.02
316.313	312.02
316.769	330.75
317.225	349.47
317.681	321.38
318.136	272.23
318.592	323.73
319.048	342.45
319.503	351.81
319.959	347.13
320.414	312.02
320.869	309.68
321.325	314.36
321.78	262.87
322.235	358.83
322.691	328.41
323.146	358.83
323.601	319.04
324.056	349.47
324.511	417.35
324.966	302.66
325.421	305
325.875	288.62
326.33	375.22
326.785	319.04
327.24	305
327.694	323.73
328.149	363.51
328.603	340.11
329.058	283.94
329.512	337.77
329.966	309.68
330.421	274.57
330.875	337.77
331.329	290.96
331.783	344.79
332.237	297.98
332.691	356.49
333.145	316.7
333.599	344.79
334.053	316.7
334.507	321.38
334.96	344.79
335.414	283.94
335.868	363.51
336.321	223.08
336.775	281.6
337.228	269.89
337.682	290.96
338.135	302.66
338.588	330.75
339.042	302.66
339.495	368.2
339.948	363.51
340.401	333.09
340.854	342.45
341.307	314.36
341.76	309.68
342.213	368.2
342.666	351.81
343.119	351.81
343.571	323.73
344.024	349.47
344.477	309.68
344.929	361.17
345.382	319.04
345.834	309.68
346.287	323.73
346.739	251.17
347.191	295.64
347.644	265.21
348.096	382.24
348.548	309.68
349	335.43
349.452	295.64
349.904	272.23
350.356	293.3
350.808	312.02
351.26	382.24
351.711	347.13
352.163	293.3
352.615	323.73
353.066	365.85
353.518	283.94
353.969	340.11
354.421	253.51
354.872	351.81
355.324	335.43
355.775	333.09
356.226	314.36
356.677	368.2
357.128	300.32
357.579	340.11
358.03	305
358.481	375.22
358.932	328.41
359.383	316.7
359.834	323.73
360.285	337.77
360.735	293.3
361.186	265.21
361.637	344.79
362.087	351.81
362.538	335.43
362.988	333.09
363.438	286.28
363.889	302.66
364.339	323.73
364.789	358.83
365.239	262.87
365.689	347.13
366.139	342.45
366.589	253.51
367.039	328.41
367.489	340.11
367.939	349.47
368.389	295.64
368.839	335.43
369.288	288.62
369.738	365.85
370.187	276.91
370.637	300.32
371.086	321.38
371.536	330.75
371.985	302.66
372.434	309.68
372.884	391.6
373.333	305
373.782	337.77
374.231	436.07
374.68	386.92
375.129	316.7
375.578	290.96
376.027	321.38
376.475	351.81
376.924	286.28
377.373	340.11
377.822	363.51
378.27	262.87
378.719	412.67
379.167	281.6
379.616	319.04
380.064	344.79
380.512	330.75
380.961	344.79
381.409	330.75
381.857	410.33
382.305	326.07
382.753	365.85
383.201	340.11
383.649	398.62
384.097	335.43
384.545	330.75
384.992	386.92
385.44	300.32
385.888	351.81
386.335	382.24
386.783	347.13
387.231	295.64
387.678	260.53
388.125	319.04
388.573	279.26
389.02	302.66
389.467	276.91
389.914	330.75
390.362	297.98
390.809	349.47
391.256	384.58
391.703	281.6
392.15	314.36
392.596	335.43
393.043	290.96
393.49	354.15
393.937	330.75
394.383	361.17
394.83	321.38
395.276	265.21
395.723	340.11
396.169	309.68
396.616	389.26
397.062	323.73
397.508	333.09
397.954	314.36
398.401	354.15
398.847	328.41
399.293	337.77
399.739	347.13
400.185	290.96
400.631	321.38
401.076	326.07
401.522	302.66
401.968	321.38
402.414	340.11
402.859	314.36
403.305	326.07
403.75	272.23
404.196	347.13
404.641	347.13
405.086	305
405.532	349.47
405.977	232.44
406.422	312.02
406.867	283.94
407.312	347.13
407.757	389.26
408.202	344.79
408.647	244.15
409.092	403.3
409.537	302.66
409.982	342.45
410.426	344.79
410.871	330.75
411.316	400.96
411.76	314.36
412.205	328.41
412.649	321.38
413.093	337.77
413.538	382.24
413.982	319.04
414.426	386.92
414.87	319.04
415.314	363.51
415.758	274.57
416.202	358.83
416.646	314.36
417.09	330.75
417.534	358.83
417.978	300.32
418.421	314.36
418.865	337.77
419.309	365.85
419.752	290.96
420.196	358.83
420.639	379.9
421.083	344.79
421.526	326.07
421.969	354.15
422.412	337.77
422.856	328.41
423.299	415.01
423.742	288.62
424.185	354.15
424.628	340.11
425.071	312.02
425.513	351.81
425.956	316.7
426.399	326.07
426.842	342.45
427.284	342.45
427.727	356.49
428.169	293.3
428.612	288.62
429.054	305
429.497	290.96
429.939	326.07
430.381	319.04
430.823	302.66
431.265	337.77
431.707	297.98
432.149	349.47
432.591	283.94
433.033	309.68
433.475	368.2
433.917	377.56
434.359	370.54
434.8	356.49
435.242	316.7
435.684	412.67
436.125	375.22
436.567	361.17
437.008	297.98
437.449	340.11
437.891	340.11
438.332	297.98
438.773	319.04
439.214	288.62
439.656	286.28
440.097	356.49
440.538	307.34
440.978	330.75
441.419	302.66
441.86	286.28
442.301	344.79
442.742	330.75
443.182	314.36
443.623	370.54
444.063	347.13
444.504	344.79
444.944	393.94
445.385	356.49
445.825	361.17
446.265	251.17
446.706	302.66
447.146	354.15
447.586	358.83
448.026	314.36
448.466	326.07
448.906	347.13
449.346	316.7
449.786	295.64
450.225	314.36
450.665	330.75
451.105	279.26
451.544	344.79
451.984	328.41
452.424	333.09
452.863	276.91
453.302	316.7
453.742	335.43
454.181	326.07
454.62	356.49
455.059	333.09
455.499	391.6
455.938	302.66
456.377	288.62
456.816	316.7
457.254	300.32
457.693	386.92
458.132	342.45
458.571	251.17
459.01	372.88
459.448	316.7
459.887	365.85
460.325	384.58
460.764	363.51
461.202	354.15
461.641	400.96
462.079	326.07
462.517	382.24
462.955	312.02
463.393	316.7
463.832	316.7
464.27	368.2
464.708	279.26
465.145	323.73
465.583	288.62
466.021	363.51
466.459	314.36
466.897	326.07
467.334	337.77
467.772	410.33
468.209	312.02
468.647	356.49
469.084	344.79
469.522	358.83
469.959	321.38
470.396	333.09
470.833	349.47
471.271	330.75
471.708	314.36
472.145	267.55
472.582	356.49
473.019	286.28
473.456	276.91
473.892	351.81
474.329	286.28
474.766	382.24
475.202	319.04
475.639	361.17
476.076	379.9
476.512	295.64
476.949	330.75
477.385	297.98
477.821	347.13
478.258	286.28
478.694	361.17
479.13	323.73
479.566	410.33
480.002	344.79
480.438	351.81
480.874	370.54
481.31	323.73
481.746	283.94
482.181	297.98
482.617	295.64
483.053	295.64
483.488	356.49
483.924	314.36
484.36	344.79
484.795	319.04
485.23	342.45
485.666	297.98
486.101	328.41
486.536	358.83
486.971	316.7
487.407	281.6
487.842	349.47
488.277	279.26
488.712	328.41
489.146	288.62
489.581	297.98
490.016	351.81
490.451	335.43
490.885	269.89
491.32	312.02
491.755	297.98
492.189	314.36
492.624	321.38
493.058	321.38
493.492	361.17
493.927	335.43
494.361	314.36
494.795	342.45
495.229	323.73
495.663	323.73
496.097	321.38
496.531	333.09
496.965	370.54
497.399	314.36
497.833	351.81
498.266	389.26
498.7	328.41
499.134	370.54
499.567	347.13
500.001	379.9
500.434	333.09
500.868	330.75
501.301	351.81
501.734	372.88
502.168	370.54
502.601	272.23
503.034	333.09
503.467	337.77
503.9	349.47
504.333	370.54
504.766	288.62
505.199	361.17
505.632	274.57
506.064	305
506.497	305
506.93	293.3
507.362	351.81
507.795	333.09
508.227	347.13
508.66	305
509.092	281.6
509.524	347.13
509.956	342.45
510.389	279.26
510.821	323.73
511.253	372.88
511.685	321.38
512.117	375.22
512.549	354.15
512.981	375.22
513.412	307.34
513.844	351.81
514.276	358.83
514.707	330.75
515.139	349.47
515.571	382.24
516.002	295.64
516.433	361.17
516.865	398.62
517.296	305
517.727	344.79
518.159	398.62
518.59	319.04
519.021	276.91
519.452	370.54
519.883	368.2
520.314	319.04
520.744	372.88
521.175	337.77
521.606	309.68
522.037	305
522.467	288.62
522.898	386.92
523.328	269.89
523.759	335.43
524.189	319.04
524.62	293.3
525.05	356.49
525.48	330.75
525.91	377.56
526.341	354.15
526.771	351.81
527.201	326.07
527.631	351.81
528.061	356.49
528.49	279.26
528.92	286.28
529.35	326.07
529.78	319.04
530.209	316.7
530.639	391.6
531.068	323.73
531.498	288.62
531.927	293.3
532.357	382.24
532.786	335.43
533.215	351.81
533.644	326.07
534.074	365.85
534.503	349.47
534.932	344.79
535.361	276.91
535.79	246.49
536.218	340.11
536.647	319.04
537.076	335.43
537.505	347.13
537.933	361.17
538.362	305
538.79	386.92
539.219	321.38
539.647	288.62
540.076	323.73
540.504	384.58
540.932	305
541.36	290.96
541.788	326.07
542.217	361.17
542.645	358.83
543.073	314.36
543.5	368.2
543.928	283.94
544.356	370.54
544.784	347.13
545.211	286.28
545.639	403.3
546.067	375.22
546.494	309.68
546.922	354.15
547.349	365.85
547.776	326.07
548.204	288.62
548.631	340.11
549.058	288.62
549.485	302.66
549.912	344.79
550.339	307.34
550.766	272.23
551.193	386.92
551.62	239.47
552.047	354.15
552.474	279.26
552.9	340.11
553.327	342.45
553.754	305
554.18	316.7
554.607	377.56
555.033	300.32
555.459	314.36
555.886	328.41
556.312	330.75
556.738	389.26
557.164	368.2
557.59	305
558.016	279.26
558.442	333.09
558.868	365.85
559.294	300.32
559.72	314.36
560.145	335.43
560.571	375.22
560.997	335.43
561.422	368.2
561.848	384.58
562.273	358.83
562.699	288.62
563.124	288.62
563.549	347.13
563.974	312.02
564.4	300.32
564.825	326.07
565.25	307.34
565.675	316.7
566.1	333.09
566.525	363.51
566.95	255.85
567.374	344.79
567.799	283.94
568.224	328.41
568.648	340.11
569.073	286.28
569.497	330.75
569.922	379.9
570.346	419.69
570.771	300.32
571.195	295.64
571.619	356.49
572.043	337.77
572.467	302.66
572.891	241.81
573.315	347.13
573.739	283.94
574.163	386.92
574.587	300.32
575.011	358.83
575.435	288.62
575.858	314.36
576.282	337.77
576.705	354.15
577.129	272.23
577.552	326.07
577.976	356.49
578.399	293.3
578.822	316.7
579.245	302.66
579.669	372.88
580.092	307.34
580.515	295.64
580.938	302.66
581.361	323.73
581.784	302.66
582.206	340.11
582.629	342.45
583.052	258.19
583.474	290.96
583.897	295.64
584.32	314.36
584.742	300.32
585.165	281.6
585.587	279.26
586.009	305
586.431	337.77
586.854	340.11
587.276	283.94
587.698	363.51
588.12	333.09
588.542	363.51
588.964	375.22
589.386	333.09
589.807	368.2
590.229	290.96
590.651	335.43
591.073	340.11
591.494	342.45
591.916	370.54
592.337	274.57
592.759	344.79
593.18	361.17
593.601	379.9
594.022	314.36
594.444	300.32
594.865	316.7
595.286	356.49
595.707	333.09
596.128	365.85
596.549	265.21
596.97	321.38
597.39	302.66
597.811	290.96
598.232	274.57
598.652	351.81
599.073	393.94
599.494	361.17
599.914	269.89
600.334	323.73
600.755	328.41
601.175	344.79
601.595	276.91
602.015	326.07
602.436	267.55
602.856	405.64
603.276	297.98
603.696	290.96
604.115	354.15
604.535	328.41
604.955	319.04
605.375	321.38
605.794	335.43
606.214	386.92
606.634	354.15
607.053	297.98
607.473	323.73
607.892	330.75
608.311	342.45
608.731	312.02
609.15	307.34
609.569	384.58
609.988	300.32
610.407	333.09
610.826	258.19
611.245	246.49
611.664	372.88
612.083	321.38
612.501	295.64
612.92	347.13
613.339	365.85
613.757	368.2
614.176	342.45
614.594	356.49
615.013	358.83
615.431	372.88
615.85	375.22
616.268	333.09
616.686	377.56
617.104	309.68
617.522	372.88
617.94	246.49
618.358	356.49
618.776	244.15
619.194	372.88
619.612	335.43
620.03	319.04
620.447	326.07
620.865	288.62
621.282	274.57
621.7	321.38
622.117	321.38
622.535	297.98
622.952	312.02
623.369	347.13
623.787	389.26
624.204	333.09
624.621	326.07
625.038	342.45
625.455	405.64
625.872	347.13
626.289	361.17
626.706	363.51
627.123	379.9
627.539	295.64
627.956	330.75
628.373	319.04
628.789	312.02
629.206	286.28
629.622	305
630.038	314.36
630.455	400.96
630.871	272.23
631.287	422.03
631.703	403.3
632.12	295.64
632.536	307.34
632.952	269.89
633.368	368.2
633.783	283.94
634.199	370.54
634.615	321.38
635.031	274.57
635.446	342.45
635.862	319.04
636.277	281.6
636.693	323.73
637.108	347.13
637.524	337.77
637.939	396.28
638.354	302.66
638.77	281.6
639.185	377.56
639.6	251.17
640.015	290.96
640.43	356.49
640.845	405.64
641.259	365.85
641.674	293.3
642.089	293.3
642.504	349.47
642.918	328.41
643.333	344.79
643.747	323.73
644.162	323.73
644.576	305
644.991	316.7
645.405	288.62
645.819	295.64
646.233	276.91
646.647	398.62
647.061	340.11
647.475	344.79
647.889	323.73
648.303	333.09
648.717	262.87
649.131	351.81
649.545	354.15
649.958	281.6
650.372	342.45
650.785	335.43
651.199	351.81
651.612	354.15
652.026	344.79
652.439	328.41
652.852	349.47
653.266	365.85
653.679	335.43
654.092	344.79
654.505	297.98
654.918	407.98
655.331	363.51
655.744	269.89
656.156	415.01
656.569	344.79
656.982	342.45
657.394	274.57
657.807	349.47
658.22	342.45
658.632	307.34
659.044	323.73
659.457	295.64
659.869	398.62
660.281	281.6
660.693	326.07
661.106	295.64
661.518	328.41
661.93	319.04
662.342	312.02
662.754	340.11
663.165	319.04
663.577	302.66
663.989	372.88
664.401	342.45
664.812	286.28
665.224	377.56
665.635	333.09
666.047	297.98
666.458	351.81
666.869	262.87
667.281	351.81
667.692	300.32
668.103	330.75
668.514	295.64
668.925	363.51
669.336	262.87
669.747	307.34
670.158	295.64
670.569	351.81
670.979	321.38
671.39	321.38
671.801	326.07
672.211	286.28
672.622	276.91
673.032	356.49
673.443	337.77
673.853	368.2
674.263	328.41
674.674	342.45
675.084	260.53
675.494	283.94
675.904	272.23
676.314	297.98
676.724	365.85
677.134	260.53
677.544	342.45
677.953	274.57
678.363	279.26
678.773	363.51
679.182	316.7
679.592	328.41
680.001	365.85
680.411	377.56
680.82	344.79
681.23	386.92
681.639	283.94
682.048	340.11
682.457	319.04
682.866	302.66
683.275	305
683.684	337.77
684.093	290.96
684.502	372.88
684.911	422.03
685.32	333.09
685.728	354.15
686.137	283.94
686.546	372.88
686.954	382.24
687.363	323.73
687.771	307.34
688.179	290.96
688.588	405.64
688.996	312.02
689.404	328.41
689.812	330.75
690.22	297.98
690.628	305
691.036	393.94
691.444	316.7
691.852	351.81
692.26	321.38
692.667	305
693.075	335.43
693.483	335.43
693.89	333.09
694.298	347.13
694.705	305
695.112	326.07
695.52	354.15
695.927	333.09
696.334	349.47
696.741	276.91
697.148	302.66
697.555	358.83
697.962	347.13
698.369	276.91
698.776	351.81
699.183	300.32
699.59	272.23
699.996	382.24
700.403	361.17
700.81	342.45
701.216	344.79
701.623	251.17
702.029	335.43
702.435	328.41
702.842	333.09
703.248	368.2
703.654	400.96
704.06	335.43
704.466	349.47
704.872	286.28
705.278	356.49
705.684	316.7
706.09	293.3
706.496	342.45
706.901	281.6
707.307	293.3
707.712	368.2
708.118	248.83
708.523	403.3
708.929	316.7
709.334	319.04
709.74	309.68
710.145	248.83
710.55	297.98
710.955	307.34
711.36	293.3
711.765	326.07
712.17	347.13
712.575	330.75
712.98	794.17
713.385	342.45
713.789	326.07
714.194	330.75
714.599	309.68
715.003	321.38
715.408	281.6
715.812	293.3
716.217	370.54
716.621	386.92
717.025	281.6
717.429	269.89
717.833	300.32
718.238	300.32
718.642	286.28
719.046	316.7
719.449	358.83
719.853	330.75
720.257	330.75
720.661	323.73
721.065	358.83
721.468	333.09
721.872	351.81
722.275	272.23
722.679	384.58
723.082	347.13
723.485	328.41
723.889	328.41
724.292	344.79
724.695	400.96
725.098	274.57
725.501	307.34
725.904	335.43
726.307	372.88
726.71	344.79
727.113	286.28
727.516	335.43
727.918	312.02
728.321	316.7
728.724	274.57
729.126	347.13
729.529	293.3
729.931	342.45
730.333	321.38
730.736	305
731.138	288.62
731.54	300.32
731.942	375.22
732.344	295.64
732.746	276.91
733.148	340.11
733.55	349.47
733.952	382.24
734.354	305
734.756	295.64
735.157	347.13
735.559	333.09
735.96	335.43
736.362	323.73
736.763	328.41
737.165	297.98
737.566	290.96
737.967	372.88
738.368	347.13
738.77	283.94
739.171	372.88
739.572	283.94
739.973	419.69
740.374	363.51
740.774	347.13
741.175	307.34
741.576	328.41
741.977	288.62
742.377	312.02
742.778	316.7
743.178	358.83
743.579	405.64
743.979	349.47
744.379	305
744.78	354.15
745.18	300.32
745.58	300.32
745.98	295.64
746.38	300.32
746.78	368.2
747.18	330.75
747.58	297.98
747.98	351.81
748.38	335.43
748.779	290.96
749.179	323.73
749.578	326.07
749.978	333.09
750.377	312.02
750.777	330.75
751.176	365.85
751.575	312.02
751.975	309.68
752.374	276.91
752.773	281.6
753.172	358.83
753.571	337.77
753.97	335.43
754.369	309.68
754.768	372.88
755.166	361.17
755.565	307.34
755.964	312.02
756.362	312.02
756.761	312.02
757.159	347.13
757.558	321.38
757.956	361.17
758.354	314.36
758.753	262.87
759.151	368.2
759.549	300.32
759.947	300.32
760.345	295.64
760.743	335.43
761.141	328.41
761.539	335.43
761.936	307.34
762.334	309.68
762.732	349.47
763.129	354.15
763.527	302.66
763.924	335.43
764.322	368.2
764.719	347.13
765.117	340.11
765.514	337.77
765.911	279.26
766.308	351.81
766.705	349.47
