Data from Al_FLMS009871__808__15-24-56-807.txt Node

Date: Fri Mar 08 15:24:56 CST 2024
User: pe5414po
Spectrometer: FLMS00987
Trigger mode: 0
Integration Time (sec): 1.000000E-1
Scans to average: 1
Electric dark correction enabled: true
Nonlinearity correction enabled: false
Boxcar width: 0
XAxis mode: Wavelengths
Number of Pixels in Spectrum: 2048
>>>>>Begin Spectral Data<<<<<
188.938	-21.36
189.409	-21.36
189.879	-21.36
190.349	-147.75
190.819	-131.36
191.29	-133.7
191.76	-100.94
192.23	-117.32
192.7	-93.91
193.17	-61.15
193.64	-7.31
194.109	-51.78
194.579	11.41
195.049	27.79
195.519	48.86
195.988	-9.65
196.458	30.13
196.927	79.29
197.397	135.46
197.866	107.37
198.336	135.46
198.805	93.33
199.274	133.12
199.744	240.78
200.213	268.87
200.682	161.2
201.151	205.67
201.62	224.4
202.089	137.8
202.558	245.46
203.027	261.85
203.495	327.38
203.964	280.57
204.433	189.29
204.902	261.85
205.37	200.99
205.839	252.49
206.307	257.17
206.776	257.17
207.244	308.66
207.712	301.64
208.181	280.57
208.649	250.14
209.117	282.91
209.585	205.67
210.053	247.8
210.521	289.93
210.989	296.96
211.457	261.85
211.925	289.93
212.393	329.72
212.861	257.17
213.328	240.78
213.796	224.4
214.264	266.53
214.731	257.17
215.199	268.87
215.666	254.83
216.133	219.72
216.601	208.02
217.068	259.51
217.535	212.7
218.003	280.57
218.47	273.55
218.937	299.3
219.404	296.96
219.871	259.51
220.338	257.17
220.805	257.17
221.271	271.21
221.738	226.74
222.205	268.87
222.671	254.83
223.138	226.74
223.605	243.12
224.071	210.36
224.538	259.51
225.004	172.91
225.47	243.12
225.937	289.93
226.403	259.51
226.869	236.1
227.335	292.27
227.801	257.17
228.267	247.8
228.733	236.1
229.199	308.66
229.665	233.76
230.131	236.1
230.597	254.83
231.062	294.61
231.528	224.4
231.994	299.3
232.459	266.53
232.925	219.72
233.39	268.87
233.856	233.76
234.321	289.93
234.786	245.46
235.252	236.1
235.717	189.29
236.182	224.4
236.647	303.98
237.112	257.17
237.577	219.72
238.042	191.63
238.507	289.93
238.972	268.87
239.436	245.46
239.901	264.19
240.366	222.06
240.83	257.17
241.295	198.65
241.76	219.72
242.224	219.72
242.688	259.51
243.153	208.02
243.617	196.31
244.081	236.1
244.545	217.38
245.01	226.74
245.474	294.61
245.938	154.18
246.402	238.44
246.866	243.12
247.33	233.76
247.793	301.64
248.257	203.33
248.721	254.83
249.185	182.27
249.648	243.12
250.112	275.89
250.575	250.14
251.039	327.38
251.502	203.33
251.965	275.89
252.429	296.96
252.892	264.19
253.355	243.12
253.818	217.38
254.281	236.1
254.744	268.87
255.207	341.43
255.67	308.66
256.133	252.49
256.596	299.3
257.059	311
257.522	236.1
257.984	289.93
258.447	336.74
258.909	303.98
259.372	280.57
259.834	289.93
260.297	215.04
260.759	285.25
261.221	268.87
261.684	257.17
262.146	266.53
262.608	289.93
263.07	226.74
263.532	254.83
263.994	264.19
264.456	240.78
264.918	271.21
265.38	252.49
265.842	275.89
266.303	280.57
266.765	292.27
267.227	247.8
267.688	238.44
268.15	240.78
268.611	275.89
269.072	289.93
269.534	268.87
269.995	334.4
270.456	357.81
270.918	282.91
271.379	224.4
271.84	273.55
272.301	343.77
272.762	243.12
273.223	289.93
273.684	308.66
274.144	257.17
274.605	264.19
275.066	275.89
275.527	247.8
275.987	210.36
276.448	259.51
276.908	275.89
277.369	296.96
277.829	273.55
278.289	292.27
278.75	231.42
279.21	226.74
279.67	268.87
280.13	238.44
280.59	266.53
281.05	282.91
281.51	243.12
281.97	268.87
282.43	320.36
282.89	287.59
283.35	285.25
283.809	261.85
284.269	264.19
284.729	285.25
285.188	273.55
285.648	287.59
286.107	186.95
286.567	303.98
287.026	287.59
287.485	275.89
287.944	217.38
288.404	233.76
288.863	231.42
289.322	278.23
289.781	254.83
290.24	266.53
290.699	318.02
291.158	254.83
291.616	311
292.075	294.61
292.534	250.14
292.992	233.76
293.451	285.25
293.91	266.53
294.368	292.27
294.827	259.51
295.285	350.79
295.743	226.74
296.202	226.74
296.66	215.04
297.118	315.68
297.576	301.64
298.034	318.02
298.492	271.21
298.95	257.17
299.408	292.27
299.866	294.61
300.324	275.89
300.781	252.49
301.239	287.59
301.697	233.76
302.154	264.19
302.612	245.46
303.069	229.08
303.527	231.42
303.984	294.61
304.441	275.89
304.899	275.89
305.356	325.04
305.813	231.42
306.27	282.91
306.727	329.72
307.184	301.64
307.641	334.4
308.098	306.32
308.555	243.12
309.012	261.85
309.468	266.53
309.925	301.64
310.382	315.68
310.838	285.25
311.295	341.43
311.751	292.27
312.208	275.89
312.664	226.74
313.12	282.91
313.577	273.55
314.033	243.12
314.489	268.87
314.945	257.17
315.401	275.89
315.857	257.17
316.313	318.02
316.769	301.64
317.225	273.55
317.681	282.91
318.136	301.64
318.592	247.8
319.048	280.57
319.503	285.25
319.959	275.89
320.414	271.21
320.869	315.68
321.325	318.02
321.78	217.38
322.235	315.68
322.691	271.21
323.146	278.23
323.601	271.21
324.056	275.89
324.511	264.19
324.966	289.93
325.421	301.64
325.875	313.34
326.33	329.72
326.785	318.02
327.24	261.85
327.694	294.61
328.149	268.87
328.603	308.66
329.058	294.61
329.512	308.66
329.966	296.96
330.421	296.96
330.875	229.08
331.329	264.19
331.783	313.34
332.237	306.32
332.691	315.68
333.145	226.74
333.599	271.21
334.053	282.91
334.507	320.36
334.96	325.04
335.414	280.57
335.868	289.93
336.321	303.98
336.775	285.25
337.228	320.36
337.682	308.66
338.135	299.3
338.588	353.13
339.042	268.87
339.495	280.57
339.948	374.19
340.401	257.17
340.854	320.36
341.307	329.72
341.76	303.98
342.213	332.06
342.666	282.91
343.119	280.57
343.571	261.85
344.024	320.36
344.477	278.23
344.929	327.38
345.382	285.25
345.834	266.53
346.287	294.61
346.739	311
347.191	154.18
347.644	189.29
348.096	320.36
348.548	301.64
349	308.66
349.452	250.14
349.904	252.49
350.356	257.17
350.808	378.87
351.26	275.89
351.711	287.59
352.163	289.93
352.615	268.87
353.066	236.1
353.518	264.19
353.969	231.42
354.421	252.49
354.872	250.14
355.324	299.3
355.775	275.89
356.226	254.83
356.677	280.57
357.128	278.23
357.579	299.3
358.03	306.32
358.481	299.3
358.932	229.08
359.383	282.91
359.834	238.44
360.285	329.72
360.735	322.7
361.186	273.55
361.637	285.25
362.087	245.46
362.538	313.34
362.988	254.83
363.438	313.34
363.889	259.51
364.339	285.25
364.789	245.46
365.239	346.11
365.689	339.09
366.139	282.91
366.589	268.87
367.039	247.8
367.489	285.25
367.939	252.49
368.389	252.49
368.839	245.46
369.288	245.46
369.738	311
370.187	308.66
370.637	299.3
371.086	271.21
371.536	289.93
371.985	271.21
372.434	271.21
372.884	252.49
373.333	336.74
373.782	257.17
374.231	215.04
374.68	299.3
375.129	233.76
375.578	318.02
376.027	353.13
376.475	355.47
376.924	308.66
377.373	224.4
377.822	327.38
378.27	273.55
378.719	336.74
379.167	247.8
379.616	294.61
380.064	247.8
380.512	275.89
380.961	313.34
381.409	268.87
381.857	287.59
382.305	259.51
382.753	287.59
383.201	250.14
383.649	301.64
384.097	268.87
384.545	343.77
384.992	339.09
385.44	325.04
385.888	299.3
386.335	296.96
386.783	259.51
387.231	336.74
387.678	315.68
388.125	303.98
388.573	250.14
389.02	282.91
389.467	252.49
389.914	320.36
390.362	296.96
390.809	296.96
391.256	285.25
391.703	257.17
392.15	257.17
392.596	287.59
393.043	268.87
393.49	311
393.937	306.32
394.383	240.78
394.83	296.96
395.276	315.68
395.723	243.12
396.169	329.72
396.616	315.68
397.062	268.87
397.508	287.59
397.954	294.61
398.401	261.85
398.847	273.55
399.293	301.64
399.739	301.64
400.185	264.19
400.631	308.66
401.076	289.93
401.522	332.06
401.968	303.98
402.414	303.98
402.859	350.79
403.305	261.85
403.75	296.96
404.196	296.96
404.641	320.36
405.086	268.87
405.532	289.93
405.977	292.27
406.422	240.78
406.867	261.85
407.312	311
407.757	313.34
408.202	252.49
408.647	292.27
409.092	280.57
409.537	294.61
409.982	315.68
410.426	332.06
410.871	313.34
411.316	299.3
411.76	348.45
412.205	301.64
412.649	222.06
413.093	301.64
413.538	285.25
413.982	341.43
414.426	247.8
414.87	287.59
415.314	308.66
415.758	334.4
416.202	250.14
416.646	296.96
417.09	343.77
417.534	257.17
417.978	306.32
418.421	287.59
418.865	311
419.309	348.45
419.752	311
420.196	264.19
420.639	334.4
421.083	271.21
421.526	289.93
421.969	289.93
422.412	327.38
422.856	315.68
423.299	261.85
423.742	266.53
424.185	289.93
424.628	247.8
425.071	282.91
425.513	303.98
425.956	278.23
426.399	280.57
426.842	325.04
427.284	303.98
427.727	325.04
428.169	231.42
428.612	318.02
429.054	282.91
429.497	311
429.939	287.59
430.381	179.93
430.823	322.7
431.265	266.53
431.707	308.66
432.149	268.87
432.591	261.85
433.033	315.68
433.475	264.19
433.917	271.21
434.359	292.27
434.8	327.38
435.242	301.64
435.684	247.8
436.125	303.98
436.567	341.43
437.008	285.25
437.449	243.12
437.891	325.04
438.332	254.83
438.773	264.19
439.214	292.27
439.656	224.4
440.097	296.96
440.538	289.93
440.978	360.15
441.419	369.51
441.86	322.7
442.301	311
442.742	318.02
443.182	348.45
443.623	334.4
444.063	264.19
444.504	303.98
444.944	313.34
445.385	308.66
445.825	273.55
446.265	271.21
446.706	334.4
447.146	245.46
447.586	369.51
448.026	327.38
448.466	275.89
448.906	320.36
449.346	341.43
449.786	292.27
450.225	303.98
450.665	264.19
451.105	266.53
451.544	348.45
451.984	308.66
452.424	348.45
452.863	271.21
453.302	264.19
453.742	303.98
454.181	252.49
454.62	303.98
455.059	360.15
455.499	289.93
455.938	329.72
456.377	215.04
456.816	362.49
457.254	273.55
457.693	308.66
458.132	308.66
458.571	318.02
459.01	311
459.448	346.11
459.887	215.04
460.325	299.3
460.764	299.3
461.202	308.66
461.641	332.06
462.079	289.93
462.517	303.98
462.955	266.53
463.393	233.76
463.832	259.51
464.27	261.85
464.708	315.68
465.145	315.68
465.583	261.85
466.021	320.36
466.459	308.66
466.897	315.68
467.334	287.59
467.772	215.04
468.209	303.98
468.647	294.61
469.084	315.68
469.522	306.32
469.959	266.53
470.396	259.51
470.833	278.23
471.271	292.27
471.708	371.85
472.145	301.64
472.582	268.87
473.019	325.04
473.456	303.98
473.892	320.36
474.329	318.02
474.766	296.96
475.202	315.68
475.639	329.72
476.076	327.38
476.512	346.11
476.949	320.36
477.385	334.4
477.821	285.25
478.258	257.17
478.694	243.12
479.13	303.98
479.566	296.96
480.002	325.04
480.438	325.04
480.874	289.93
481.31	296.96
481.746	311
482.181	311
482.617	278.23
483.053	289.93
483.488	329.72
483.924	318.02
484.36	275.89
484.795	301.64
485.23	275.89
485.666	289.93
486.101	233.76
486.536	343.77
486.971	299.3
487.407	376.53
487.842	327.38
488.277	299.3
488.712	343.77
489.146	341.43
489.581	346.11
490.016	294.61
490.451	308.66
490.885	334.4
491.32	292.27
491.755	275.89
492.189	287.59
492.624	285.25
493.058	362.49
493.492	299.3
493.927	329.72
494.361	250.14
494.795	301.64
495.229	273.55
495.663	247.8
496.097	275.89
496.531	287.59
496.965	238.44
497.399	261.85
497.833	334.4
498.266	329.72
498.7	292.27
499.134	334.4
499.567	332.06
500.001	292.27
500.434	215.04
500.868	280.57
501.301	282.91
501.734	250.14
502.168	261.85
502.601	238.44
503.034	336.74
503.467	318.02
503.9	250.14
504.333	285.25
504.766	371.85
505.199	341.43
505.632	243.12
506.064	264.19
506.497	296.96
506.93	367.17
507.362	325.04
507.795	280.57
508.227	247.8
508.66	240.78
509.092	280.57
509.524	240.78
509.956	308.66
510.389	292.27
510.821	287.59
511.253	308.66
511.685	287.59
512.117	252.49
512.549	308.66
512.981	231.42
513.412	360.15
513.844	282.91
514.276	318.02
514.707	313.34
515.139	282.91
515.571	292.27
516.002	247.8
516.433	313.34
516.865	273.55
517.296	280.57
517.727	308.66
518.159	287.59
518.59	222.06
519.021	350.79
519.452	318.02
519.883	257.17
520.314	362.49
520.744	343.77
521.175	226.74
521.606	271.21
522.037	250.14
522.467	306.32
522.898	254.83
523.328	257.17
523.759	299.3
524.189	306.32
524.62	296.96
525.05	303.98
525.48	278.23
525.91	280.57
526.341	240.78
526.771	273.55
527.201	301.64
527.631	273.55
528.061	374.19
528.49	292.27
528.92	346.11
529.35	294.61
529.78	285.25
530.209	308.66
530.639	299.3
531.068	252.49
531.498	306.32
531.927	273.55
532.357	294.61
532.786	257.17
533.215	289.93
533.644	301.64
534.074	247.8
534.503	292.27
534.932	306.32
535.361	318.02
535.79	247.8
536.218	264.19
536.647	294.61
537.076	264.19
537.505	266.53
537.933	334.4
538.362	275.89
538.79	320.36
539.219	308.66
539.647	231.42
540.076	264.19
540.504	292.27
540.932	374.19
541.36	313.34
541.788	282.91
542.217	303.98
542.645	238.44
543.073	289.93
543.5	287.59
543.928	257.17
544.356	301.64
544.784	282.91
545.211	299.3
545.639	348.45
546.067	320.36
546.494	308.66
546.922	308.66
547.349	285.25
547.776	261.85
548.204	280.57
548.631	364.83
549.058	257.17
549.485	250.14
549.912	332.06
550.339	233.76
550.766	318.02
551.193	325.04
551.62	264.19
552.047	278.23
552.474	247.8
552.9	266.53
553.327	250.14
553.754	257.17
554.18	282.91
554.607	339.09
555.033	315.68
555.459	315.68
555.886	296.96
556.312	247.8
556.738	289.93
557.164	296.96
557.59	250.14
558.016	245.46
558.442	320.36
558.868	261.85
559.294	329.72
559.72	226.74
560.145	289.93
560.571	341.43
560.997	285.25
561.422	224.4
561.848	313.34
562.273	289.93
562.699	278.23
563.124	362.49
563.549	327.38
563.974	273.55
564.4	257.17
564.825	357.81
565.25	329.72
565.675	247.8
566.1	261.85
566.525	278.23
566.95	238.44
567.374	229.08
567.799	273.55
568.224	280.57
568.648	306.32
569.073	306.32
569.497	278.23
569.922	243.12
570.346	252.49
570.771	315.68
571.195	268.87
571.619	311
572.043	318.02
572.467	210.36
572.891	231.42
573.315	301.64
573.739	266.53
574.163	275.89
574.587	315.68
575.011	306.32
575.435	285.25
575.858	311
576.282	296.96
576.705	311
577.129	273.55
577.552	282.91
577.976	266.53
578.399	254.83
578.822	289.93
579.245	252.49
579.669	280.57
580.092	296.96
580.515	318.02
580.938	294.61
581.361	355.47
581.784	294.61
582.206	254.83
582.629	313.34
583.052	315.68
583.474	303.98
583.897	320.36
584.32	275.89
584.742	259.51
585.165	254.83
585.587	296.96
586.009	271.21
586.431	334.4
586.854	301.64
587.276	289.93
587.698	231.42
588.12	303.98
588.542	217.38
588.964	378.87
589.386	336.74
589.807	240.78
590.229	311
590.651	280.57
591.073	292.27
591.494	252.49
591.916	320.36
592.337	275.89
592.759	243.12
593.18	252.49
593.601	266.53
594.022	257.17
594.444	240.78
594.865	285.25
595.286	289.93
595.707	264.19
596.128	264.19
596.549	287.59
596.97	325.04
597.39	327.38
597.811	247.8
598.232	332.06
598.652	320.36
599.073	301.64
599.494	280.57
599.914	334.4
600.334	348.45
600.755	294.61
601.175	285.25
601.595	327.38
602.015	315.68
602.436	285.25
602.856	409.3
603.276	311
603.696	308.66
604.115	296.96
604.535	329.72
604.955	339.09
605.375	318.02
605.794	355.47
606.214	301.64
606.634	303.98
607.053	285.25
607.473	332.06
607.892	303.98
608.311	280.57
608.731	292.27
609.15	320.36
609.569	315.68
609.988	245.46
610.407	247.8
610.826	313.34
611.245	303.98
611.664	296.96
612.083	271.21
612.501	301.64
612.92	292.27
613.339	315.68
613.757	296.96
614.176	294.61
614.594	318.02
615.013	285.25
615.431	315.68
615.85	236.1
616.268	208.02
616.686	364.83
617.104	259.51
617.522	320.36
617.94	299.3
618.358	327.38
618.776	280.57
619.194	250.14
619.612	346.11
620.03	294.61
620.447	224.4
620.865	313.34
621.282	264.19
621.7	261.85
622.117	311
622.535	289.93
622.952	339.09
623.369	336.74
623.787	299.3
624.204	266.53
624.621	266.53
625.038	303.98
625.455	271.21
625.872	271.21
626.289	320.36
626.706	278.23
627.123	306.32
627.539	327.38
627.956	313.34
628.373	327.38
628.789	306.32
629.206	339.09
629.622	299.3
630.038	236.1
630.455	280.57
630.871	306.32
631.287	346.11
631.703	257.17
632.12	322.7
632.536	303.98
632.952	334.4
633.368	280.57
633.783	339.09
634.199	311
634.615	273.55
635.031	320.36
635.446	280.57
635.862	318.02
636.277	346.11
636.693	322.7
637.108	266.53
637.524	318.02
637.939	355.47
638.354	224.4
638.77	334.4
639.185	292.27
639.6	229.08
640.015	299.3
640.43	313.34
640.845	264.19
641.259	238.44
641.674	245.46
642.089	238.44
642.504	273.55
642.918	318.02
643.333	311
643.747	238.44
644.162	343.77
644.576	257.17
644.991	294.61
645.405	313.34
645.819	301.64
646.233	282.91
646.647	278.23
647.061	339.09
647.475	320.36
647.889	327.38
648.303	313.34
648.717	320.36
649.131	299.3
649.545	243.12
649.958	243.12
650.372	282.91
650.785	299.3
651.199	308.66
651.612	261.85
652.026	378.87
652.439	299.3
652.852	299.3
653.266	327.38
653.679	243.12
654.092	287.59
654.505	294.61
654.918	318.02
655.331	261.85
655.744	313.34
656.156	306.32
656.569	306.32
656.982	243.12
657.394	243.12
657.807	268.87
658.22	371.85
658.632	329.72
659.044	332.06
659.457	266.53
659.869	296.96
660.281	306.32
660.693	285.25
661.106	282.91
661.518	287.59
661.93	268.87
662.342	367.17
662.754	259.51
663.165	364.83
663.577	264.19
663.989	268.87
664.401	299.3
664.812	325.04
665.224	252.49
665.635	289.93
666.047	329.72
666.458	327.38
666.869	296.96
667.281	308.66
667.692	294.61
668.103	294.61
668.514	285.25
668.925	236.1
669.336	266.53
669.747	250.14
670.158	311
670.569	296.96
670.979	294.61
671.39	259.51
671.801	296.96
672.211	308.66
672.622	212.7
673.032	268.87
673.443	278.23
673.853	273.55
674.263	318.02
674.674	287.59
675.084	282.91
675.494	315.68
675.904	261.85
676.314	303.98
676.724	357.81
677.134	238.44
677.544	292.27
677.953	280.57
678.363	315.68
678.773	397.6
679.182	203.33
679.592	303.98
680.001	294.61
680.411	282.91
680.82	259.51
681.23	217.38
681.639	278.23
682.048	259.51
682.457	318.02
682.866	254.83
683.275	299.3
683.684	240.78
684.093	315.68
684.502	299.3
684.911	252.49
685.32	318.02
685.728	245.46
686.137	273.55
686.546	327.38
686.954	303.98
687.363	322.7
687.771	299.3
688.179	318.02
688.588	303.98
688.996	306.32
689.404	254.83
689.812	322.7
690.22	336.74
690.628	357.81
691.036	268.87
691.444	303.98
691.852	339.09
692.26	271.21
692.667	318.02
693.075	301.64
693.483	325.04
693.89	271.21
694.298	280.57
694.705	275.89
695.112	275.89
695.52	343.77
695.927	271.21
696.334	261.85
696.741	287.59
697.148	236.1
697.555	287.59
697.962	299.3
698.369	313.34
698.776	353.13
699.183	252.49
699.59	250.14
699.996	303.98
700.403	292.27
700.81	222.06
701.216	271.21
701.623	264.19
702.029	278.23
702.435	280.57
702.842	268.87
703.248	210.36
703.654	303.98
704.06	301.64
704.466	355.47
704.872	320.36
705.278	254.83
705.684	259.51
706.09	285.25
706.496	308.66
706.901	205.67
707.307	261.85
707.712	278.23
708.118	259.51
708.523	275.89
708.929	266.53
709.334	266.53
709.74	334.4
710.145	292.27
710.55	325.04
710.955	259.51
711.36	306.32
711.765	301.64
712.17	285.25
712.575	311
712.98	788.47
713.385	301.64
713.789	261.85
714.194	296.96
714.599	252.49
715.003	271.21
715.408	247.8
715.812	233.76
716.217	273.55
716.621	346.11
717.025	299.3
717.429	311
717.833	313.34
718.238	294.61
718.642	210.36
719.046	261.85
719.449	285.25
719.853	353.13
720.257	292.27
720.661	311
721.065	303.98
721.468	292.27
721.872	296.96
722.275	271.21
722.679	322.7
723.082	264.19
723.485	285.25
723.889	259.51
724.292	294.61
724.695	287.59
725.098	257.17
725.501	339.09
725.904	287.59
726.307	259.51
726.71	320.36
727.113	292.27
727.516	299.3
727.918	329.72
728.321	325.04
728.724	219.72
729.126	332.06
729.529	327.38
729.931	350.79
730.333	250.14
730.736	339.09
731.138	292.27
731.54	289.93
731.942	311
732.344	254.83
732.746	238.44
733.148	327.38
733.55	247.8
733.952	294.61
734.354	299.3
734.756	231.42
735.157	275.89
735.559	306.32
735.96	329.72
736.362	308.66
736.763	231.42
737.165	292.27
737.566	254.83
737.967	280.57
738.368	318.02
738.77	231.42
739.171	332.06
739.572	332.06
739.973	289.93
740.374	271.21
740.774	287.59
741.175	334.4
741.576	301.64
741.977	257.17
742.377	327.38
742.778	287.59
743.178	268.87
743.579	285.25
743.979	250.14
744.379	233.76
744.78	226.74
745.18	245.46
745.58	278.23
745.98	287.59
746.38	275.89
746.78	336.74
747.18	238.44
747.58	329.72
747.98	245.46
748.38	311
748.779	280.57
749.179	282.91
749.578	341.43
749.978	308.66
750.377	322.7
750.777	294.61
751.176	336.74
751.575	273.55
751.975	257.17
752.374	329.72
752.773	278.23
753.172	308.66
753.571	336.74
753.97	339.09
754.369	289.93
754.768	301.64
755.166	280.57
755.565	261.85
755.964	294.61
756.362	252.49
756.761	313.34
757.159	308.66
757.558	257.17
757.956	343.77
758.354	318.02
758.753	287.59
759.151	327.38
759.549	371.85
759.947	353.13
760.345	299.3
760.743	315.68
761.141	219.72
761.539	254.83
761.936	282.91
762.334	275.89
762.732	311
763.129	306.32
763.527	303.98
763.924	294.61
764.322	325.04
764.719	243.12
765.117	240.78
765.514	339.09
765.911	273.55
766.308	273.55
766.705	294.61
