Data from Al_FLMS009871__819__15-24-57-906.txt Node

Date: Fri Mar 08 15:24:57 CST 2024
User: pe5414po
Spectrometer: FLMS00987
Trigger mode: 0
Integration Time (sec): 1.000000E-1
Scans to average: 1
Electric dark correction enabled: true
Nonlinearity correction enabled: false
Boxcar width: 0
XAxis mode: Wavelengths
Number of Pixels in Spectrum: 2048
>>>>>Begin Spectral Data<<<<<
188.938	-70.51
189.409	-70.51
189.879	-70.51
190.349	-96.25
190.819	-150.09
191.29	-98.6
191.76	-143.07
192.23	-117.32
192.7	-12
193.17	-63.49
193.64	-37.74
194.109	-16.68
194.579	-47.1
195.049	-7.31
195.519	-14.34
195.988	34.82
196.458	55.88
196.927	119.07
197.397	74.6
197.866	135.46
198.336	137.8
198.805	142.48
199.274	193.97
199.744	161.2
200.213	191.63
200.682	156.52
201.151	154.18
201.62	226.74
202.089	219.72
202.558	252.49
203.027	259.51
203.495	233.76
203.964	233.76
204.433	252.49
204.902	222.06
205.37	296.96
205.839	320.36
206.307	311
206.776	334.4
207.244	325.04
207.712	273.55
208.181	271.21
208.649	210.36
209.117	287.59
209.585	268.87
210.053	271.21
210.521	357.81
210.989	285.25
211.457	245.46
211.925	236.1
212.393	268.87
212.861	252.49
213.328	243.12
213.796	289.93
214.264	275.89
214.731	301.64
215.199	320.36
215.666	264.19
216.133	250.14
216.601	224.4
217.068	303.98
217.535	280.57
218.003	313.34
218.47	282.91
218.937	259.51
219.404	233.76
219.871	311
220.338	299.3
220.805	289.93
221.271	250.14
221.738	325.04
222.205	303.98
222.671	250.14
223.138	278.23
223.605	278.23
224.071	282.91
224.538	289.93
225.004	296.96
225.47	203.33
225.937	208.02
226.403	280.57
226.869	278.23
227.335	254.83
227.801	254.83
228.267	215.04
228.733	292.27
229.199	245.46
229.665	261.85
230.131	313.34
230.597	226.74
231.062	266.53
231.528	289.93
231.994	282.91
232.459	308.66
232.925	266.53
233.39	229.08
233.856	334.4
234.321	299.3
234.786	236.1
235.252	247.8
235.717	243.12
236.182	278.23
236.647	282.91
237.112	266.53
237.577	257.17
238.042	278.23
238.507	273.55
238.972	275.89
239.436	275.89
239.901	247.8
240.366	236.1
240.83	275.89
241.295	308.66
241.76	261.85
242.224	247.8
242.688	271.21
243.153	261.85
243.617	273.55
244.081	264.19
244.545	252.49
245.01	311
245.474	325.04
245.938	313.34
246.402	243.12
246.866	301.64
247.33	289.93
247.793	315.68
248.257	196.31
248.721	282.91
249.185	275.89
249.648	278.23
250.112	264.19
250.575	236.1
251.039	257.17
251.502	336.74
251.965	296.96
252.429	303.98
252.892	294.61
253.355	275.89
253.818	254.83
254.281	268.87
254.744	285.25
255.207	229.08
255.67	280.57
256.133	299.3
256.596	278.23
257.059	271.21
257.522	252.49
257.984	311
258.447	250.14
258.909	268.87
259.372	212.7
259.834	339.09
260.297	266.53
260.759	226.74
261.221	306.32
261.684	287.59
262.146	243.12
262.608	322.7
263.07	318.02
263.532	287.59
263.994	264.19
264.456	334.4
264.918	285.25
265.38	320.36
265.842	245.46
266.303	336.74
266.765	278.23
267.227	303.98
267.688	219.72
268.15	327.38
268.611	348.45
269.072	301.64
269.534	261.85
269.995	280.57
270.456	325.04
270.918	318.02
271.379	271.21
271.84	343.77
272.301	287.59
272.762	306.32
273.223	292.27
273.684	273.55
274.144	301.64
274.605	273.55
275.066	287.59
275.527	294.61
275.987	280.57
276.448	224.4
276.908	327.38
277.369	282.91
277.829	327.38
278.289	292.27
278.75	348.45
279.21	348.45
279.67	275.89
280.13	296.96
280.59	327.38
281.05	266.53
281.51	303.98
281.97	332.06
282.43	273.55
282.89	339.09
283.35	289.93
283.809	318.02
284.269	327.38
284.729	332.06
285.188	318.02
285.648	226.74
286.107	306.32
286.567	320.36
287.026	346.11
287.485	343.77
287.944	303.98
288.404	343.77
288.863	257.17
289.322	334.4
289.781	301.64
290.24	289.93
290.699	325.04
291.158	303.98
291.616	287.59
292.075	308.66
292.534	320.36
292.992	329.72
293.451	308.66
293.91	343.77
294.368	296.96
294.827	318.02
295.285	257.17
295.743	334.4
296.202	409.3
296.66	296.96
297.118	278.23
297.576	313.34
298.034	301.64
298.492	357.81
298.95	296.96
299.408	222.06
299.866	308.66
300.324	299.3
300.781	341.43
301.239	292.27
301.697	357.81
302.154	348.45
302.612	236.1
303.069	364.83
303.527	257.17
303.984	252.49
304.441	299.3
304.899	257.17
305.356	278.23
305.813	322.7
306.27	320.36
306.727	343.77
307.184	360.15
307.641	353.13
308.098	299.3
308.555	299.3
309.012	296.96
309.468	355.47
309.925	268.87
310.382	376.53
310.838	250.14
311.295	306.32
311.751	306.32
312.208	311
312.664	350.79
313.12	315.68
313.577	301.64
314.033	287.59
314.489	303.98
314.945	257.17
315.401	292.27
315.857	346.11
316.313	292.27
316.769	332.06
317.225	247.8
317.681	280.57
318.136	264.19
318.592	280.57
319.048	294.61
319.503	285.25
319.959	329.72
320.414	280.57
320.869	376.53
321.325	275.89
321.78	327.38
322.235	355.47
322.691	278.23
323.146	350.79
323.601	332.06
324.056	371.85
324.511	306.32
324.966	320.36
325.421	261.85
325.875	374.19
326.33	339.09
326.785	282.91
327.24	327.38
327.694	306.32
328.149	245.46
328.603	299.3
329.058	327.38
329.512	301.64
329.966	306.32
330.421	327.38
330.875	348.45
331.329	282.91
331.783	350.79
332.237	325.04
332.691	306.32
333.145	289.93
333.599	355.47
334.053	378.87
334.507	343.77
334.96	301.64
335.414	301.64
335.868	264.19
336.321	257.17
336.775	343.77
337.228	341.43
337.682	299.3
338.135	350.79
338.588	294.61
339.042	301.64
339.495	322.7
339.948	376.53
340.401	303.98
340.854	332.06
341.307	289.93
341.76	299.3
342.213	289.93
342.666	289.93
343.119	299.3
343.571	320.36
344.024	381.21
344.477	357.81
344.929	362.49
345.382	320.36
345.834	327.38
346.287	273.55
346.739	318.02
347.191	339.09
347.644	252.49
348.096	278.23
348.548	313.34
349	268.87
349.452	294.61
349.904	273.55
350.356	311
350.808	303.98
351.26	278.23
351.711	280.57
352.163	252.49
352.615	303.98
353.066	350.79
353.518	325.04
353.969	329.72
354.421	315.68
354.872	261.85
355.324	318.02
355.775	315.68
356.226	299.3
356.677	325.04
357.128	306.32
357.579	334.4
358.03	339.09
358.481	320.36
358.932	320.36
359.383	306.32
359.834	385.9
360.285	271.21
360.735	341.43
361.186	299.3
361.637	306.32
362.087	308.66
362.538	334.4
362.988	289.93
363.438	292.27
363.889	301.64
364.339	334.4
364.789	311
365.239	296.96
365.689	332.06
366.139	313.34
366.589	329.72
367.039	275.89
367.489	357.81
367.939	299.3
368.389	336.74
368.839	346.11
369.288	318.02
369.738	341.43
370.187	325.04
370.637	315.68
371.086	325.04
371.536	198.65
371.985	346.11
372.434	311
372.884	320.36
373.333	296.96
373.782	318.02
374.231	226.74
374.68	303.98
375.129	346.11
375.578	306.32
376.027	329.72
376.475	364.83
376.924	332.06
377.373	254.83
377.822	296.96
378.27	374.19
378.719	306.32
379.167	341.43
379.616	355.47
380.064	348.45
380.512	311
380.961	325.04
381.409	299.3
381.857	282.91
382.305	289.93
382.753	332.06
383.201	320.36
383.649	278.23
384.097	285.25
384.545	353.13
384.992	303.98
385.44	364.83
385.888	339.09
386.335	303.98
386.783	343.77
387.231	294.61
387.678	311
388.125	299.3
388.573	299.3
389.02	334.4
389.467	350.79
389.914	289.93
390.362	292.27
390.809	254.83
391.256	362.49
391.703	313.34
392.15	226.74
392.596	308.66
393.043	303.98
393.49	236.1
393.937	332.06
394.383	318.02
394.83	334.4
395.276	233.76
395.723	243.12
396.169	350.79
396.616	357.81
397.062	254.83
397.508	273.55
397.954	301.64
398.401	299.3
398.847	392.92
399.293	327.38
399.739	341.43
400.185	327.38
400.631	320.36
401.076	320.36
401.522	329.72
401.968	322.7
402.414	311
402.859	294.61
403.305	303.98
403.75	252.49
404.196	355.47
404.641	336.74
405.086	327.38
405.532	285.25
405.977	306.32
406.422	325.04
406.867	325.04
407.312	282.91
407.757	285.25
408.202	343.77
408.647	325.04
409.092	353.13
409.537	299.3
409.982	275.89
410.426	315.68
410.871	311
411.316	353.13
411.76	264.19
412.205	378.87
412.649	282.91
413.093	238.44
413.538	381.21
413.982	327.38
414.426	327.38
414.87	303.98
415.314	355.47
415.758	320.36
416.202	320.36
416.646	315.68
417.09	374.19
417.534	343.77
417.978	332.06
418.421	355.47
418.865	278.23
419.309	320.36
419.752	325.04
420.196	275.89
420.639	390.58
421.083	362.49
421.526	289.93
421.969	301.64
422.412	308.66
422.856	348.45
423.299	343.77
423.742	334.4
424.185	271.21
424.628	306.32
425.071	322.7
425.513	390.58
425.956	320.36
426.399	320.36
426.842	315.68
427.284	327.38
427.727	325.04
428.169	322.7
428.612	332.06
429.054	339.09
429.497	320.36
429.939	343.77
430.381	327.38
430.823	313.34
431.265	280.57
431.707	318.02
432.149	301.64
432.591	343.77
433.033	336.74
433.475	320.36
433.917	259.51
434.359	257.17
434.8	306.32
435.242	348.45
435.684	327.38
436.125	329.72
436.567	322.7
437.008	315.68
437.449	327.38
437.891	296.96
438.332	346.11
438.773	336.74
439.214	329.72
439.656	306.32
440.097	371.85
440.538	282.91
440.978	357.81
441.419	322.7
441.86	339.09
442.301	301.64
442.742	294.61
443.182	313.34
443.623	229.08
444.063	355.47
444.504	299.3
444.944	289.93
445.385	336.74
445.825	327.38
446.265	282.91
446.706	320.36
447.146	296.96
447.586	231.42
448.026	311
448.466	322.7
448.906	318.02
449.346	273.55
449.786	311
450.225	322.7
450.665	299.3
451.105	287.59
451.544	294.61
451.984	322.7
452.424	350.79
452.863	320.36
453.302	311
453.742	299.3
454.181	336.74
454.62	327.38
455.059	275.89
455.499	332.06
455.938	296.96
456.377	343.77
456.816	301.64
457.254	355.47
457.693	378.87
458.132	325.04
458.571	320.36
459.01	275.89
459.448	339.09
459.887	261.85
460.325	325.04
460.764	299.3
461.202	341.43
461.641	364.83
462.079	296.96
462.517	367.17
462.955	367.17
463.393	355.47
463.832	287.59
464.27	343.77
464.708	327.38
465.145	261.85
465.583	339.09
466.021	371.85
466.459	292.27
466.897	329.72
467.334	353.13
467.772	327.38
468.209	343.77
468.647	350.79
469.084	383.56
469.522	296.96
469.959	325.04
470.396	343.77
470.833	374.19
471.271	339.09
471.708	376.53
472.145	395.26
472.582	296.96
473.019	311
473.456	289.93
473.892	299.3
474.329	322.7
474.766	264.19
475.202	308.66
475.639	357.81
476.076	381.21
476.512	350.79
476.949	369.51
477.385	334.4
477.821	224.4
478.258	343.77
478.694	285.25
479.13	313.34
479.566	306.32
480.002	320.36
480.438	339.09
480.874	318.02
481.31	383.56
481.746	306.32
482.181	308.66
482.617	275.89
483.053	287.59
483.488	376.53
483.924	311
484.36	325.04
484.795	313.34
485.23	329.72
485.666	299.3
486.101	355.47
486.536	348.45
486.971	303.98
487.407	308.66
487.842	259.51
488.277	325.04
488.712	271.21
489.146	369.51
489.581	320.36
490.016	404.62
490.451	311
490.885	325.04
491.32	280.57
491.755	360.15
492.189	327.38
492.624	388.24
493.058	409.3
493.492	292.27
493.927	332.06
494.361	329.72
494.795	313.34
495.229	329.72
495.663	271.21
496.097	322.7
496.531	346.11
496.965	285.25
497.399	355.47
497.833	390.58
498.266	303.98
498.7	315.68
499.134	336.74
499.567	287.59
500.001	301.64
500.434	261.85
500.868	296.96
501.301	348.45
501.734	301.64
502.168	383.56
502.601	334.4
503.034	325.04
503.467	350.79
503.9	308.66
504.333	348.45
504.766	245.46
505.199	315.68
505.632	266.53
506.064	306.32
506.497	299.3
506.93	374.19
507.362	329.72
507.795	360.15
508.227	320.36
508.66	301.64
509.092	296.96
509.524	355.47
509.956	378.87
510.389	247.8
510.821	294.61
511.253	278.23
511.685	311
512.117	318.02
512.549	336.74
512.981	289.93
513.412	254.83
513.844	355.47
514.276	292.27
514.707	282.91
515.139	348.45
515.571	308.66
516.002	339.09
516.433	374.19
516.865	327.38
517.296	318.02
517.727	362.49
518.159	350.79
518.59	315.68
519.021	353.13
519.452	348.45
519.883	381.21
520.314	355.47
520.744	334.4
521.175	311
521.606	318.02
522.037	320.36
522.467	306.32
522.898	353.13
523.328	332.06
523.759	362.49
524.189	341.43
524.62	259.51
525.05	334.4
525.48	313.34
525.91	268.87
526.341	350.79
526.771	259.51
527.201	367.17
527.631	318.02
528.061	348.45
528.49	303.98
528.92	292.27
529.35	294.61
529.78	301.64
530.209	289.93
530.639	261.85
531.068	322.7
531.498	308.66
531.927	308.66
532.357	339.09
532.786	301.64
533.215	341.43
533.644	268.87
534.074	325.04
534.503	303.98
534.932	294.61
535.361	266.53
535.79	296.96
536.218	278.23
536.647	355.47
537.076	308.66
537.505	346.11
537.933	339.09
538.362	278.23
538.79	348.45
539.219	348.45
539.647	325.04
540.076	289.93
540.504	348.45
540.932	322.7
541.36	332.06
541.788	282.91
542.217	371.85
542.645	364.83
543.073	318.02
543.5	308.66
543.928	313.34
544.356	315.68
544.784	325.04
545.211	325.04
545.639	371.85
546.067	383.56
546.494	376.53
546.922	339.09
547.349	353.13
547.776	292.27
548.204	343.77
548.631	322.7
549.058	322.7
549.485	315.68
549.912	332.06
550.339	343.77
550.766	383.56
551.193	332.06
551.62	315.68
552.047	289.93
552.474	353.13
552.9	329.72
553.327	336.74
553.754	311
554.18	329.72
554.607	278.23
555.033	322.7
555.459	339.09
555.886	318.02
556.312	327.38
556.738	292.27
557.164	313.34
557.59	364.83
558.016	296.96
558.442	357.81
558.868	388.24
559.294	360.15
559.72	315.68
560.145	311
560.571	313.34
560.997	313.34
561.422	332.06
561.848	306.32
562.273	355.47
562.699	332.06
563.124	364.83
563.549	313.34
563.974	357.81
564.4	329.72
564.825	275.89
565.25	320.36
565.675	327.38
566.1	360.15
566.525	308.66
566.95	303.98
567.374	346.11
567.799	329.72
568.224	336.74
568.648	315.68
569.073	243.12
569.497	357.81
569.922	294.61
570.346	325.04
570.771	329.72
571.195	296.96
571.619	355.47
572.043	303.98
572.467	245.46
572.891	364.83
573.315	292.27
573.739	287.59
574.163	341.43
574.587	294.61
575.011	278.23
575.435	257.17
575.858	306.32
576.282	318.02
576.705	308.66
577.129	381.21
577.552	327.38
577.976	339.09
578.399	362.49
578.822	325.04
579.245	343.77
579.669	329.72
580.092	294.61
580.515	343.77
580.938	339.09
581.361	348.45
581.784	308.66
582.206	341.43
582.629	320.36
583.052	364.83
583.474	299.3
583.897	357.81
584.32	275.89
584.742	322.7
585.165	250.14
585.587	367.17
586.009	327.38
586.431	322.7
586.854	303.98
587.276	315.68
587.698	303.98
588.12	254.83
588.542	336.74
588.964	299.3
589.386	278.23
589.807	397.6
590.229	285.25
590.651	376.53
591.073	320.36
591.494	329.72
591.916	247.8
592.337	369.51
592.759	280.57
593.18	257.17
593.601	346.11
594.022	271.21
594.444	346.11
594.865	348.45
595.286	336.74
595.707	343.77
596.128	339.09
596.549	301.64
596.97	360.15
597.39	367.17
597.811	292.27
598.232	374.19
598.652	289.93
599.073	355.47
599.494	346.11
599.914	374.19
600.334	339.09
600.755	404.62
601.175	311
601.595	292.27
602.015	343.77
602.436	285.25
602.856	467.81
603.276	303.98
603.696	327.38
604.115	325.04
604.535	303.98
604.955	282.91
605.375	332.06
605.794	343.77
606.214	315.68
606.634	294.61
607.053	350.79
607.473	308.66
607.892	343.77
608.311	315.68
608.731	294.61
609.15	313.34
609.569	287.59
609.988	334.4
610.407	353.13
610.826	303.98
611.245	289.93
611.664	320.36
612.083	334.4
612.501	268.87
612.92	346.11
613.339	357.81
613.757	303.98
614.176	315.68
614.594	306.32
615.013	381.21
615.431	336.74
615.85	313.34
616.268	250.14
616.686	357.81
617.104	259.51
617.522	296.96
617.94	280.57
618.358	343.77
618.776	369.51
619.194	371.85
619.612	287.59
620.03	315.68
620.447	254.83
620.865	318.02
621.282	287.59
621.7	339.09
622.117	381.21
622.535	364.83
622.952	278.23
623.369	348.45
623.787	318.02
624.204	362.49
624.621	311
625.038	334.4
625.455	322.7
625.872	306.32
626.289	334.4
626.706	350.79
627.123	390.58
627.539	257.17
627.956	250.14
628.373	367.17
628.789	294.61
629.206	343.77
629.622	318.02
630.038	329.72
630.455	360.15
630.871	285.25
631.287	311
631.703	273.55
632.12	364.83
632.536	318.02
632.952	360.15
633.368	332.06
633.783	341.43
634.199	264.19
634.615	287.59
635.031	364.83
635.446	219.72
635.862	275.89
636.277	322.7
636.693	334.4
637.108	259.51
637.524	374.19
637.939	313.34
638.354	238.44
638.77	362.49
639.185	339.09
639.6	296.96
640.015	346.11
640.43	350.79
640.845	357.81
641.259	299.3
641.674	278.23
642.089	311
642.504	299.3
642.918	299.3
643.333	320.36
643.747	315.68
644.162	308.66
644.576	254.83
644.991	306.32
645.405	308.66
645.819	343.77
646.233	381.21
646.647	336.74
647.061	306.32
647.475	325.04
647.889	301.64
648.303	329.72
648.717	306.32
649.131	320.36
649.545	311
649.958	280.57
650.372	266.53
650.785	268.87
651.199	285.25
651.612	294.61
652.026	311
652.439	303.98
652.852	292.27
653.266	303.98
653.679	294.61
654.092	257.17
654.505	229.08
654.918	318.02
655.331	322.7
655.744	332.06
656.156	313.34
656.569	275.89
656.982	371.85
657.394	327.38
657.807	322.7
658.22	313.34
658.632	285.25
659.044	339.09
659.457	320.36
659.869	308.66
660.281	299.3
660.693	313.34
661.106	308.66
661.518	350.79
661.93	311
662.342	301.64
662.754	360.15
663.165	301.64
663.577	332.06
663.989	374.19
664.401	350.79
664.812	341.43
665.224	355.47
665.635	332.06
666.047	306.32
666.458	261.85
666.869	285.25
667.281	278.23
667.692	346.11
668.103	311
668.514	264.19
668.925	346.11
669.336	296.96
669.747	329.72
670.158	332.06
670.569	318.02
670.979	320.36
671.39	306.32
671.801	369.51
672.211	303.98
672.622	301.64
673.032	289.93
673.443	329.72
673.853	341.43
674.263	303.98
674.674	294.61
675.084	315.68
675.494	322.7
675.904	294.61
676.314	294.61
676.724	378.87
677.134	311
677.544	346.11
677.953	322.7
678.363	346.11
678.773	360.15
679.182	355.47
679.592	385.9
680.001	332.06
680.411	353.13
680.82	346.11
681.23	311
681.639	299.3
682.048	318.02
682.457	301.64
682.866	320.36
683.275	336.74
683.684	329.72
684.093	287.59
684.502	313.34
684.911	322.7
685.32	315.68
685.728	294.61
686.137	348.45
686.546	261.85
686.954	332.06
687.363	334.4
687.771	318.02
688.179	336.74
688.588	353.13
688.996	313.34
689.404	348.45
689.812	334.4
690.22	311
690.628	339.09
691.036	238.44
691.444	341.43
691.852	296.96
692.26	360.15
692.667	378.87
693.075	318.02
693.483	355.47
693.89	329.72
694.298	322.7
694.705	332.06
695.112	329.72
695.52	292.27
695.927	294.61
696.334	308.66
696.741	294.61
697.148	346.11
697.555	313.34
697.962	308.66
698.369	343.77
698.776	313.34
699.183	357.81
699.59	257.17
699.996	315.68
700.403	367.17
700.81	327.38
701.216	360.15
701.623	350.79
702.029	292.27
702.435	308.66
702.842	339.09
703.248	308.66
703.654	336.74
704.06	341.43
704.466	348.45
704.872	294.61
705.278	306.32
705.684	357.81
706.09	271.21
706.496	224.4
706.901	261.85
707.307	282.91
707.712	360.15
708.118	306.32
708.523	278.23
708.929	343.77
709.334	313.34
709.74	289.93
710.145	287.59
710.55	311
710.955	315.68
711.36	355.47
711.765	292.27
712.17	343.77
712.575	247.8
712.98	835.28
713.385	315.68
713.789	336.74
714.194	287.59
714.599	285.25
715.003	327.38
715.408	320.36
715.812	306.32
716.217	334.4
716.621	336.74
717.025	348.45
717.429	299.3
717.833	343.77
718.238	381.21
718.642	320.36
719.046	341.43
719.449	264.19
719.853	348.45
720.257	339.09
720.661	322.7
721.065	350.79
721.468	308.66
721.872	360.15
722.275	322.7
722.679	336.74
723.082	299.3
723.485	315.68
723.889	294.61
724.292	271.21
724.695	287.59
725.098	348.45
725.501	268.87
725.904	318.02
726.307	264.19
726.71	273.55
727.113	336.74
727.516	371.85
727.918	325.04
728.321	308.66
728.724	303.98
729.126	311
729.529	339.09
729.931	348.45
730.333	362.49
730.736	322.7
731.138	322.7
731.54	341.43
731.942	308.66
732.344	296.96
732.746	336.74
733.148	332.06
733.55	350.79
733.952	329.72
734.354	329.72
734.756	292.27
735.157	294.61
735.559	289.93
735.96	378.87
736.362	355.47
736.763	327.38
737.165	369.51
737.566	240.78
737.967	327.38
738.368	315.68
738.77	311
739.171	289.93
739.572	348.45
739.973	329.72
740.374	278.23
740.774	336.74
741.175	362.49
741.576	318.02
741.977	252.49
742.377	343.77
742.778	296.96
743.178	301.64
743.579	348.45
743.979	301.64
744.379	325.04
744.78	320.36
745.18	308.66
745.58	332.06
745.98	313.34
746.38	329.72
746.78	322.7
747.18	287.59
747.58	327.38
747.98	275.89
748.38	261.85
748.779	397.6
749.179	339.09
749.578	362.49
749.978	308.66
750.377	329.72
750.777	313.34
751.176	247.8
751.575	348.45
751.975	240.78
752.374	308.66
752.773	261.85
753.172	318.02
753.571	332.06
753.97	353.13
754.369	287.59
754.768	226.74
755.166	287.59
755.565	416.32
755.964	268.87
756.362	362.49
756.761	350.79
757.159	357.81
757.558	299.3
757.956	329.72
758.354	301.64
758.753	355.47
759.151	313.34
759.549	278.23
759.947	224.4
760.345	332.06
760.743	343.77
761.141	299.3
761.539	278.23
761.936	311
762.334	308.66
762.732	292.27
763.129	357.81
763.527	273.55
763.924	294.61
764.322	278.23
764.719	308.66
765.117	341.43
765.514	257.17
765.911	308.66
766.308	301.64
766.705	329.72
767.102	285.25
767.499	294.61
767.896	292.27
