Data from Al_FLMS009871__298__12-22-32-244.txt Node

Date: Fri Mar 08 12:22:32 CST 2024
User: pe5414po
Spectrometer: FLMS00987
Trigger mode: 0
Integration Time (sec): 1.000000E-1
Scans to average: 1
Electric dark correction enabled: true
Nonlinearity correction enabled: false
Boxcar width: 0
XAxis mode: Wavelengths
Number of Pixels in Spectrum: 2048
>>>>>Begin Spectral Data<<<<<
188.938	-100.06
189.409	-100.06
189.879	-100.06
190.349	-88.36
190.819	-71.97
191.29	-137.51
191.76	-78.99
192.23	-57.93
192.7	-27.5
193.17	-71.97
193.64	2.93
194.109	-41.54
194.579	-69.63
195.049	40.37
195.519	-6.44
195.988	77.82
196.458	56.76
196.927	70.8
197.397	54.42
197.866	124.63
198.336	63.78
198.805	143.36
199.274	192.51
199.744	94.21
200.213	171.44
200.682	248.68
201.151	251.02
201.62	262.73
202.089	180.81
202.558	222.94
203.027	272.09
203.495	220.6
203.964	251.02
204.433	297.83
204.902	286.13
205.37	255.7
205.839	323.58
206.307	229.96
206.776	356.35
207.244	220.6
207.712	260.38
208.181	356.35
208.649	337.62
209.117	335.28
209.585	304.85
210.053	276.77
210.521	236.98
210.989	321.24
211.457	276.77
211.925	290.81
212.393	323.58
212.861	227.62
213.328	330.6
213.796	295.49
214.264	265.07
214.731	286.13
215.199	255.7
215.666	251.02
216.133	253.36
216.601	283.79
217.068	225.28
217.535	358.69
218.003	262.73
218.47	321.24
218.937	251.02
219.404	274.43
219.871	288.47
220.338	269.75
220.805	297.83
221.271	304.85
221.738	255.7
222.205	262.73
222.671	267.41
223.138	323.58
223.605	272.09
224.071	349.32
224.538	265.07
225.004	248.68
225.47	304.85
225.937	288.47
226.403	222.94
226.869	311.88
227.335	248.68
227.801	234.64
228.267	225.28
228.733	262.73
229.199	279.11
229.665	318.9
230.131	297.83
230.597	265.07
231.062	213.57
231.528	290.81
231.994	297.83
232.459	201.87
232.925	274.43
233.39	276.77
233.856	283.79
234.321	295.49
234.786	286.13
235.252	279.11
235.717	304.85
236.182	279.11
236.647	328.26
237.112	267.41
237.577	244
238.042	239.32
238.507	244
238.972	269.75
239.436	258.04
239.901	255.7
240.366	286.13
240.83	307.2
241.295	258.04
241.76	286.13
242.224	269.75
242.688	272.09
243.153	309.54
243.617	309.54
244.081	323.58
244.545	248.68
245.01	255.7
245.474	325.92
245.938	311.88
246.402	262.73
246.866	286.13
247.33	339.96
247.793	361.03
248.257	251.02
248.721	325.92
249.185	220.6
249.648	321.24
250.112	253.36
250.575	272.09
251.039	281.45
251.502	286.13
251.965	302.51
252.429	283.79
252.892	288.47
253.355	307.2
253.818	258.04
254.281	241.66
254.744	288.47
255.207	328.26
255.67	262.73
256.133	304.85
256.596	309.54
257.059	281.45
257.522	246.34
257.984	335.28
258.447	318.9
258.909	279.11
259.372	274.43
259.834	297.83
260.297	304.85
260.759	335.28
261.221	290.81
261.684	297.83
262.146	253.36
262.608	253.36
263.07	253.36
263.532	316.56
263.994	239.32
264.456	302.51
264.918	283.79
265.38	269.75
265.842	248.68
266.303	318.9
266.765	255.7
267.227	255.7
267.688	286.13
268.15	286.13
268.611	311.88
269.072	279.11
269.534	288.47
269.995	276.77
270.456	281.45
270.918	279.11
271.379	323.58
271.84	281.45
272.301	286.13
272.762	283.79
273.223	248.68
273.684	314.22
274.144	232.3
274.605	272.09
275.066	232.3
275.527	309.54
275.987	342.3
276.448	290.81
276.908	288.47
277.369	295.49
277.829	279.11
278.289	295.49
278.75	339.96
279.21	328.26
279.67	234.64
280.13	276.77
280.59	267.41
281.05	330.6
281.51	274.43
281.97	283.79
282.43	384.43
282.89	295.49
283.35	297.83
283.809	265.07
284.269	297.83
284.729	279.11
285.188	337.62
285.648	332.94
286.107	288.47
286.567	248.68
287.026	276.77
287.485	293.15
287.944	276.77
288.404	262.73
288.863	267.41
289.322	332.94
289.781	251.02
290.24	351.67
290.699	316.56
291.158	290.81
291.616	323.58
292.075	398.48
292.534	337.62
292.992	314.22
293.451	222.94
293.91	309.54
294.368	225.28
294.827	302.51
295.285	318.9
295.743	356.35
296.202	330.6
296.66	325.92
297.118	330.6
297.576	241.66
298.034	321.24
298.492	307.2
298.95	304.85
299.408	274.43
299.866	286.13
300.324	302.51
300.781	300.17
301.239	229.96
301.697	293.15
302.154	272.09
302.612	321.24
303.069	330.6
303.527	272.09
303.984	265.07
304.441	288.47
304.899	335.28
305.356	330.6
305.813	330.6
306.27	293.15
306.727	370.39
307.184	318.9
307.641	297.83
308.098	344.64
308.555	288.47
309.012	300.17
309.468	349.32
309.925	375.07
310.382	304.85
310.838	309.54
311.295	311.88
311.751	227.62
312.208	255.7
312.664	332.94
313.12	274.43
313.577	265.07
314.033	330.6
314.489	288.47
314.945	304.85
315.401	274.43
315.857	363.37
316.313	344.64
316.769	314.22
317.225	290.81
317.681	316.56
318.136	328.26
318.592	332.94
319.048	361.03
319.503	260.38
319.959	351.67
320.414	288.47
320.869	412.52
321.325	281.45
321.78	295.49
322.235	253.36
322.691	286.13
323.146	255.7
323.601	321.24
324.056	295.49
324.511	316.56
324.966	304.85
325.421	339.96
325.875	339.96
326.33	281.45
326.785	286.13
327.24	276.77
327.694	283.79
328.149	363.37
328.603	372.73
329.058	337.62
329.512	351.67
329.966	255.7
330.421	328.26
330.875	248.68
331.329	194.85
331.783	244
332.237	358.69
332.691	316.56
333.145	304.85
333.599	328.26
334.053	311.88
334.507	269.75
334.96	342.3
335.414	332.94
335.868	288.47
336.321	316.56
336.775	332.94
337.228	379.75
337.682	244
338.135	300.17
338.588	272.09
339.042	337.62
339.495	337.62
339.948	260.38
340.401	368.05
340.854	293.15
341.307	363.37
341.76	321.24
342.213	304.85
342.666	255.7
343.119	307.2
343.571	281.45
344.024	260.38
344.477	300.17
344.929	363.37
345.382	332.94
345.834	377.41
346.287	300.17
346.739	377.41
347.191	318.9
347.644	342.3
348.096	260.38
348.548	325.92
349	311.88
349.452	330.6
349.904	332.94
350.356	337.62
350.808	356.35
351.26	265.07
351.711	358.69
352.163	342.3
352.615	307.2
353.066	316.56
353.518	260.38
353.969	288.47
354.421	314.22
354.872	248.68
355.324	272.09
355.775	290.81
356.226	342.3
356.677	276.77
357.128	281.45
357.579	288.47
358.03	307.2
358.481	276.77
358.932	286.13
359.383	363.37
359.834	318.9
360.285	337.62
360.735	346.98
361.186	342.3
361.637	356.35
362.087	382.09
362.538	251.02
362.988	297.83
363.438	234.64
363.889	321.24
364.339	244
364.789	309.54
365.239	332.94
365.689	279.11
366.139	321.24
366.589	354.01
367.039	293.15
367.489	337.62
367.939	309.54
368.389	335.28
368.839	356.35
369.288	283.79
369.738	307.2
370.187	288.47
370.637	211.23
371.086	279.11
371.536	368.05
371.985	314.22
372.434	272.09
372.884	351.67
373.333	332.94
373.782	297.83
374.231	351.67
374.68	339.96
375.129	323.58
375.578	314.22
376.027	272.09
376.475	234.64
376.924	372.73
377.373	262.73
377.822	332.94
378.27	288.47
378.719	330.6
379.167	328.26
379.616	255.7
380.064	295.49
380.512	332.94
380.961	321.24
381.409	344.64
381.857	349.32
382.305	286.13
382.753	286.13
383.201	377.41
383.649	286.13
384.097	311.88
384.545	276.77
384.992	318.9
385.44	339.96
385.888	328.26
386.335	316.56
386.783	318.9
387.231	349.32
387.678	372.73
388.125	265.07
388.573	309.54
389.02	297.83
389.467	335.28
389.914	342.3
390.362	363.37
390.809	358.69
391.256	318.9
391.703	286.13
392.15	379.75
392.596	300.17
393.043	339.96
393.49	349.32
393.937	314.22
394.383	332.94
394.83	269.75
395.276	339.96
395.723	307.2
396.169	361.03
396.616	393.8
397.062	281.45
397.508	321.24
397.954	290.81
398.401	318.9
398.847	349.32
399.293	288.47
399.739	335.28
400.185	274.43
400.631	251.02
401.076	307.2
401.522	272.09
401.968	323.58
402.414	311.88
402.859	304.85
403.305	295.49
403.75	335.28
404.196	304.85
404.641	344.64
405.086	361.03
405.532	328.26
405.977	337.62
406.422	281.45
406.867	379.75
407.312	323.58
407.757	358.69
408.202	349.32
408.647	330.6
409.092	323.58
409.537	351.67
409.982	339.96
410.426	377.41
410.871	293.15
411.316	281.45
411.76	337.62
412.205	325.92
412.649	382.09
413.093	339.96
413.538	354.01
413.982	339.96
414.426	318.9
414.87	346.98
415.314	279.11
415.758	267.41
416.202	307.2
416.646	382.09
417.09	316.56
417.534	290.81
417.978	286.13
418.421	379.75
418.865	304.85
419.309	304.85
419.752	368.05
420.196	323.58
420.639	332.94
421.083	346.98
421.526	309.54
421.969	325.92
422.412	370.39
422.856	337.62
423.299	358.69
423.742	400.82
424.185	356.35
424.628	370.39
425.071	354.01
425.513	335.28
425.956	389.11
426.399	368.05
426.842	431.24
427.284	323.58
427.727	384.43
428.169	281.45
428.612	288.47
429.054	442.95
429.497	389.11
429.939	386.77
430.381	405.5
430.823	384.43
431.265	410.18
431.707	403.16
432.149	316.56
432.591	339.96
433.033	410.18
433.475	365.71
433.917	396.14
434.359	407.84
434.8	489.76
435.242	510.82
435.684	536.57
436.125	503.8
436.567	557.63
437.008	461.67
437.449	449.97
437.891	461.67
438.332	431.24
438.773	478.05
439.214	466.35
439.656	494.44
440.097	471.03
440.538	522.52
440.978	541.25
441.419	496.78
441.86	548.27
442.301	541.25
442.742	501.46
443.182	482.74
443.623	471.03
444.063	515.5
444.504	449.97
444.944	520.18
445.385	520.18
445.825	466.35
446.265	545.93
446.706	471.03
447.146	501.46
447.586	482.74
448.026	468.69
448.466	471.03
448.906	550.61
449.346	454.65
449.786	543.59
450.225	480.39
450.665	471.03
451.105	459.33
451.544	534.23
451.984	489.76
452.424	475.71
452.863	386.77
453.302	428.9
453.742	400.82
454.181	494.44
454.62	445.29
455.059	475.71
455.499	482.74
455.938	389.11
456.377	426.56
456.816	468.69
457.254	351.67
457.693	459.33
458.132	473.37
458.571	440.61
459.01	419.54
459.448	365.71
459.887	428.9
460.325	398.48
460.764	414.86
461.202	468.69
461.641	461.67
462.079	389.11
462.517	412.52
462.955	400.82
463.393	424.22
463.832	428.9
464.27	375.07
464.708	396.14
465.145	468.69
465.583	461.67
466.021	431.24
466.459	391.45
466.897	358.69
467.334	325.92
467.772	354.01
468.209	400.82
468.647	426.56
469.084	363.37
469.522	417.2
469.959	356.35
470.396	356.35
470.833	417.2
471.271	342.3
471.708	314.22
472.145	433.58
472.582	391.45
473.019	407.84
473.456	389.11
473.892	370.39
474.329	339.96
474.766	454.65
475.202	356.35
475.639	384.43
476.076	407.84
476.512	339.96
476.949	417.2
477.385	368.05
477.821	344.64
478.258	309.54
478.694	424.22
479.13	356.35
479.566	354.01
480.002	407.84
480.438	377.41
480.874	316.56
481.31	344.64
481.746	435.92
482.181	375.07
482.617	471.03
483.053	426.56
483.488	393.8
483.924	361.03
484.36	368.05
484.795	382.09
485.23	478.05
485.666	442.95
486.101	431.24
486.536	419.54
486.971	464.01
487.407	485.08
487.842	428.9
488.277	471.03
488.712	482.74
489.146	445.29
489.581	426.56
490.016	393.8
490.451	414.86
490.885	449.97
491.32	417.2
491.755	323.58
492.189	382.09
492.624	386.77
493.058	442.95
493.492	370.39
493.927	389.11
494.361	529.55
494.795	438.27
495.229	471.03
495.663	464.01
496.097	379.75
496.531	398.48
496.965	398.48
497.399	349.32
497.833	370.39
498.266	431.24
498.7	365.71
499.134	417.2
499.567	410.18
500.001	389.11
500.434	382.09
500.868	400.82
501.301	361.03
501.734	389.11
502.168	389.11
502.601	426.56
503.034	375.07
503.467	351.67
503.9	351.67
504.333	431.24
504.766	379.75
505.199	527.21
505.632	384.43
506.064	417.2
506.497	424.22
506.93	389.11
507.362	377.41
507.795	382.09
508.227	412.52
508.66	424.22
509.092	389.11
509.524	456.99
509.956	365.71
510.389	433.58
510.821	424.22
511.253	412.52
511.685	478.05
512.117	405.5
512.549	438.27
512.981	452.31
513.412	433.58
513.844	442.95
514.276	386.77
514.707	426.56
515.139	433.58
515.571	442.95
516.002	414.86
516.433	410.18
516.865	435.92
517.296	466.35
517.727	438.27
518.159	424.22
518.59	431.24
519.021	417.2
519.452	440.61
519.883	492.1
520.314	419.54
520.744	396.14
521.175	478.05
521.606	424.22
522.037	398.48
522.467	421.88
522.898	433.58
523.328	382.09
523.759	396.14
524.189	398.48
524.62	480.39
525.05	386.77
525.48	435.92
525.91	466.35
526.341	435.92
526.771	447.63
527.201	424.22
527.631	398.48
528.061	464.01
528.49	403.16
528.92	393.8
529.35	466.35
529.78	421.88
530.209	421.88
530.639	419.54
531.068	503.8
531.498	482.74
531.927	489.76
532.357	452.31
532.786	440.61
533.215	431.24
533.644	445.29
534.074	447.63
534.503	433.58
534.932	471.03
535.361	410.18
535.79	445.29
536.218	459.33
536.647	466.35
537.076	442.95
537.505	449.97
537.933	459.33
538.362	438.27
538.79	421.88
539.219	517.84
539.647	555.29
540.076	499.12
540.504	576.36
540.932	531.89
541.36	672.32
541.788	700.41
542.217	662.96
542.645	787.01
543.073	763.6
543.5	782.32
543.928	787.01
544.356	744.88
544.784	770.62
545.211	735.51
545.639	787.01
546.067	695.72
546.494	698.06
546.922	620.83
547.349	548.27
547.776	531.89
548.204	517.84
548.631	552.95
549.058	485.08
549.485	524.87
549.912	510.82
550.339	503.8
550.766	522.52
551.193	487.42
551.62	489.76
552.047	492.1
552.474	496.78
552.9	421.88
553.327	508.48
553.754	442.95
554.18	435.92
554.607	456.99
555.033	400.82
555.459	424.22
555.886	433.58
556.312	421.88
556.738	351.67
557.164	393.8
557.59	442.95
558.016	419.54
558.442	499.12
558.868	412.52
559.294	419.54
559.72	480.39
560.145	445.29
560.571	475.71
560.997	382.09
561.422	449.97
561.848	433.58
562.273	459.33
562.699	417.2
563.124	393.8
563.549	475.71
563.974	466.35
564.4	438.27
564.825	464.01
565.25	456.99
565.675	379.75
566.1	351.67
566.525	440.61
566.95	403.16
567.374	421.88
567.799	375.07
568.224	384.43
568.648	396.14
569.073	424.22
569.497	438.27
569.922	424.22
570.346	466.35
570.771	419.54
571.195	410.18
571.619	407.84
572.043	419.54
572.467	365.71
572.891	379.75
573.315	421.88
573.739	464.01
574.163	412.52
574.587	377.41
575.011	440.61
575.435	424.22
575.858	445.29
576.282	447.63
576.705	410.18
577.129	471.03
577.552	377.41
577.976	440.61
578.399	421.88
578.822	389.11
579.245	386.77
579.669	419.54
580.092	386.77
580.515	456.99
580.938	459.33
581.361	471.03
581.784	435.92
582.206	452.31
582.629	501.46
583.052	475.71
583.474	428.9
583.897	524.87
584.32	456.99
584.742	468.69
585.165	520.18
585.587	389.11
586.009	428.9
586.431	435.92
586.854	438.27
587.276	445.29
587.698	524.87
588.12	445.29
588.542	478.05
588.964	473.37
589.386	492.1
589.807	447.63
590.229	426.56
590.651	461.67
591.073	421.88
591.494	487.42
591.916	492.1
592.337	440.61
592.759	391.45
593.18	428.9
593.601	433.58
594.022	379.75
594.444	475.71
594.865	449.97
595.286	398.48
595.707	358.69
596.128	375.07
596.549	375.07
596.97	419.54
597.39	431.24
597.811	325.92
598.232	391.45
598.652	358.69
599.073	407.84
599.494	396.14
599.914	370.39
600.334	407.84
600.755	466.35
601.175	351.67
601.595	396.14
602.015	445.29
602.436	431.24
602.856	552.95
603.276	375.07
603.696	433.58
604.115	356.35
604.535	368.05
604.955	438.27
605.375	405.5
605.794	363.37
606.214	354.01
606.634	368.05
607.053	389.11
607.473	349.32
607.892	403.16
608.311	421.88
608.731	447.63
609.15	426.56
609.569	592.74
609.988	588.06
610.407	686.36
610.826	744.88
611.245	796.37
611.664	775.3
612.083	721.47
612.501	709.77
612.92	674.66
613.339	536.57
613.757	599.76
614.176	550.61
614.594	562.31
615.013	494.44
615.431	480.39
615.85	471.03
616.268	440.61
616.686	428.9
617.104	403.16
617.522	428.9
617.94	428.9
618.358	410.18
618.776	421.88
619.194	386.77
619.612	445.29
620.03	435.92
620.447	454.65
620.865	400.82
621.282	447.63
621.7	407.84
622.117	361.03
622.535	337.62
622.952	370.39
623.369	435.92
623.787	431.24
624.204	417.2
624.621	400.82
625.038	375.07
625.455	342.3
625.872	344.64
626.289	337.62
626.706	389.11
627.123	396.14
627.539	379.75
627.956	407.84
628.373	400.82
628.789	328.26
629.206	391.45
629.622	389.11
630.038	346.98
630.455	328.26
630.871	358.69
631.287	356.35
631.703	361.03
632.12	424.22
632.536	377.41
632.952	339.96
633.368	246.34
633.783	365.71
634.199	377.41
634.615	349.32
635.031	330.6
635.446	377.41
635.862	339.96
636.277	428.9
636.693	325.92
637.108	339.96
637.524	419.54
637.939	391.45
638.354	309.54
638.77	328.26
639.185	311.88
639.6	323.58
640.015	323.58
640.43	377.41
640.845	428.9
641.259	396.14
641.674	403.16
642.089	332.94
642.504	302.51
642.918	328.26
643.333	321.24
643.747	358.69
644.162	356.35
644.576	339.96
644.991	330.6
645.405	363.37
645.819	391.45
646.233	339.96
646.647	330.6
647.061	274.43
647.475	328.26
647.889	323.58
648.303	400.82
648.717	335.28
649.131	344.64
649.545	377.41
649.958	318.9
650.372	332.94
650.785	346.98
651.199	300.17
651.612	339.96
652.026	339.96
652.439	332.94
652.852	283.79
653.266	311.88
653.679	302.51
654.092	265.07
654.505	323.58
654.918	316.56
655.331	311.88
655.744	307.2
656.156	325.92
656.569	365.71
656.982	332.94
657.394	316.56
657.807	314.22
658.22	318.9
658.632	325.92
659.044	389.11
659.457	337.62
659.869	365.71
660.281	311.88
660.693	323.58
661.106	328.26
661.518	269.75
661.93	377.41
662.342	274.43
662.754	379.75
663.165	302.51
663.577	332.94
663.989	316.56
664.401	330.6
664.812	356.35
665.224	311.88
665.635	281.45
666.047	290.81
666.458	321.24
666.869	325.92
667.281	354.01
667.692	377.41
668.103	405.5
668.514	330.6
668.925	323.58
669.336	323.58
669.747	297.83
670.158	358.69
670.569	307.2
670.979	229.96
671.39	384.43
671.801	337.62
672.211	283.79
672.622	304.85
673.032	318.9
673.443	311.88
673.853	307.2
674.263	325.92
674.674	365.71
675.084	311.88
675.494	386.77
675.904	314.22
676.314	332.94
676.724	255.7
677.134	335.28
677.544	354.01
677.953	351.67
678.363	304.85
678.773	344.64
679.182	323.58
679.592	318.9
680.001	412.52
680.411	262.73
680.82	286.13
681.23	323.58
681.639	325.92
682.048	302.51
682.457	330.6
682.866	356.35
683.275	304.85
683.684	253.36
684.093	260.38
684.502	307.2
684.911	344.64
685.32	323.58
685.728	368.05
686.137	328.26
686.546	318.9
686.954	332.94
687.363	262.73
687.771	330.6
688.179	358.69
688.588	354.01
688.996	342.3
689.404	316.56
689.812	335.28
690.22	316.56
690.628	332.94
691.036	295.49
691.444	314.22
691.852	361.03
692.26	342.3
692.667	328.26
693.075	314.22
693.483	309.54
693.89	286.13
694.298	253.36
694.705	335.28
695.112	314.22
695.52	335.28
695.927	314.22
696.334	358.69
696.741	290.81
697.148	351.67
697.555	370.39
697.962	314.22
698.369	410.18
698.776	321.24
699.183	328.26
699.59	328.26
699.996	300.17
700.403	375.07
700.81	255.7
701.216	283.79
701.623	335.28
702.029	283.79
702.435	251.02
702.842	316.56
703.248	344.64
703.654	323.58
704.06	293.15
704.466	332.94
704.872	244
705.278	314.22
705.684	323.58
706.09	377.41
706.496	370.39
706.901	419.54
707.307	375.07
707.712	351.67
708.118	344.64
708.523	323.58
708.929	356.35
709.334	386.77
709.74	403.16
710.145	253.36
710.55	361.03
710.955	339.96
711.36	307.2
711.765	227.62
712.17	325.92
712.575	328.26
712.98	859.56
713.385	384.43
713.789	297.83
714.194	314.22
714.599	293.15
715.003	356.35
715.408	349.32
715.812	365.71
716.217	365.71
716.621	330.6
717.025	302.51
717.429	335.28
717.833	335.28
718.238	279.11
718.642	344.64
719.046	358.69
719.449	323.58
719.853	309.54
720.257	323.58
720.661	351.67
721.065	344.64
721.468	361.03
721.872	288.47
722.275	304.85
722.679	295.49
723.082	290.81
723.485	346.98
723.889	314.22
724.292	304.85
724.695	328.26
725.098	368.05
725.501	293.15
725.904	272.09
726.307	295.49
726.71	297.83
727.113	344.64
727.516	339.96
727.918	316.56
728.321	328.26
728.724	304.85
729.126	286.13
729.529	311.88
729.931	351.67
730.333	368.05
730.736	384.43
731.138	365.71
731.54	246.34
731.942	276.77
732.344	316.56
732.746	302.51
733.148	335.28
733.55	349.32
733.952	286.13
734.354	295.49
734.756	321.24
735.157	342.3
735.559	325.92
735.96	370.39
736.362	361.03
736.763	321.24
737.165	379.75
737.566	332.94
737.967	281.45
738.368	365.71
738.77	265.07
739.171	295.49
739.572	384.43
739.973	316.56
740.374	255.7
740.774	325.92
741.175	304.85
741.576	339.96
741.977	300.17
742.377	279.11
742.778	258.04
743.178	346.98
743.579	358.69
743.979	321.24
744.379	309.54
744.78	276.77
745.18	339.96
745.58	344.64
745.98	311.88
746.38	302.51
746.78	300.17
747.18	354.01
747.58	286.13
747.98	269.75
748.38	330.6
748.779	307.2
749.179	332.94
749.578	342.3
749.978	356.35
750.377	311.88
750.777	295.49
751.176	300.17
751.575	295.49
751.975	302.51
752.374	288.47
752.773	304.85
753.172	368.05
753.571	295.49
753.97	293.15
754.369	276.77
754.768	361.03
755.166	293.15
755.565	323.58
755.964	325.92
756.362	304.85
756.761	323.58
757.159	354.01
757.558	375.07
757.956	272.09
758.354	286.13
758.753	295.49
759.151	276.77
759.549	302.51
759.947	396.14
760.345	323.58
760.743	314.22
761.141	295.49
761.539	349.32
761.936	293.15
762.334	346.98
762.732	258.04
763.129	389.11
763.527	358.69
763.924	302.51
764.322	349.32
764.719	375.07
765.117	276.77
765.514	396.14
