Data from Al_FLMS009871__299__12-22-32-344.txt Node

Date: Fri Mar 08 12:22:32 CST 2024
User: pe5414po
Spectrometer: FLMS00987
Trigger mode: 0
Integration Time (sec): 1.000000E-1
Scans to average: 1
Electric dark correction enabled: true
Nonlinearity correction enabled: false
Boxcar width: 0
XAxis mode: Wavelengths
Number of Pixels in Spectrum: 2048
>>>>>Begin Spectral Data<<<<<
188.938	-91.28
189.409	-91.28
189.879	-91.28
190.349	-60.85
190.819	-95.96
191.29	-110.01
191.76	-65.54
192.23	-81.92
192.7	-74.9
193.17	-51.49
193.64	-67.88
194.109	-63.19
194.579	21.06
195.049	39.79
195.519	-14.04
195.988	56.17
196.458	-16.38
196.927	81.92
197.397	124.05
197.866	131.07
198.336	91.28
198.805	142.77
199.274	168.52
199.744	217.67
200.213	133.41
200.682	182.56
201.151	264.48
201.62	208.31
202.089	231.71
202.558	222.35
203.027	234.05
203.495	241.08
203.964	241.08
204.433	280.86
204.902	294.91
205.37	278.52
205.839	220.01
206.307	318.31
206.776	283.2
207.244	308.95
207.712	262.14
208.181	290.23
208.649	320.65
209.117	301.93
209.585	273.84
210.053	287.89
210.521	283.2
210.989	306.61
211.457	245.76
211.925	255.12
212.393	280.86
212.861	353.42
213.328	337.04
213.796	264.48
214.264	189.58
214.731	245.76
215.199	355.76
215.666	283.2
216.133	297.25
216.601	278.52
217.068	269.16
217.535	212.99
218.003	198.95
218.47	308.95
218.937	224.69
219.404	215.33
219.871	262.14
220.338	269.16
220.805	264.48
221.271	241.08
221.738	287.89
222.205	170.86
222.671	304.27
223.138	212.99
223.605	271.5
224.071	243.42
224.538	269.16
225.004	271.5
225.47	318.31
225.937	264.48
226.403	259.8
226.869	266.82
227.335	269.16
227.801	292.57
228.267	334.7
228.733	332.36
229.199	285.55
229.665	243.42
230.131	264.48
230.597	313.63
231.062	262.14
231.528	220.01
231.994	301.93
232.459	273.84
232.925	271.5
233.39	255.12
233.856	224.69
234.321	259.8
234.786	217.67
235.252	292.57
235.717	245.76
236.182	334.7
236.647	294.91
237.112	241.08
237.577	259.8
238.042	306.61
238.507	290.23
238.972	271.5
239.436	229.37
239.901	322.99
240.366	285.55
240.83	264.48
241.295	301.93
241.76	304.27
242.224	238.73
242.688	243.42
243.153	259.8
243.617	255.12
244.081	299.59
244.545	248.1
245.01	283.2
245.474	299.59
245.938	231.71
246.402	297.25
246.866	285.55
247.33	306.61
247.793	311.29
248.257	299.59
248.721	238.73
249.185	313.63
249.648	271.5
250.112	222.35
250.575	325.33
251.039	257.46
251.502	257.46
251.965	339.38
252.429	257.46
252.892	318.31
253.355	280.86
253.818	294.91
254.281	273.84
254.744	271.5
255.207	236.39
255.67	245.76
256.133	290.23
256.596	344.06
257.059	241.08
257.522	320.65
257.984	287.89
258.447	269.16
258.909	262.14
259.372	276.18
259.834	311.29
260.297	280.86
260.759	308.95
261.221	306.61
261.684	252.78
262.146	278.52
262.608	358.1
263.07	297.25
263.532	280.86
263.994	330.02
264.456	327.67
264.918	264.48
265.38	341.72
265.842	292.57
266.303	283.2
266.765	372.15
267.227	250.44
267.688	290.23
268.15	311.29
268.611	358.1
269.072	318.31
269.534	337.04
269.995	306.61
270.456	217.67
270.918	315.97
271.379	203.63
271.84	255.12
272.301	294.91
272.762	306.61
273.223	313.63
273.684	322.99
274.144	236.39
274.605	276.18
275.066	299.59
275.527	304.27
275.987	271.5
276.448	273.84
276.908	299.59
277.369	297.25
277.829	346.4
278.289	315.97
278.75	306.61
279.21	283.2
279.67	262.14
280.13	287.89
280.59	318.31
281.05	257.46
281.51	255.12
281.97	320.65
282.43	299.59
282.89	339.38
283.35	257.46
283.809	311.29
284.269	222.35
284.729	339.38
285.188	306.61
285.648	351.08
286.107	222.35
286.567	252.78
287.026	297.25
287.485	322.99
287.944	318.31
288.404	322.99
288.863	273.84
289.322	262.14
289.781	351.08
290.24	311.29
290.699	327.67
291.158	362.78
291.616	334.7
292.075	271.5
292.534	353.42
292.992	311.29
293.451	285.55
293.91	299.59
294.368	372.15
294.827	332.36
295.285	325.33
295.743	318.31
296.202	306.61
296.66	379.17
297.118	271.5
297.576	271.5
298.034	283.2
298.492	337.04
298.95	294.91
299.408	320.65
299.866	339.38
300.324	264.48
300.781	264.48
301.239	346.4
301.697	297.25
302.154	330.02
302.612	292.57
303.069	297.25
303.527	297.25
303.984	322.99
304.441	297.25
304.899	273.84
305.356	322.99
305.813	332.36
306.27	337.04
306.727	290.23
307.184	283.2
307.641	257.46
308.098	248.1
308.555	339.38
309.012	297.25
309.468	292.57
309.925	243.42
310.382	322.99
310.838	301.93
311.295	280.86
311.751	344.06
312.208	301.93
312.664	346.4
313.12	311.29
313.577	315.97
314.033	304.27
314.489	311.29
314.945	334.7
315.401	292.57
315.857	318.31
316.313	280.86
316.769	241.08
317.225	294.91
317.681	315.97
318.136	306.61
318.592	292.57
319.048	346.4
319.503	360.44
319.959	318.31
320.414	327.67
320.869	283.2
321.325	301.93
321.78	271.5
322.235	358.1
322.691	264.48
323.146	306.61
323.601	297.25
324.056	287.89
324.511	320.65
324.966	311.29
325.421	322.99
325.875	318.31
326.33	332.36
326.785	325.33
327.24	287.89
327.694	341.72
328.149	301.93
328.603	351.08
329.058	304.27
329.512	299.59
329.966	327.67
330.421	376.83
330.875	369.8
331.329	290.23
331.783	301.93
332.237	330.02
332.691	311.29
333.145	294.91
333.599	418.96
334.053	269.16
334.507	259.8
334.96	306.61
335.414	337.04
335.868	299.59
336.321	322.99
336.775	280.86
337.228	360.44
337.682	311.29
338.135	344.06
338.588	337.04
339.042	227.03
339.495	252.78
339.948	344.06
340.401	313.63
340.854	334.7
341.307	367.46
341.76	395.55
342.213	304.27
342.666	262.14
343.119	294.91
343.571	287.89
344.024	315.97
344.477	346.4
344.929	339.38
345.382	369.8
345.834	360.44
346.287	299.59
346.739	283.2
347.191	315.97
347.644	304.27
348.096	351.08
348.548	344.06
349	264.48
349.452	341.72
349.904	276.18
350.356	322.99
350.808	313.63
351.26	353.42
351.711	341.72
352.163	337.04
352.615	355.76
353.066	369.8
353.518	290.23
353.969	341.72
354.421	334.7
354.872	287.89
355.324	337.04
355.775	315.97
356.226	337.04
356.677	351.08
357.128	262.14
357.579	278.52
358.03	294.91
358.481	292.57
358.932	332.36
359.383	292.57
359.834	299.59
360.285	332.36
360.735	348.74
361.186	308.95
361.637	292.57
362.087	325.33
362.538	341.72
362.988	273.84
363.438	358.1
363.889	287.89
364.339	290.23
364.789	285.55
365.239	344.06
365.689	339.38
366.139	341.72
366.589	297.25
367.039	313.63
367.489	294.91
367.939	367.46
368.389	327.67
368.839	337.04
369.288	304.27
369.738	318.31
370.187	311.29
370.637	330.02
371.086	320.65
371.536	369.8
371.985	325.33
372.434	334.7
372.884	301.93
373.333	306.61
373.782	337.04
374.231	337.04
374.68	351.08
375.129	330.02
375.578	243.42
376.027	245.76
376.475	301.93
376.924	379.17
377.373	395.55
377.822	306.61
378.27	306.61
378.719	372.15
379.167	379.17
379.616	320.65
380.064	337.04
380.512	360.44
380.961	308.95
381.409	379.17
381.857	315.97
382.305	325.33
382.753	388.53
383.201	320.65
383.649	332.36
384.097	308.95
384.545	327.67
384.992	308.95
385.44	311.29
385.888	313.63
386.335	367.46
386.783	325.33
387.231	339.38
387.678	306.61
388.125	299.59
388.573	315.97
389.02	318.31
389.467	269.16
389.914	276.18
390.362	264.48
390.809	318.31
391.256	250.44
391.703	318.31
392.15	341.72
392.596	339.38
393.043	306.61
393.49	327.67
393.937	362.78
394.383	374.49
394.83	259.8
395.276	290.23
395.723	315.97
396.169	299.59
396.616	315.97
397.062	351.08
397.508	269.16
397.954	304.27
398.401	306.61
398.847	351.08
399.293	294.91
399.739	299.59
400.185	318.31
400.631	285.55
401.076	318.31
401.522	299.59
401.968	362.78
402.414	297.25
402.859	351.08
403.305	362.78
403.75	353.42
404.196	351.08
404.641	322.99
405.086	388.53
405.532	397.89
405.977	369.8
406.422	341.72
406.867	271.5
407.312	304.27
407.757	365.12
408.202	355.76
408.647	393.21
409.092	339.38
409.537	304.27
409.982	372.15
410.426	330.02
410.871	330.02
411.316	339.38
411.76	337.04
412.205	304.27
412.649	315.97
413.093	339.38
413.538	339.38
413.982	358.1
414.426	280.86
414.87	327.67
415.314	367.46
415.758	283.2
416.202	311.29
416.646	315.97
417.09	292.57
417.534	278.52
417.978	330.02
418.421	306.61
418.865	308.95
419.309	344.06
419.752	341.72
420.196	320.65
420.639	341.72
421.083	353.42
421.526	355.76
421.969	313.63
422.412	334.7
422.856	308.95
423.299	294.91
423.742	325.33
424.185	393.21
424.628	290.23
425.071	330.02
425.513	346.4
425.956	355.76
426.399	409.59
426.842	358.1
427.284	381.51
427.727	372.15
428.169	325.33
428.612	397.89
429.054	372.15
429.497	355.76
429.939	411.93
430.381	430.66
430.823	383.85
431.265	346.4
431.707	470.45
432.149	442.36
432.591	423.64
433.033	451.72
433.475	358.1
433.917	423.64
434.359	484.49
434.8	540.66
435.242	620.24
435.684	498.53
436.125	531.3
436.567	421.3
437.008	435.34
437.449	489.17
437.891	418.96
438.332	477.47
438.773	461.09
439.214	472.79
439.656	418.96
440.097	472.79
440.538	442.36
440.978	479.81
441.419	477.47
441.86	468.11
442.301	524.28
442.742	517.26
443.182	517.26
443.623	517.26
444.063	484.49
444.504	559.39
444.944	498.53
445.385	587.47
445.825	535.98
446.265	552.37
446.706	482.15
447.146	484.49
447.586	585.13
448.026	540.66
448.466	479.81
448.906	505.56
449.346	566.41
449.786	510.24
450.225	519.6
450.665	559.39
451.105	503.22
451.544	505.56
451.984	514.92
452.424	533.64
452.863	421.3
453.302	496.19
453.742	465.77
454.181	503.22
454.62	414.27
455.059	507.9
455.499	418.96
455.938	440.02
456.377	449.38
456.816	447.04
457.254	428.32
457.693	393.21
458.132	484.49
458.571	362.78
459.01	458.74
459.448	435.34
459.887	428.32
460.325	430.66
460.764	458.74
461.202	409.59
461.641	407.25
462.079	444.7
462.517	386.19
462.955	442.36
463.393	388.53
463.832	397.89
464.27	365.12
464.708	409.59
465.145	404.91
465.583	393.21
466.021	440.02
466.459	442.36
466.897	425.98
467.334	376.83
467.772	433
468.209	423.64
468.647	404.91
469.084	402.57
469.522	404.91
469.959	395.55
470.396	381.51
470.833	395.55
471.271	428.32
471.708	390.87
472.145	437.68
472.582	435.34
473.019	404.91
473.456	379.17
473.892	337.04
474.329	337.04
474.766	285.55
475.202	404.91
475.639	304.27
476.076	395.55
476.512	372.15
476.949	402.57
477.385	348.74
477.821	388.53
478.258	470.45
478.694	365.12
479.13	395.55
479.566	433
480.002	360.44
480.438	330.02
480.874	362.78
481.31	423.64
481.746	428.32
482.181	402.57
482.617	409.59
483.053	411.93
483.488	456.4
483.924	458.74
484.36	451.72
484.795	430.66
485.23	493.85
485.666	444.7
486.101	475.13
486.536	475.13
486.971	479.81
487.407	402.57
487.842	430.66
488.277	449.38
488.712	472.79
489.146	479.81
489.581	437.68
490.016	517.26
490.451	484.49
490.885	444.7
491.32	409.59
491.755	472.79
492.189	372.15
492.624	397.89
493.058	425.98
493.492	407.25
493.927	383.85
494.361	407.25
494.795	388.53
495.229	482.15
495.663	435.34
496.097	414.27
496.531	397.89
496.965	416.62
497.399	341.72
497.833	365.12
498.266	409.59
498.7	440.02
499.134	379.17
499.567	482.15
500.001	447.04
500.434	440.02
500.868	400.23
501.301	411.93
501.734	327.67
502.168	383.85
502.601	423.64
503.034	365.12
503.467	390.87
503.9	386.19
504.333	339.38
504.766	409.59
505.199	395.55
505.632	472.79
506.064	451.72
506.497	423.64
506.93	416.62
507.362	428.32
507.795	411.93
508.227	428.32
508.66	465.77
509.092	430.66
509.524	388.53
509.956	456.4
510.389	383.85
510.821	369.8
511.253	433
511.685	425.98
512.117	486.83
512.549	433
512.981	369.8
513.412	404.91
513.844	355.76
514.276	451.72
514.707	479.81
515.139	482.15
515.571	493.85
516.002	414.27
516.433	433
516.865	362.78
517.296	440.02
517.727	468.11
518.159	489.17
518.59	489.17
519.021	430.66
519.452	489.17
519.883	404.91
520.314	461.09
520.744	409.59
521.175	409.59
521.606	465.77
522.037	414.27
522.467	489.17
522.898	402.57
523.328	477.47
523.759	425.98
524.189	414.27
524.62	418.96
525.05	418.96
525.48	433
525.91	388.53
526.341	479.81
526.771	411.93
527.201	421.3
527.631	334.7
528.061	458.74
528.49	442.36
528.92	433
529.35	395.55
529.78	458.74
530.209	447.04
530.639	456.4
531.068	418.96
531.498	418.96
531.927	465.77
532.357	435.34
532.786	402.57
533.215	444.7
533.644	411.93
534.074	425.98
534.503	486.83
534.932	423.64
535.361	421.3
535.79	437.68
536.218	411.93
536.647	456.4
537.076	493.85
537.505	451.72
537.933	477.47
538.362	484.49
538.79	571.09
539.219	486.83
539.647	475.13
540.076	475.13
540.504	491.51
540.932	620.24
541.36	648.33
541.788	767.7
542.217	678.76
542.645	720.88
543.073	793.44
543.5	802.8
543.928	709.18
544.356	777.06
544.784	709.18
545.211	809.83
545.639	748.97
546.067	669.39
546.494	695.14
546.922	571.09
547.349	538.32
547.776	470.45
548.204	524.28
548.631	498.53
549.058	545.34
549.485	547.69
549.912	503.22
550.339	503.22
550.766	493.85
551.193	484.49
551.62	510.24
552.047	421.3
552.474	463.43
552.9	477.47
553.327	528.96
553.754	397.89
554.18	479.81
554.607	411.93
555.033	433
555.459	430.66
555.886	444.7
556.312	470.45
556.738	470.45
557.164	461.09
557.59	489.17
558.016	472.79
558.442	386.19
558.868	418.96
559.294	418.96
559.72	493.85
560.145	411.93
560.571	479.81
560.997	411.93
561.422	407.25
561.848	477.47
562.273	372.15
562.699	372.15
563.124	451.72
563.549	477.47
563.974	465.77
564.4	472.79
564.825	449.38
565.25	437.68
565.675	414.27
566.1	449.38
566.525	444.7
566.95	461.09
567.374	425.98
567.799	461.09
568.224	428.32
568.648	477.47
569.073	465.77
569.497	472.79
569.922	362.78
570.346	435.34
570.771	465.77
571.195	411.93
571.619	425.98
572.043	440.02
572.467	355.76
572.891	482.15
573.315	414.27
573.739	444.7
574.163	423.64
574.587	376.83
575.011	435.34
575.435	404.91
575.858	505.56
576.282	423.64
576.705	418.96
577.129	407.25
577.552	428.32
577.976	418.96
578.399	447.04
578.822	477.47
579.245	500.87
579.669	458.74
580.092	440.02
580.515	379.17
580.938	517.26
581.361	463.43
581.784	433
582.206	414.27
582.629	468.11
583.052	390.87
583.474	454.06
583.897	461.09
584.32	376.83
584.742	442.36
585.165	477.47
585.587	435.34
586.009	372.15
586.431	493.85
586.854	512.58
587.276	461.09
587.698	449.38
588.12	491.51
588.542	421.3
588.964	500.87
589.386	442.36
589.807	442.36
590.229	430.66
590.651	484.49
591.073	444.7
591.494	404.91
591.916	437.68
592.337	465.77
592.759	416.62
593.18	449.38
593.601	484.49
594.022	444.7
594.444	383.85
594.865	425.98
595.286	484.49
595.707	397.89
596.128	411.93
596.549	409.59
596.97	388.53
597.39	411.93
597.811	421.3
598.232	400.23
598.652	397.89
599.073	430.66
599.494	400.23
599.914	447.04
600.334	351.08
600.755	421.3
601.175	376.83
601.595	393.21
602.015	435.34
602.436	369.8
602.856	554.71
603.276	451.72
603.696	461.09
604.115	365.12
604.535	402.57
604.955	428.32
605.375	428.32
605.794	358.1
606.214	386.19
606.634	404.91
607.053	407.25
607.473	411.93
607.892	362.78
608.311	461.09
608.731	423.64
609.15	449.38
609.569	559.39
609.988	631.94
610.407	709.18
610.826	858.98
611.245	821.53
611.664	800.46
612.083	730.25
612.501	744.29
612.92	688.12
613.339	608.54
613.757	552.37
614.176	521.94
614.594	472.79
615.013	505.56
615.431	484.49
615.85	428.32
616.268	510.24
616.686	505.56
617.104	353.42
617.522	416.62
617.94	440.02
618.358	351.08
618.776	465.77
619.194	388.53
619.612	454.06
620.03	404.91
620.447	458.74
620.865	393.21
621.282	444.7
621.7	430.66
622.117	320.65
622.535	386.19
622.952	447.04
623.369	411.93
623.787	381.51
624.204	358.1
624.621	367.46
625.038	411.93
625.455	334.7
625.872	397.89
626.289	433
626.706	367.46
627.123	395.55
627.539	327.67
627.956	383.85
628.373	418.96
628.789	376.83
629.206	390.87
629.622	381.51
630.038	484.49
630.455	313.63
630.871	367.46
631.287	440.02
631.703	341.72
632.12	416.62
632.536	411.93
632.952	372.15
633.368	325.33
633.783	327.67
634.199	388.53
634.615	344.06
635.031	388.53
635.446	355.76
635.862	362.78
636.277	341.72
636.693	318.31
637.108	327.67
637.524	409.59
637.939	327.67
638.354	313.63
638.77	330.02
639.185	400.23
639.6	365.12
640.015	315.97
640.43	341.72
640.845	330.02
641.259	332.36
641.674	301.93
642.089	290.23
642.504	383.85
642.918	358.1
643.333	308.95
643.747	386.19
644.162	269.16
644.576	325.33
644.991	320.65
645.405	330.02
645.819	330.02
646.233	369.8
646.647	308.95
647.061	358.1
647.475	390.87
647.889	400.23
648.303	332.36
648.717	287.89
649.131	315.97
649.545	337.04
649.958	355.76
650.372	327.67
650.785	322.99
651.199	411.93
651.612	334.7
652.026	330.02
652.439	301.93
652.852	346.4
653.266	334.7
653.679	322.99
654.092	330.02
654.505	315.97
654.918	287.89
655.331	360.44
655.744	393.21
656.156	414.27
656.569	299.59
656.982	351.08
657.394	304.27
657.807	376.83
658.22	358.1
658.632	344.06
659.044	276.18
659.457	322.99
659.869	344.06
660.281	292.57
660.693	285.55
661.106	313.63
661.518	411.93
661.93	351.08
662.342	334.7
662.754	388.53
663.165	383.85
663.577	311.29
663.989	374.49
664.401	294.91
664.812	341.72
665.224	315.97
665.635	344.06
666.047	306.61
666.458	294.91
666.869	308.95
667.281	351.08
667.692	299.59
668.103	351.08
668.514	379.17
668.925	301.93
669.336	294.91
669.747	330.02
670.158	346.4
670.569	308.95
670.979	358.1
671.39	346.4
671.801	390.87
672.211	297.25
672.622	315.97
673.032	287.89
673.443	334.7
673.853	304.27
674.263	294.91
674.674	337.04
675.084	318.31
675.494	290.23
675.904	351.08
676.314	365.12
676.724	334.7
677.134	362.78
677.544	367.46
677.953	383.85
678.363	386.19
678.773	322.99
679.182	308.95
679.592	325.33
680.001	367.46
680.411	283.2
680.82	322.99
681.23	344.06
681.639	360.44
682.048	330.02
682.457	395.55
682.866	374.49
683.275	355.76
683.684	257.46
684.093	306.61
684.502	362.78
684.911	306.61
685.32	273.84
685.728	294.91
686.137	337.04
686.546	318.31
686.954	285.55
687.363	325.33
687.771	341.72
688.179	339.38
688.588	297.25
688.996	322.99
689.404	411.93
689.812	355.76
690.22	334.7
690.628	360.44
691.036	313.63
691.444	250.44
691.852	344.06
692.26	393.21
692.667	360.44
693.075	313.63
693.483	341.72
693.89	365.12
694.298	315.97
694.705	327.67
695.112	304.27
695.52	346.4
695.927	348.74
696.334	360.44
696.741	372.15
697.148	369.8
697.555	367.46
697.962	330.02
698.369	355.76
698.776	257.46
699.183	280.86
699.59	250.44
699.996	344.06
700.403	292.57
700.81	318.31
701.216	381.51
701.623	383.85
702.029	290.23
702.435	344.06
702.842	287.89
703.248	337.04
703.654	344.06
704.06	344.06
704.466	304.27
704.872	365.12
705.278	311.29
705.684	351.08
706.09	332.36
706.496	360.44
706.901	353.42
707.307	344.06
707.712	313.63
708.118	327.67
708.523	369.8
708.929	374.49
709.334	365.12
709.74	351.08
710.145	311.29
710.55	355.76
710.955	423.64
711.36	358.1
711.765	360.44
712.17	320.65
712.575	330.02
712.98	910.47
713.385	381.51
713.789	351.08
714.194	353.42
714.599	320.65
715.003	362.78
715.408	313.63
715.812	327.67
716.217	402.57
716.621	320.65
717.025	304.27
717.429	280.86
717.833	325.33
718.238	330.02
718.642	339.38
719.046	346.4
719.449	292.57
719.853	351.08
720.257	311.29
720.661	325.33
721.065	283.2
721.468	292.57
721.872	341.72
722.275	278.52
722.679	313.63
723.082	315.97
723.485	315.97
723.889	346.4
724.292	280.86
724.695	262.14
725.098	266.82
725.501	322.99
725.904	325.33
726.307	339.38
726.71	287.89
727.113	322.99
727.516	299.59
727.918	294.91
728.321	283.2
728.724	313.63
729.126	337.04
729.529	315.97
729.931	294.91
730.333	330.02
730.736	308.95
731.138	287.89
731.54	332.36
731.942	299.59
732.344	283.2
732.746	297.25
733.148	294.91
733.55	351.08
733.952	362.78
734.354	325.33
734.756	332.36
735.157	266.82
735.559	318.31
735.96	271.5
736.362	327.67
736.763	252.78
737.165	294.91
737.566	278.52
737.967	287.89
738.368	287.89
738.77	273.84
739.171	337.04
739.572	341.72
739.973	365.12
740.374	360.44
740.774	367.46
741.175	372.15
741.576	337.04
741.977	344.06
742.377	360.44
742.778	311.29
743.178	318.31
743.579	255.12
743.979	318.31
744.379	266.82
744.78	212.99
745.18	306.61
745.58	292.57
745.98	344.06
746.38	294.91
746.78	341.72
747.18	308.95
747.58	306.61
747.98	313.63
748.38	327.67
748.779	308.95
749.179	241.08
749.578	304.27
749.978	294.91
750.377	372.15
750.777	306.61
751.176	271.5
751.575	355.76
751.975	332.36
752.374	294.91
752.773	299.59
753.172	315.97
753.571	334.7
753.97	341.72
754.369	360.44
754.768	255.12
755.166	290.23
755.565	332.36
755.964	285.55
756.362	337.04
756.761	376.83
757.159	320.65
757.558	294.91
757.956	383.85
758.354	362.78
758.753	325.33
759.151	339.38
759.549	355.76
759.947	315.97
760.345	294.91
760.743	262.14
761.141	278.52
761.539	311.29
761.936	299.59
762.334	280.86
762.732	287.89
763.129	318.31
763.527	353.42
763.924	297.25
764.322	330.02
764.719	322.99
765.117	264.48
765.514	294.91
