Data from Al_FLMS009871__295__12-22-31-944.txt Node

Date: Fri Mar 08 12:22:31 CST 2024
User: pe5414po
Spectrometer: FLMS00987
Trigger mode: 0
Integration Time (sec): 1.000000E-1
Scans to average: 1
Electric dark correction enabled: true
Nonlinearity correction enabled: false
Boxcar width: 0
XAxis mode: Wavelengths
Number of Pixels in Spectrum: 2048
>>>>>Begin Spectral Data<<<<<
188.938	-95.38
189.409	-95.38
189.879	-95.38
190.349	-53.25
190.819	-107.08
191.29	-95.38
191.76	-123.46
192.23	-67.29
192.7	-88.36
193.17	-90.7
193.64	-1.76
194.109	-34.52
194.579	-20.48
195.049	-29.84
195.519	9.95
195.988	26.33
196.458	94.21
196.927	110.59
197.397	63.78
197.866	98.89
198.336	148.04
198.805	211.23
199.274	199.53
199.744	194.85
200.213	190.17
200.682	190.17
201.151	185.49
201.62	276.77
202.089	236.98
202.558	276.77
203.027	276.77
203.495	311.88
203.964	288.47
204.433	215.91
204.902	293.15
205.37	307.2
205.839	295.49
206.307	260.38
206.776	309.54
207.244	346.98
207.712	354.01
208.181	293.15
208.649	316.56
209.117	258.04
209.585	290.81
210.053	269.75
210.521	356.35
210.989	316.56
211.457	363.37
211.925	290.81
212.393	279.11
212.861	276.77
213.328	307.2
213.796	325.92
214.264	323.58
214.731	274.43
215.199	222.94
215.666	307.2
216.133	246.34
216.601	274.43
217.068	281.45
217.535	339.96
218.003	307.2
218.47	295.49
218.937	272.09
219.404	295.49
219.871	267.41
220.338	185.49
220.805	293.15
221.271	262.73
221.738	307.2
222.205	232.3
222.671	344.64
223.138	258.04
223.605	290.81
224.071	316.56
224.538	269.75
225.004	199.53
225.47	269.75
225.937	211.23
226.403	269.75
226.869	236.98
227.335	272.09
227.801	325.92
228.267	274.43
228.733	311.88
229.199	276.77
229.665	295.49
230.131	176.13
230.597	281.45
231.062	262.73
231.528	265.07
231.994	251.02
232.459	274.43
232.925	253.36
233.39	323.58
233.856	272.09
234.321	288.47
234.786	239.32
235.252	295.49
235.717	344.64
236.182	276.77
236.647	321.24
237.112	274.43
237.577	283.79
238.042	269.75
238.507	260.38
238.972	304.85
239.436	295.49
239.901	290.81
240.366	293.15
240.83	274.43
241.295	293.15
241.76	283.79
242.224	328.26
242.688	314.22
243.153	351.67
243.617	286.13
244.081	276.77
244.545	318.9
245.01	288.47
245.474	311.88
245.938	335.28
246.402	279.11
246.866	272.09
247.33	349.32
247.793	290.81
248.257	283.79
248.721	255.7
249.185	290.81
249.648	286.13
250.112	290.81
250.575	337.62
251.039	309.54
251.502	304.85
251.965	325.92
252.429	314.22
252.892	281.45
253.355	234.64
253.818	265.07
254.281	269.75
254.744	265.07
255.207	304.85
255.67	281.45
256.133	272.09
256.596	325.92
257.059	295.49
257.522	311.88
257.984	281.45
258.447	276.77
258.909	316.56
259.372	269.75
259.834	281.45
260.297	286.13
260.759	288.47
261.221	255.7
261.684	255.7
262.146	262.73
262.608	368.05
263.07	236.98
263.532	328.26
263.994	384.43
264.456	272.09
264.918	314.22
265.38	309.54
265.842	244
266.303	276.77
266.765	304.85
267.227	255.7
267.688	267.41
268.15	309.54
268.611	241.66
269.072	265.07
269.534	253.36
269.995	321.24
270.456	183.15
270.918	335.28
271.379	286.13
271.84	262.73
272.301	262.73
272.762	335.28
273.223	363.37
273.684	316.56
274.144	361.03
274.605	314.22
275.066	274.43
275.527	288.47
275.987	354.01
276.448	288.47
276.908	321.24
277.369	258.04
277.829	307.2
278.289	321.24
278.75	283.79
279.21	318.9
279.67	307.2
280.13	236.98
280.59	281.45
281.05	253.36
281.51	300.17
281.97	349.32
282.43	272.09
282.89	267.41
283.35	244
283.809	272.09
284.269	323.58
284.729	323.58
285.188	265.07
285.648	229.96
286.107	295.49
286.567	246.34
287.026	339.96
287.485	239.32
287.944	269.75
288.404	307.2
288.863	328.26
289.322	262.73
289.781	208.89
290.24	344.64
290.699	316.56
291.158	365.71
291.616	304.85
292.075	361.03
292.534	297.83
292.992	302.51
293.451	323.58
293.91	335.28
294.368	372.73
294.827	311.88
295.285	286.13
295.743	251.02
296.202	307.2
296.66	297.83
297.118	281.45
297.576	297.83
298.034	339.96
298.492	283.79
298.95	330.6
299.408	300.17
299.866	321.24
300.324	346.98
300.781	309.54
301.239	229.96
301.697	332.94
302.154	248.68
302.612	346.98
303.069	328.26
303.527	325.92
303.984	307.2
304.441	302.51
304.899	309.54
305.356	342.3
305.813	335.28
306.27	339.96
306.727	314.22
307.184	300.17
307.641	316.56
308.098	293.15
308.555	332.94
309.012	283.79
309.468	351.67
309.925	222.94
310.382	342.3
310.838	269.75
311.295	262.73
311.751	339.96
312.208	311.88
312.664	321.24
313.12	265.07
313.577	267.41
314.033	346.98
314.489	295.49
314.945	262.73
315.401	351.67
315.857	311.88
316.313	323.58
316.769	279.11
317.225	272.09
317.681	330.6
318.136	281.45
318.592	358.69
319.048	302.51
319.503	290.81
319.959	323.58
320.414	365.71
320.869	295.49
321.325	290.81
321.78	318.9
322.235	302.51
322.691	314.22
323.146	297.83
323.601	328.26
324.056	304.85
324.511	346.98
324.966	330.6
325.421	302.51
325.875	328.26
326.33	293.15
326.785	276.77
327.24	398.48
327.694	300.17
328.149	262.73
328.603	351.67
329.058	297.83
329.512	363.37
329.966	375.07
330.421	342.3
330.875	311.88
331.329	302.51
331.783	279.11
332.237	309.54
332.691	302.51
333.145	290.81
333.599	323.58
334.053	297.83
334.507	300.17
334.96	286.13
335.414	393.8
335.868	335.28
336.321	335.28
336.775	290.81
337.228	302.51
337.682	323.58
338.135	283.79
338.588	260.38
339.042	337.62
339.495	337.62
339.948	339.96
340.401	286.13
340.854	255.7
341.307	342.3
341.76	361.03
342.213	323.58
342.666	325.92
343.119	290.81
343.571	311.88
344.024	302.51
344.477	260.38
344.929	344.64
345.382	300.17
345.834	272.09
346.287	258.04
346.739	297.83
347.191	283.79
347.644	389.11
348.096	304.85
348.548	321.24
349	321.24
349.452	267.41
349.904	349.32
350.356	368.05
350.808	295.49
351.26	356.35
351.711	288.47
352.163	346.98
352.615	314.22
353.066	302.51
353.518	365.71
353.969	274.43
354.421	365.71
354.872	293.15
355.324	267.41
355.775	318.9
356.226	258.04
356.677	365.71
357.128	370.39
357.579	354.01
358.03	276.77
358.481	288.47
358.932	290.81
359.383	288.47
359.834	288.47
360.285	325.92
360.735	325.92
361.186	342.3
361.637	377.41
362.087	330.6
362.538	321.24
362.988	377.41
363.438	391.45
363.889	300.17
364.339	286.13
364.789	248.68
365.239	356.35
365.689	316.56
366.139	393.8
366.589	302.51
367.039	311.88
367.489	342.3
367.939	377.41
368.389	304.85
368.839	337.62
369.288	267.41
369.738	316.56
370.187	365.71
370.637	316.56
371.086	304.85
371.536	283.79
371.985	339.96
372.434	365.71
372.884	354.01
373.333	293.15
373.782	248.68
374.231	375.07
374.68	351.67
375.129	325.92
375.578	276.77
376.027	358.69
376.475	323.58
376.924	293.15
377.373	274.43
377.822	307.2
378.27	318.9
378.719	330.6
379.167	300.17
379.616	276.77
380.064	279.11
380.512	351.67
380.961	398.48
381.409	370.39
381.857	311.88
382.305	358.69
382.753	358.69
383.201	316.56
383.649	274.43
384.097	309.54
384.545	346.98
384.992	323.58
385.44	321.24
385.888	365.71
386.335	304.85
386.783	356.35
387.231	325.92
387.678	304.85
388.125	361.03
388.573	344.64
389.02	384.43
389.467	283.79
389.914	311.88
390.362	377.41
390.809	391.45
391.256	314.22
391.703	281.45
392.15	337.62
392.596	309.54
393.043	330.6
393.49	307.2
393.937	332.94
394.383	318.9
394.83	356.35
395.276	351.67
395.723	288.47
396.169	288.47
396.616	332.94
397.062	309.54
397.508	316.56
397.954	339.96
398.401	241.66
398.847	311.88
399.293	290.81
399.739	349.32
400.185	332.94
400.631	246.34
401.076	346.98
401.522	370.39
401.968	290.81
402.414	339.96
402.859	286.13
403.305	356.35
403.75	302.51
404.196	342.3
404.641	365.71
405.086	297.83
405.532	365.71
405.977	365.71
406.422	307.2
406.867	318.9
407.312	391.45
407.757	309.54
408.202	356.35
408.647	330.6
409.092	361.03
409.537	283.79
409.982	328.26
410.426	351.67
410.871	379.75
411.316	354.01
411.76	314.22
412.205	286.13
412.649	325.92
413.093	316.56
413.538	316.56
413.982	382.09
414.426	307.2
414.87	321.24
415.314	302.51
415.758	363.37
416.202	391.45
416.646	372.73
417.09	328.26
417.534	346.98
417.978	335.28
418.421	283.79
418.865	368.05
419.309	332.94
419.752	407.84
420.196	363.37
420.639	365.71
421.083	365.71
421.526	307.2
421.969	297.83
422.412	325.92
422.856	323.58
423.299	370.39
423.742	344.64
424.185	410.18
424.628	358.69
425.071	405.5
425.513	391.45
425.956	386.77
426.399	339.96
426.842	403.16
427.284	365.71
427.727	344.64
428.169	342.3
428.612	426.56
429.054	342.3
429.497	365.71
429.939	405.5
430.381	386.77
430.823	396.14
431.265	382.09
431.707	393.8
432.149	375.07
432.591	370.39
433.033	426.56
433.475	428.9
433.917	464.01
434.359	515.5
434.8	536.57
435.242	522.52
435.684	541.25
436.125	531.89
436.567	440.61
437.008	426.56
437.449	499.12
437.891	489.76
438.332	433.58
438.773	454.65
439.214	424.22
439.656	506.14
440.097	487.42
440.538	492.1
440.978	499.12
441.419	510.82
441.86	510.82
442.301	510.82
442.742	555.29
443.182	515.5
443.623	559.97
444.063	499.12
444.504	527.21
444.944	604.44
445.385	478.05
445.825	499.12
446.265	515.5
446.706	566.99
447.146	508.48
447.586	520.18
448.026	552.95
448.466	552.95
448.906	606.78
449.346	520.18
449.786	545.93
450.225	506.14
450.665	520.18
451.105	536.57
451.544	494.44
451.984	515.5
452.424	552.95
452.863	508.48
453.302	464.01
453.742	419.54
454.181	501.46
454.62	482.74
455.059	529.55
455.499	522.52
455.938	480.39
456.377	536.57
456.816	466.35
457.254	405.5
457.693	442.95
458.132	445.29
458.571	492.1
459.01	480.39
459.448	435.92
459.887	440.61
460.325	475.71
460.764	466.35
461.202	468.69
461.641	452.31
462.079	435.92
462.517	461.67
462.955	480.39
463.393	487.42
463.832	421.88
464.27	410.18
464.708	435.92
465.145	445.29
465.583	403.16
466.021	412.52
466.459	466.35
466.897	410.18
467.334	363.37
467.772	426.56
468.209	375.07
468.647	466.35
469.084	363.37
469.522	405.5
469.959	414.86
470.396	445.29
470.833	363.37
471.271	405.5
471.708	407.84
472.145	417.2
472.582	400.82
473.019	368.05
473.456	426.56
473.892	414.86
474.329	424.22
474.766	386.77
475.202	393.8
475.639	349.32
476.076	435.92
476.512	440.61
476.949	346.98
477.385	435.92
477.821	337.62
478.258	419.54
478.694	370.39
479.13	417.2
479.566	377.41
480.002	351.67
480.438	414.86
480.874	363.37
481.31	419.54
481.746	426.56
482.181	461.67
482.617	393.8
483.053	419.54
483.488	414.86
483.924	279.11
484.36	309.54
484.795	398.48
485.23	391.45
485.666	421.88
486.101	456.99
486.536	426.56
486.971	428.9
487.407	466.35
487.842	412.52
488.277	447.63
488.712	433.58
489.146	442.95
489.581	456.99
490.016	403.16
490.451	396.14
490.885	454.65
491.32	478.05
491.755	424.22
492.189	375.07
492.624	379.75
493.058	419.54
493.492	375.07
493.927	375.07
494.361	431.24
494.795	419.54
495.229	475.71
495.663	417.2
496.097	445.29
496.531	403.16
496.965	419.54
497.399	489.76
497.833	447.63
498.266	489.76
498.7	389.11
499.134	456.99
499.567	482.74
500.001	475.71
500.434	407.84
500.868	363.37
501.301	438.27
501.734	339.96
502.168	396.14
502.601	442.95
503.034	438.27
503.467	424.22
503.9	403.16
504.333	421.88
504.766	356.35
505.199	396.14
505.632	407.84
506.064	431.24
506.497	492.1
506.93	403.16
507.362	440.61
507.795	461.67
508.227	403.16
508.66	400.82
509.092	421.88
509.524	407.84
509.956	426.56
510.389	370.39
510.821	410.18
511.253	365.71
511.685	452.31
512.117	405.5
512.549	424.22
512.981	419.54
513.412	435.92
513.844	412.52
514.276	417.2
514.707	426.56
515.139	471.03
515.571	419.54
516.002	403.16
516.433	377.41
516.865	438.27
517.296	440.61
517.727	466.35
518.159	431.24
518.59	464.01
519.021	461.67
519.452	435.92
519.883	442.95
520.314	435.92
520.744	480.39
521.175	506.14
521.606	452.31
522.037	473.37
522.467	499.12
522.898	431.24
523.328	426.56
523.759	426.56
524.189	419.54
524.62	398.48
525.05	417.2
525.48	452.31
525.91	466.35
526.341	438.27
526.771	447.63
527.201	405.5
527.631	356.35
528.061	424.22
528.49	452.31
528.92	480.39
529.35	468.69
529.78	449.97
530.209	468.69
530.639	510.82
531.068	449.97
531.498	459.33
531.927	454.65
532.357	464.01
532.786	419.54
533.215	468.69
533.644	431.24
534.074	400.82
534.503	485.08
534.932	489.76
535.361	473.37
535.79	464.01
536.218	452.31
536.647	424.22
537.076	478.05
537.505	471.03
537.933	447.63
538.362	529.55
538.79	464.01
539.219	492.1
539.647	445.29
540.076	508.48
540.504	531.89
540.932	588.06
541.36	616.15
541.788	695.72
542.217	655.94
542.645	733.17
543.073	770.62
543.5	756.58
543.928	787.01
544.356	707.43
544.784	716.79
545.211	763.6
545.639	709.77
546.067	684.02
546.494	658.28
546.922	588.06
547.349	536.57
547.776	508.48
548.204	506.14
548.631	510.82
549.058	550.61
549.485	524.87
549.912	520.18
550.339	482.74
550.766	564.65
551.193	489.76
551.62	581.04
552.047	536.57
552.474	485.08
552.9	459.33
553.327	492.1
553.754	449.97
554.18	492.1
554.607	461.67
555.033	482.74
555.459	424.22
555.886	440.61
556.312	410.18
556.738	473.37
557.164	438.27
557.59	487.42
558.016	468.69
558.442	508.48
558.868	447.63
559.294	466.35
559.72	454.65
560.145	445.29
560.571	496.78
560.997	499.12
561.422	456.99
561.848	405.5
562.273	410.18
562.699	412.52
563.124	468.69
563.549	386.77
563.974	468.69
564.4	424.22
564.825	431.24
565.25	529.55
565.675	435.92
566.1	440.61
566.525	421.88
566.95	412.52
567.374	452.31
567.799	442.95
568.224	449.97
568.648	421.88
569.073	459.33
569.497	473.37
569.922	431.24
570.346	440.61
570.771	464.01
571.195	445.29
571.619	480.39
572.043	440.61
572.467	492.1
572.891	499.12
573.315	447.63
573.739	417.2
574.163	482.74
574.587	508.48
575.011	459.33
575.435	494.44
575.858	461.67
576.282	452.31
576.705	435.92
577.129	398.48
577.552	447.63
577.976	426.56
578.399	529.55
578.822	527.21
579.245	531.89
579.669	503.8
580.092	513.16
580.515	480.39
580.938	520.18
581.361	471.03
581.784	485.08
582.206	466.35
582.629	431.24
583.052	550.61
583.474	440.61
583.897	527.21
584.32	517.84
584.742	473.37
585.165	382.09
585.587	435.92
586.009	538.91
586.431	459.33
586.854	555.29
587.276	428.9
587.698	475.71
588.12	452.31
588.542	464.01
588.964	435.92
589.386	489.76
589.807	414.86
590.229	464.01
590.651	396.14
591.073	461.67
591.494	435.92
591.916	435.92
592.337	456.99
592.759	440.61
593.18	464.01
593.601	349.32
594.022	489.76
594.444	442.95
594.865	431.24
595.286	335.28
595.707	403.16
596.128	459.33
596.549	379.75
596.97	449.97
597.39	344.64
597.811	435.92
598.232	389.11
598.652	428.9
599.073	449.97
599.494	372.73
599.914	428.9
600.334	513.16
600.755	400.82
601.175	431.24
601.595	433.58
602.015	424.22
602.436	372.73
602.856	452.31
603.276	426.56
603.696	421.88
604.115	361.03
604.535	368.05
604.955	370.39
605.375	447.63
605.794	445.29
606.214	438.27
606.634	375.07
607.053	382.09
607.473	452.31
607.892	456.99
608.311	452.31
608.731	482.74
609.15	466.35
609.569	581.04
609.988	662.96
610.407	777.64
610.826	779.98
611.245	864.24
611.664	758.92
612.083	728.49
612.501	665.3
612.92	665.3
613.339	618.49
613.757	524.87
614.176	480.39
614.594	510.82
615.013	496.78
615.431	492.1
615.85	328.26
616.268	454.65
616.686	461.67
617.104	412.52
617.522	461.67
617.94	449.97
618.358	485.08
618.776	417.2
619.194	407.84
619.612	365.71
620.03	407.84
620.447	368.05
620.865	447.63
621.282	405.5
621.7	426.56
622.117	391.45
622.535	412.52
622.952	382.09
623.369	407.84
623.787	508.48
624.204	456.99
624.621	421.88
625.038	358.69
625.455	461.67
625.872	431.24
626.289	391.45
626.706	459.33
627.123	398.48
627.539	403.16
627.956	403.16
628.373	377.41
628.789	337.62
629.206	428.9
629.622	403.16
630.038	459.33
630.455	403.16
630.871	431.24
631.287	410.18
631.703	361.03
632.12	361.03
632.536	398.48
632.952	379.75
633.368	363.37
633.783	405.5
634.199	344.64
634.615	339.96
635.031	466.35
635.446	321.24
635.862	332.94
636.277	339.96
636.693	365.71
637.108	344.64
637.524	328.26
637.939	400.82
638.354	412.52
638.77	370.39
639.185	335.28
639.6	393.8
640.015	363.37
640.43	375.07
640.845	368.05
641.259	330.6
641.674	351.67
642.089	344.64
642.504	276.77
642.918	290.81
643.333	389.11
643.747	339.96
644.162	433.58
644.576	274.43
644.991	403.16
645.405	321.24
645.819	342.3
646.233	342.3
646.647	342.3
647.061	393.8
647.475	328.26
647.889	349.32
648.303	335.28
648.717	391.45
649.131	323.58
649.545	309.54
649.958	407.84
650.372	386.77
650.785	321.24
651.199	396.14
651.612	309.54
652.026	396.14
652.439	370.39
652.852	356.35
653.266	332.94
653.679	337.62
654.092	332.94
654.505	428.9
654.918	356.35
655.331	424.22
655.744	375.07
656.156	330.6
656.569	414.86
656.982	300.17
657.394	328.26
657.807	328.26
658.22	365.71
658.632	393.8
659.044	342.3
659.457	356.35
659.869	332.94
660.281	328.26
660.693	304.85
661.106	316.56
661.518	346.98
661.93	335.28
662.342	309.54
662.754	321.24
663.165	339.96
663.577	398.48
663.989	316.56
664.401	346.98
664.812	356.35
665.224	332.94
665.635	344.64
666.047	269.75
666.458	342.3
666.869	361.03
667.281	344.64
667.692	372.73
668.103	311.88
668.514	325.92
668.925	358.69
669.336	311.88
669.747	339.96
670.158	304.85
670.569	307.2
670.979	342.3
671.39	337.62
671.801	304.85
672.211	339.96
672.622	349.32
673.032	283.79
673.443	314.22
673.853	330.6
674.263	314.22
674.674	356.35
675.084	290.81
675.494	251.02
675.904	361.03
676.314	363.37
676.724	370.39
677.134	384.43
677.544	316.56
677.953	368.05
678.363	382.09
678.773	358.69
679.182	365.71
679.592	330.6
680.001	337.62
680.411	321.24
680.82	389.11
681.23	375.07
681.639	304.85
682.048	281.45
682.457	365.71
682.866	316.56
683.275	356.35
683.684	293.15
684.093	323.58
684.502	370.39
684.911	265.07
685.32	337.62
685.728	295.49
686.137	377.41
686.546	391.45
686.954	356.35
687.363	393.8
687.771	274.43
688.179	295.49
688.588	405.5
688.996	370.39
689.404	276.77
689.812	365.71
690.22	251.02
690.628	375.07
691.036	265.07
691.444	316.56
691.852	342.3
692.26	363.37
692.667	407.84
693.075	314.22
693.483	330.6
693.89	288.47
694.298	293.15
694.705	316.56
695.112	307.2
695.52	309.54
695.927	311.88
696.334	342.3
696.741	311.88
697.148	330.6
697.555	304.85
697.962	337.62
698.369	354.01
698.776	389.11
699.183	276.77
699.59	339.96
699.996	286.13
700.403	307.2
700.81	321.24
701.216	283.79
701.623	304.85
702.029	335.28
702.435	265.07
702.842	323.58
703.248	244
703.654	321.24
704.06	363.37
704.466	379.75
704.872	321.24
705.278	389.11
705.684	286.13
706.09	382.09
706.496	335.28
706.901	379.75
707.307	405.5
707.712	372.73
708.118	339.96
708.523	274.43
708.929	363.37
709.334	323.58
709.74	382.09
710.145	365.71
710.55	361.03
710.955	368.05
711.36	382.09
711.765	344.64
712.17	318.9
712.575	335.28
712.98	922.76
713.385	368.05
713.789	316.56
714.194	295.49
714.599	344.64
715.003	302.51
715.408	295.49
715.812	372.73
716.217	302.51
716.621	372.73
717.025	384.43
717.429	297.83
717.833	325.92
718.238	337.62
718.642	377.41
719.046	281.45
719.449	363.37
719.853	311.88
720.257	328.26
720.661	295.49
721.065	304.85
721.468	316.56
721.872	361.03
722.275	314.22
722.679	279.11
723.082	335.28
723.485	377.41
723.889	330.6
724.292	382.09
724.695	363.37
725.098	307.2
725.501	342.3
725.904	300.17
726.307	377.41
726.71	288.47
727.113	354.01
727.516	339.96
727.918	346.98
728.321	244
728.724	363.37
729.126	335.28
729.529	314.22
729.931	375.07
730.333	328.26
730.736	363.37
731.138	325.92
731.54	325.92
731.942	351.67
732.344	337.62
732.746	396.14
733.148	269.75
733.55	339.96
733.952	349.32
734.354	314.22
734.756	403.16
735.157	330.6
735.559	332.94
735.96	281.45
736.362	325.92
736.763	365.71
737.165	346.98
737.566	330.6
737.967	290.81
738.368	321.24
738.77	365.71
739.171	300.17
739.572	295.49
739.973	318.9
740.374	300.17
740.774	295.49
741.175	309.54
741.576	274.43
741.977	342.3
742.377	323.58
742.778	307.2
743.178	304.85
743.579	351.67
743.979	354.01
744.379	297.83
744.78	363.37
745.18	330.6
745.58	368.05
745.98	335.28
746.38	293.15
746.78	325.92
747.18	351.67
747.58	351.67
747.98	316.56
748.38	328.26
748.779	372.73
749.179	307.2
749.578	325.92
749.978	363.37
750.377	342.3
750.777	335.28
751.176	349.32
751.575	302.51
751.975	372.73
752.374	297.83
752.773	335.28
753.172	314.22
753.571	323.58
753.97	311.88
754.369	396.14
754.768	372.73
755.166	363.37
755.565	283.79
755.964	295.49
756.362	262.73
756.761	335.28
757.159	349.32
757.558	351.67
757.956	325.92
758.354	346.98
758.753	316.56
759.151	314.22
759.549	307.2
759.947	339.96
760.345	384.43
760.743	335.28
761.141	283.79
761.539	311.88
761.936	323.58
762.334	342.3
762.732	302.51
763.129	281.45
763.527	276.77
763.924	368.05
764.322	335.28
764.719	351.67
765.117	290.81
