Data from Al_FLMS009871__284__12-22-30-844.txt Node

Date: Fri Mar 08 12:22:30 CST 2024
User: pe5414po
Spectrometer: FLMS00987
Trigger mode: 0
Integration Time (sec): 1.000000E-1
Scans to average: 1
Electric dark correction enabled: true
Nonlinearity correction enabled: false
Boxcar width: 0
XAxis mode: Wavelengths
Number of Pixels in Spectrum: 2048
>>>>>Begin Spectral Data<<<<<
188.938	-33.65
189.409	-33.65
189.879	-33.65
190.349	-75.77
190.819	-71.09
191.29	-120.25
191.76	-110.88
192.23	-87.48
192.7	-141.31
193.17	-50.03
193.64	-26.62
194.109	-35.99
194.579	31.89
195.049	22.53
195.519	17.85
195.988	34.23
196.458	71.68
196.927	118.49
197.397	109.13
197.866	130.19
198.336	36.57
198.805	186.37
199.274	172.32
199.744	116.15
200.213	237.86
200.682	209.77
201.151	308.07
201.62	296.37
202.089	263.6
202.558	272.96
203.027	198.07
203.495	247.22
203.964	303.39
204.433	272.96
204.902	301.05
205.37	305.73
205.839	357.22
206.307	291.69
206.776	291.69
207.244	296.37
207.712	373.61
208.181	315.09
208.649	305.73
209.117	305.73
209.585	359.56
210.053	303.39
210.521	340.84
210.989	317.44
211.457	275.31
211.925	282.33
212.393	268.28
212.861	291.69
213.328	303.39
213.796	268.28
214.264	240.2
214.731	326.8
215.199	333.82
215.666	347.86
216.133	298.71
216.601	298.71
217.068	275.31
217.535	265.94
218.003	301.05
218.47	256.58
218.937	214.45
219.404	268.28
219.871	301.05
220.338	272.96
220.805	235.52
221.271	284.67
221.738	308.07
222.205	249.56
222.671	249.56
223.138	212.11
223.605	230.84
224.071	270.62
224.538	303.39
225.004	237.86
225.47	261.26
225.937	303.39
226.403	261.26
226.869	324.46
227.335	258.92
227.801	275.31
228.267	254.24
228.733	308.07
229.199	322.12
229.665	275.31
230.131	305.73
230.597	310.41
231.062	256.58
231.528	240.2
231.994	291.69
232.459	312.75
232.925	254.24
233.39	249.56
233.856	289.35
234.321	249.56
234.786	338.5
235.252	301.05
235.717	270.62
236.182	298.71
236.647	322.12
237.112	305.73
237.577	254.24
238.042	294.03
238.507	265.94
238.972	277.65
239.436	251.9
239.901	324.46
240.366	258.92
240.83	268.28
241.295	317.44
241.76	261.26
242.224	317.44
242.688	251.9
243.153	350.2
243.617	303.39
244.081	275.31
244.545	256.58
245.01	284.67
245.474	263.6
245.938	287.01
246.402	310.41
246.866	305.73
247.33	315.09
247.793	310.41
248.257	317.44
248.721	254.24
249.185	294.03
249.648	256.58
250.112	235.52
250.575	233.18
251.039	212.11
251.502	287.01
251.965	249.56
252.429	258.92
252.892	345.52
253.355	294.03
253.818	312.75
254.281	284.67
254.744	289.35
255.207	289.35
255.67	305.73
256.133	329.14
256.596	296.37
257.059	228.49
257.522	317.44
257.984	270.62
258.447	258.92
258.909	256.58
259.372	221.47
259.834	303.39
260.297	336.16
260.759	219.13
261.221	301.05
261.684	331.48
262.146	287.01
262.608	298.71
263.07	352.54
263.532	282.33
263.994	291.69
264.456	397.01
264.918	303.39
265.38	284.67
265.842	310.41
266.303	282.33
266.765	277.65
267.227	301.05
267.688	301.05
268.15	305.73
268.611	235.52
269.072	247.22
269.534	277.65
269.995	319.78
270.456	322.12
270.918	235.52
271.379	333.82
271.84	294.03
272.301	254.24
272.762	291.69
273.223	244.88
273.684	256.58
274.144	301.05
274.605	263.6
275.066	287.01
275.527	333.82
275.987	287.01
276.448	305.73
276.908	301.05
277.369	317.44
277.829	242.54
278.289	289.35
278.75	317.44
279.21	324.46
279.67	289.35
280.13	242.54
280.59	270.62
281.05	312.75
281.51	284.67
281.97	270.62
282.43	261.26
282.89	294.03
283.35	287.01
283.809	268.28
284.269	251.9
284.729	251.9
285.188	301.05
285.648	312.75
286.107	247.22
286.567	317.44
287.026	275.31
287.485	221.47
287.944	305.73
288.404	272.96
288.863	261.26
289.322	333.82
289.781	261.26
290.24	326.8
290.699	268.28
291.158	294.03
291.616	303.39
292.075	364.25
292.534	294.03
292.992	345.52
293.451	277.65
293.91	305.73
294.368	312.75
294.827	315.09
295.285	303.39
295.743	331.48
296.202	275.31
296.66	310.41
297.118	326.8
297.576	272.96
298.034	277.65
298.492	343.18
298.95	380.63
299.408	326.8
299.866	338.5
300.324	345.52
300.781	345.52
301.239	340.84
301.697	275.31
302.154	315.09
302.612	289.35
303.069	275.31
303.527	277.65
303.984	235.52
304.441	303.39
304.899	308.07
305.356	338.5
305.813	279.99
306.27	291.69
306.727	268.28
307.184	322.12
307.641	324.46
308.098	294.03
308.555	324.46
309.012	265.94
309.468	324.46
309.925	350.2
310.382	305.73
310.838	317.44
311.295	240.2
311.751	284.67
312.208	389.99
312.664	284.67
313.12	308.07
313.577	336.16
314.033	319.78
314.489	279.99
314.945	287.01
315.401	223.81
315.857	331.48
316.313	254.24
316.769	303.39
317.225	312.75
317.681	350.2
318.136	235.52
318.592	235.52
319.048	216.79
319.503	347.86
319.959	301.05
320.414	263.6
320.869	324.46
321.325	319.78
321.78	366.59
322.235	333.82
322.691	338.5
323.146	387.65
323.601	287.01
324.056	380.63
324.511	289.35
324.966	258.92
325.421	310.41
325.875	275.31
326.33	284.67
326.785	256.58
327.24	279.99
327.694	268.28
328.149	361.91
328.603	361.91
329.058	315.09
329.512	345.52
329.966	326.8
330.421	326.8
330.875	331.48
331.329	336.16
331.783	326.8
332.237	364.25
332.691	336.16
333.145	324.46
333.599	345.52
334.053	256.58
334.507	303.39
334.96	336.16
335.414	331.48
335.868	378.29
336.321	319.78
336.775	277.65
337.228	331.48
337.682	291.69
338.135	319.78
338.588	287.01
339.042	270.62
339.495	315.09
339.948	287.01
340.401	333.82
340.854	359.56
341.307	345.52
341.76	326.8
342.213	340.84
342.666	336.16
343.119	380.63
343.571	298.71
344.024	312.75
344.477	338.5
344.929	354.88
345.382	308.07
345.834	242.54
346.287	310.41
346.739	301.05
347.191	261.26
347.644	289.35
348.096	350.2
348.548	291.69
349	244.88
349.452	331.48
349.904	345.52
350.356	371.27
350.808	319.78
351.26	324.46
351.711	249.56
352.163	364.25
352.615	251.9
353.066	324.46
353.518	303.39
353.969	303.39
354.421	331.48
354.872	364.25
355.324	350.2
355.775	282.33
356.226	272.96
356.677	291.69
357.128	326.8
357.579	282.33
358.03	324.46
358.481	319.78
358.932	254.24
359.383	354.88
359.834	394.67
360.285	303.39
360.735	352.54
361.186	361.91
361.637	289.35
362.087	291.69
362.538	343.18
362.988	298.71
363.438	294.03
363.889	284.67
364.339	338.5
364.789	294.03
365.239	261.26
365.689	315.09
366.139	329.14
366.589	324.46
367.039	366.59
367.489	317.44
367.939	303.39
368.389	385.31
368.839	279.99
369.288	305.73
369.738	392.33
370.187	399.35
370.637	296.37
371.086	350.2
371.536	359.56
371.985	340.84
372.434	345.52
372.884	336.16
373.333	296.37
373.782	329.14
374.231	310.41
374.68	345.52
375.129	340.84
375.578	312.75
376.027	352.54
376.475	333.82
376.924	312.75
377.373	282.33
377.822	319.78
378.27	326.8
378.719	326.8
379.167	291.69
379.616	357.22
380.064	399.35
380.512	298.71
380.961	256.58
381.409	319.78
381.857	357.22
382.305	322.12
382.753	350.2
383.201	319.78
383.649	347.86
384.097	338.5
384.545	343.18
384.992	324.46
385.44	296.37
385.888	305.73
386.335	282.33
386.783	326.8
387.231	284.67
387.678	368.93
388.125	265.94
388.573	301.05
389.02	308.07
389.467	291.69
389.914	277.65
390.362	329.14
390.809	296.37
391.256	294.03
391.703	329.14
392.15	382.97
392.596	315.09
393.043	364.25
393.49	296.37
393.937	287.01
394.383	340.84
394.83	294.03
395.276	350.2
395.723	354.88
396.169	284.67
396.616	324.46
397.062	301.05
397.508	287.01
397.954	247.22
398.401	361.91
398.847	303.39
399.293	324.46
399.739	312.75
400.185	357.22
400.631	378.29
401.076	338.5
401.522	382.97
401.968	324.46
402.414	301.05
402.859	357.22
403.305	287.01
403.75	392.33
404.196	378.29
404.641	394.67
405.086	366.59
405.532	331.48
405.977	298.71
406.422	329.14
406.867	347.86
407.312	366.59
407.757	291.69
408.202	350.2
408.647	272.96
409.092	291.69
409.537	319.78
409.982	371.27
410.426	338.5
410.871	352.54
411.316	263.6
411.76	319.78
412.205	345.52
412.649	319.78
413.093	326.8
413.538	347.86
413.982	361.91
414.426	322.12
414.87	366.59
415.314	336.16
415.758	338.5
416.202	382.97
416.646	352.54
417.09	338.5
417.534	298.71
417.978	296.37
418.421	401.69
418.865	308.07
419.309	389.99
419.752	331.48
420.196	326.8
420.639	359.56
421.083	359.56
421.526	364.25
421.969	333.82
422.412	336.16
422.856	310.41
423.299	263.6
423.742	368.93
424.185	368.93
424.628	373.61
425.071	380.63
425.513	399.35
425.956	375.95
426.399	380.63
426.842	401.69
427.284	420.42
427.727	392.33
428.169	394.67
428.612	354.88
429.054	345.52
429.497	359.56
429.939	411.06
430.381	357.22
430.823	364.25
431.265	439.14
431.707	450.85
432.149	462.55
432.591	394.67
433.033	406.38
433.475	425.1
433.917	399.35
434.359	497.66
434.8	497.66
435.242	563.19
435.684	544.47
436.125	495.32
436.567	502.34
437.008	478.93
437.449	436.8
437.891	450.85
438.332	504.68
438.773	429.78
439.214	446.16
439.656	523.4
440.097	497.66
440.538	518.72
440.978	523.4
441.419	514.04
441.86	518.72
442.301	488.29
442.742	539.79
443.182	495.32
443.623	518.72
444.063	502.34
444.504	577.23
444.944	509.36
445.385	504.68
445.825	600.64
446.265	462.55
446.706	551.49
447.146	539.79
447.586	528.08
448.026	516.38
448.466	530.42
448.906	565.53
449.346	542.13
449.786	478.93
450.225	572.55
450.665	532.76
451.105	600.64
451.544	504.68
451.984	516.38
452.424	483.61
452.863	528.08
453.302	521.06
453.742	457.87
454.181	464.89
454.62	495.32
455.059	483.61
455.499	453.19
455.938	448.51
456.377	448.51
456.816	434.46
457.254	457.87
457.693	469.57
458.132	401.69
458.571	485.95
459.01	488.29
459.448	434.46
459.887	418.08
460.325	495.32
460.764	420.42
461.202	488.29
461.641	432.12
462.079	387.65
462.517	415.74
462.955	406.38
463.393	436.8
463.832	460.21
464.27	371.27
464.708	371.27
465.145	404.03
465.583	429.78
466.021	418.08
466.459	392.33
466.897	401.69
467.334	366.59
467.772	387.65
468.209	392.33
468.647	448.51
469.084	434.46
469.522	408.72
469.959	394.67
470.396	406.38
470.833	406.38
471.271	422.76
471.708	378.29
472.145	474.25
472.582	371.27
473.019	432.12
473.456	361.91
473.892	404.03
474.329	373.61
474.766	345.52
475.202	455.53
475.639	364.25
476.076	441.48
476.512	382.97
476.949	397.01
477.385	434.46
477.821	411.06
478.258	394.67
478.694	401.69
479.13	389.99
479.566	404.03
480.002	373.61
480.438	478.93
480.874	401.69
481.31	373.61
481.746	347.86
482.181	340.84
482.617	380.63
483.053	439.14
483.488	462.55
483.924	357.22
484.36	418.08
484.795	378.29
485.23	382.97
485.666	422.76
486.101	464.89
486.536	378.29
486.971	333.82
487.407	336.16
487.842	455.53
488.277	453.19
488.712	483.61
489.146	420.42
489.581	448.51
490.016	434.46
490.451	432.12
490.885	420.42
491.32	467.23
491.755	387.65
492.189	399.35
492.624	450.85
493.058	411.06
493.492	350.2
493.927	464.89
494.361	354.88
494.795	432.12
495.229	415.74
495.663	450.85
496.097	425.1
496.531	406.38
496.965	436.8
497.399	488.29
497.833	385.31
498.266	521.06
498.7	408.72
499.134	387.65
499.567	432.12
500.001	413.4
500.434	401.69
500.868	415.74
501.301	455.53
501.734	418.08
502.168	385.31
502.601	331.48
503.034	404.03
503.467	378.29
503.9	448.51
504.333	380.63
504.766	460.21
505.199	450.85
505.632	427.44
506.064	373.61
506.497	443.82
506.93	352.54
507.362	427.44
507.795	429.78
508.227	359.56
508.66	418.08
509.092	387.65
509.524	415.74
509.956	397.01
510.389	427.44
510.821	453.19
511.253	418.08
511.685	446.16
512.117	404.03
512.549	434.46
512.981	408.72
513.412	378.29
513.844	359.56
514.276	455.53
514.707	478.93
515.139	429.78
515.571	394.67
516.002	436.8
516.433	411.06
516.865	474.25
517.296	434.46
517.727	460.21
518.159	439.14
518.59	415.74
519.021	457.87
519.452	385.31
519.883	422.76
520.314	411.06
520.744	441.48
521.175	439.14
521.606	418.08
522.037	469.57
522.467	382.97
522.898	427.44
523.328	401.69
523.759	439.14
524.189	455.53
524.62	453.19
525.05	471.91
525.48	443.82
525.91	495.32
526.341	425.1
526.771	385.31
527.201	394.67
527.631	502.34
528.061	439.14
528.49	375.95
528.92	460.21
529.35	492.98
529.78	411.06
530.209	429.78
530.639	441.48
531.068	399.35
531.498	411.06
531.927	514.04
532.357	504.68
532.786	441.48
533.215	448.51
533.644	411.06
534.074	443.82
534.503	415.74
534.932	544.47
535.361	509.36
535.79	457.87
536.218	455.53
536.647	404.03
537.076	497.66
537.505	478.93
537.933	523.4
538.362	481.27
538.79	427.44
539.219	535.1
539.647	525.74
540.076	471.91
540.504	521.06
540.932	701.28
541.36	581.92
541.788	680.22
542.217	741.07
542.645	804.27
543.073	682.56
543.5	698.94
543.928	743.41
544.356	769.16
544.784	729.37
545.211	752.77
545.639	715.33
546.067	661.49
546.494	647.45
546.922	602.98
547.349	666.17
547.776	511.7
548.204	584.26
548.631	507.02
549.058	474.25
549.485	497.66
549.912	490.63
550.339	553.83
550.766	558.51
551.193	551.49
551.62	516.38
552.047	469.57
552.474	511.7
552.9	481.27
553.327	500
553.754	469.57
554.18	446.16
554.607	467.23
555.033	539.79
555.459	408.72
555.886	483.61
556.312	439.14
556.738	415.74
557.164	443.82
557.59	429.78
558.016	448.51
558.442	504.68
558.868	502.34
559.294	427.44
559.72	425.1
560.145	481.27
560.571	462.55
560.997	401.69
561.422	397.01
561.848	418.08
562.273	455.53
562.699	408.72
563.124	434.46
563.549	432.12
563.974	471.91
564.4	453.19
564.825	485.95
565.25	446.16
565.675	464.89
566.1	441.48
566.525	441.48
566.95	476.59
567.374	406.38
567.799	471.91
568.224	464.89
568.648	483.61
569.073	425.1
569.497	441.48
569.922	432.12
570.346	471.91
570.771	429.78
571.195	413.4
571.619	464.89
572.043	432.12
572.467	413.4
572.891	471.91
573.315	432.12
573.739	448.51
574.163	413.4
574.587	413.4
575.011	413.4
575.435	450.85
575.858	471.91
576.282	436.8
576.705	436.8
577.129	436.8
577.552	436.8
577.976	432.12
578.399	448.51
578.822	453.19
579.245	490.63
579.669	420.42
580.092	366.59
580.515	504.68
580.938	469.57
581.361	404.03
581.784	467.23
582.206	450.85
582.629	514.04
583.052	441.48
583.474	492.98
583.897	476.59
584.32	497.66
584.742	439.14
585.165	502.34
585.587	453.19
586.009	509.36
586.431	460.21
586.854	514.04
587.276	528.08
587.698	483.61
588.12	507.02
588.542	474.25
588.964	457.87
589.386	511.7
589.807	453.19
590.229	450.85
590.651	392.33
591.073	420.42
591.494	429.78
591.916	441.48
592.337	516.38
592.759	443.82
593.18	532.76
593.601	420.42
594.022	436.8
594.444	380.63
594.865	483.61
595.286	453.19
595.707	443.82
596.128	425.1
596.549	439.14
596.97	387.65
597.39	404.03
597.811	413.4
598.232	446.16
598.652	397.01
599.073	441.48
599.494	375.95
599.914	352.54
600.334	406.38
600.755	375.95
601.175	394.67
601.595	432.12
602.015	425.1
602.436	385.31
602.856	497.66
603.276	394.67
603.696	427.44
604.115	380.63
604.535	385.31
604.955	366.59
605.375	366.59
605.794	368.93
606.214	429.78
606.634	389.99
607.053	385.31
607.473	450.85
607.892	418.08
608.311	411.06
608.731	434.46
609.15	478.93
609.569	567.87
609.988	691.92
610.407	808.95
610.826	839.37
611.245	858.1
611.664	748.09
612.083	701.28
612.501	680.22
612.92	649.79
613.339	593.62
613.757	495.32
614.176	565.53
614.594	471.91
615.013	492.98
615.431	544.47
615.85	425.1
616.268	455.53
616.686	488.29
617.104	429.78
617.522	450.85
617.94	408.72
618.358	415.74
618.776	418.08
619.194	378.29
619.612	418.08
620.03	429.78
620.447	361.91
620.865	443.82
621.282	455.53
621.7	411.06
622.117	425.1
622.535	378.29
622.952	399.35
623.369	411.06
623.787	354.88
624.204	399.35
624.621	399.35
625.038	429.78
625.455	429.78
625.872	364.25
626.289	359.56
626.706	397.01
627.123	368.93
627.539	331.48
627.956	415.74
628.373	441.48
628.789	394.67
629.206	427.44
629.622	422.76
630.038	375.95
630.455	427.44
630.871	380.63
631.287	364.25
631.703	375.95
632.12	418.08
632.536	443.82
632.952	359.56
633.368	392.33
633.783	371.27
634.199	298.71
634.615	324.46
635.031	315.09
635.446	331.48
635.862	350.2
636.277	387.65
636.693	336.16
637.108	326.8
637.524	380.63
637.939	408.72
638.354	366.59
638.77	420.42
639.185	364.25
639.6	336.16
640.015	312.75
640.43	413.4
640.845	331.48
641.259	364.25
641.674	312.75
642.089	361.91
642.504	361.91
642.918	366.59
643.333	359.56
643.747	352.54
644.162	382.97
644.576	368.93
644.991	291.69
645.405	366.59
645.819	359.56
646.233	368.93
646.647	338.5
647.061	333.82
647.475	347.86
647.889	333.82
648.303	315.09
648.717	338.5
649.131	359.56
649.545	375.95
649.958	359.56
650.372	397.01
650.785	361.91
651.199	357.22
651.612	258.92
652.026	371.27
652.439	375.95
652.852	373.61
653.266	329.14
653.679	317.44
654.092	387.65
654.505	319.78
654.918	345.52
655.331	305.73
655.744	354.88
656.156	329.14
656.569	371.27
656.982	312.75
657.394	279.99
657.807	392.33
658.22	347.86
658.632	359.56
659.044	305.73
659.457	298.71
659.869	322.12
660.281	352.54
660.693	366.59
661.106	298.71
661.518	354.88
661.93	380.63
662.342	359.56
662.754	366.59
663.165	378.29
663.577	317.44
663.989	429.78
664.401	291.69
664.812	357.22
665.224	357.22
665.635	298.71
666.047	331.48
666.458	347.86
666.869	352.54
667.281	361.91
667.692	425.1
668.103	352.54
668.514	357.22
668.925	289.35
669.336	317.44
669.747	357.22
670.158	368.93
670.569	380.63
670.979	312.75
671.39	359.56
671.801	347.86
672.211	413.4
672.622	312.75
673.032	366.59
673.443	287.01
673.853	347.86
674.263	310.41
674.674	366.59
675.084	333.82
675.494	223.81
675.904	333.82
676.314	282.33
676.724	380.63
677.134	326.8
677.544	303.39
677.953	265.94
678.363	305.73
678.773	382.97
679.182	350.2
679.592	343.18
680.001	371.27
680.411	308.07
680.82	294.03
681.23	296.37
681.639	242.54
682.048	317.44
682.457	331.48
682.866	324.46
683.275	317.44
683.684	312.75
684.093	322.12
684.502	357.22
684.911	331.48
685.32	340.84
685.728	343.18
686.137	389.99
686.546	343.18
686.954	329.14
687.363	305.73
687.771	340.84
688.179	373.61
688.588	317.44
688.996	380.63
689.404	312.75
689.812	357.22
690.22	326.8
690.628	298.71
691.036	331.48
691.444	329.14
691.852	324.46
692.26	401.69
692.667	270.62
693.075	319.78
693.483	338.5
693.89	317.44
694.298	345.52
694.705	322.12
695.112	357.22
695.52	282.33
695.927	340.84
696.334	364.25
696.741	366.59
697.148	357.22
697.555	343.18
697.962	347.86
698.369	331.48
698.776	329.14
699.183	333.82
699.59	340.84
699.996	305.73
700.403	338.5
700.81	324.46
701.216	368.93
701.623	329.14
702.029	312.75
702.435	329.14
702.842	336.16
703.248	338.5
703.654	361.91
704.06	310.41
704.466	338.5
704.872	354.88
705.278	385.31
705.684	308.07
706.09	324.46
706.496	258.92
706.901	317.44
707.307	371.27
707.712	340.84
708.118	350.2
708.523	308.07
708.929	368.93
709.334	350.2
709.74	375.95
710.145	301.05
710.55	345.52
710.955	254.24
711.36	361.91
711.765	347.86
712.17	333.82
712.575	378.29
712.98	937.68
713.385	345.52
713.789	361.91
714.194	298.71
714.599	357.22
715.003	287.01
715.408	387.65
715.812	354.88
716.217	317.44
716.621	385.31
717.025	387.65
717.429	287.01
717.833	345.52
718.238	364.25
718.642	291.69
719.046	315.09
719.449	340.84
719.853	279.99
720.257	294.03
720.661	291.69
721.065	368.93
721.468	329.14
721.872	298.71
722.275	305.73
722.679	301.05
723.082	310.41
723.485	319.78
723.889	270.62
724.292	331.48
724.695	282.33
725.098	333.82
725.501	315.09
725.904	350.2
726.307	343.18
726.71	329.14
727.113	284.67
727.516	312.75
727.918	324.46
728.321	284.67
728.724	291.69
729.126	347.86
729.529	408.72
729.931	322.12
730.333	296.37
730.736	366.59
731.138	366.59
731.54	298.71
731.942	272.96
732.344	368.93
732.746	310.41
733.148	305.73
733.55	289.35
733.952	333.82
734.354	282.33
734.756	258.92
735.157	317.44
735.559	340.84
735.96	317.44
736.362	338.5
736.763	312.75
737.165	392.33
737.566	296.37
737.967	322.12
738.368	319.78
738.77	249.56
739.171	331.48
739.572	303.39
739.973	324.46
740.374	361.91
740.774	261.26
741.175	333.82
741.576	375.95
741.977	303.39
742.377	303.39
742.778	340.84
743.178	303.39
743.579	315.09
743.979	249.56
744.379	296.37
744.78	333.82
745.18	347.86
745.58	326.8
745.98	345.52
746.38	284.67
746.78	261.26
747.18	347.86
747.58	326.8
747.98	364.25
748.38	287.01
748.779	326.8
749.179	291.69
749.578	284.67
749.978	354.88
750.377	359.56
750.777	406.38
751.176	282.33
751.575	287.01
751.975	298.71
752.374	357.22
752.773	385.31
753.172	291.69
753.571	308.07
753.97	331.48
754.369	277.65
754.768	268.28
755.166	249.56
755.565	326.8
755.964	329.14
756.362	312.75
756.761	308.07
757.159	303.39
757.558	354.88
757.956	357.22
758.354	291.69
758.753	354.88
759.151	343.18
759.549	308.07
759.947	347.86
760.345	347.86
760.743	359.56
761.141	308.07
761.539	322.12
761.936	272.96
762.334	310.41
762.732	249.56
763.129	378.29
763.527	258.92
763.924	329.14
764.322	352.54
