Data from Al_FLMS009871__297__12-22-32-144.txt Node

Date: Fri Mar 08 12:22:32 CST 2024
User: pe5414po
Spectrometer: FLMS00987
Trigger mode: 0
Integration Time (sec): 1.000000E-1
Scans to average: 1
Electric dark correction enabled: true
Nonlinearity correction enabled: false
Boxcar width: 0
XAxis mode: Wavelengths
Number of Pixels in Spectrum: 2048
>>>>>Begin Spectral Data<<<<<
188.938	-48.71
189.409	-48.71
189.879	-48.71
190.349	-107.23
190.819	-104.89
191.29	-81.48
191.76	-88.5
192.23	-88.5
192.7	-62.76
193.17	-100.2
193.64	5.12
194.109	-44.03
194.579	-20.63
195.049	-13.6
195.519	42.57
195.988	96.4
196.458	0.44
196.927	110.44
197.397	21.5
197.866	110.44
198.336	112.78
198.805	150.23
199.274	129.17
199.744	183
200.213	180.66
200.682	145.55
201.151	262.58
201.62	260.24
202.089	269.6
202.558	248.54
203.027	269.6
203.495	290.67
203.964	325.77
204.433	260.24
204.902	255.56
205.37	278.96
205.839	356.2
206.307	302.37
206.776	311.73
207.244	285.98
207.712	278.96
208.181	309.39
208.649	271.94
209.117	304.71
209.585	297.69
210.053	274.28
210.521	257.9
210.989	239.17
211.457	302.37
211.925	339.82
212.393	295.35
212.861	311.73
213.328	269.6
213.796	290.67
214.264	285.98
214.731	297.69
215.199	276.62
215.666	194.7
216.133	281.3
216.601	297.69
217.068	255.56
217.535	302.37
218.003	321.09
218.47	314.07
218.937	255.56
219.404	267.26
219.871	271.94
220.338	276.62
220.805	288.32
221.271	257.9
221.738	297.69
222.205	281.3
222.671	260.24
223.138	288.32
223.605	274.28
224.071	255.56
224.538	281.3
225.004	278.96
225.47	264.92
225.937	248.54
226.403	290.67
226.869	323.43
227.335	246.2
227.801	304.71
228.267	311.73
228.733	281.3
229.199	288.32
229.665	300.03
230.131	255.56
230.597	271.94
231.062	267.26
231.528	302.37
231.994	332.79
232.459	271.94
232.925	323.43
233.39	288.32
233.856	304.71
234.321	283.64
234.786	318.75
235.252	255.56
235.717	372.58
236.182	386.63
236.647	328.11
237.112	356.2
237.577	346.84
238.042	283.64
238.507	337.48
238.972	323.43
239.436	267.26
239.901	276.62
240.366	323.43
240.83	309.39
241.295	227.47
241.76	307.05
242.224	293.01
242.688	293.01
243.153	318.75
243.617	285.98
244.081	274.28
244.545	281.3
245.01	290.67
245.474	393.65
245.938	274.28
246.402	257.9
246.866	351.52
247.33	300.03
247.793	332.79
248.257	332.79
248.721	307.05
249.185	227.47
249.648	309.39
250.112	264.92
250.575	316.41
251.039	330.45
251.502	281.3
251.965	314.07
252.429	229.81
252.892	325.77
253.355	290.67
253.818	328.11
254.281	307.05
254.744	381.95
255.207	321.09
255.67	323.43
256.133	276.62
256.596	302.37
257.059	311.73
257.522	332.79
257.984	250.88
258.447	335.14
258.909	346.84
259.372	328.11
259.834	311.73
260.297	274.28
260.759	321.09
261.221	304.71
261.684	267.26
262.146	285.98
262.608	234.49
263.07	271.94
263.532	321.09
263.994	283.64
264.456	278.96
264.918	300.03
265.38	285.98
265.842	229.81
266.303	257.9
266.765	344.5
267.227	253.22
267.688	297.69
268.15	321.09
268.611	321.09
269.072	321.09
269.534	290.67
269.995	321.09
270.456	323.43
270.918	295.35
271.379	309.39
271.84	262.58
272.301	300.03
272.762	264.92
273.223	264.92
273.684	356.2
274.144	304.71
274.605	346.84
275.066	314.07
275.527	337.48
275.987	276.62
276.448	339.82
276.908	276.62
277.369	293.01
277.829	304.71
278.289	283.64
278.75	276.62
279.21	293.01
279.67	257.9
280.13	278.96
280.59	300.03
281.05	302.37
281.51	304.71
281.97	358.54
282.43	367.9
282.89	276.62
283.35	370.24
283.809	297.69
284.269	328.11
284.729	285.98
285.188	367.9
285.648	302.37
286.107	274.28
286.567	384.29
287.026	302.37
287.485	346.84
287.944	318.75
288.404	290.67
288.863	300.03
289.322	346.84
289.781	328.11
290.24	285.98
290.699	370.24
291.158	318.75
291.616	314.07
292.075	304.71
292.534	288.32
292.992	297.69
293.451	281.3
293.91	321.09
294.368	330.45
294.827	344.5
295.285	330.45
295.743	304.71
296.202	309.39
296.66	314.07
297.118	288.32
297.576	285.98
298.034	316.41
298.492	239.17
298.95	260.24
299.408	316.41
299.866	241.51
300.324	302.37
300.781	321.09
301.239	335.14
301.697	288.32
302.154	307.05
302.612	356.2
303.069	323.43
303.527	293.01
303.984	386.63
304.441	321.09
304.899	290.67
305.356	325.77
305.813	309.39
306.27	393.65
306.727	253.22
307.184	267.26
307.641	302.37
308.098	323.43
308.555	332.79
309.012	267.26
309.468	307.05
309.925	360.88
310.382	311.73
310.838	330.45
311.295	372.58
311.751	367.9
312.208	293.01
312.664	318.75
313.12	304.71
313.577	377.27
314.033	370.24
314.489	318.75
314.945	304.71
315.401	349.18
315.857	304.71
316.313	278.96
316.769	337.48
317.225	293.01
317.681	342.16
318.136	358.54
318.592	344.5
319.048	309.39
319.503	332.79
319.959	353.86
320.414	328.11
320.869	339.82
321.325	304.71
321.78	307.05
322.235	325.77
322.691	346.84
323.146	356.2
323.601	316.41
324.056	255.56
324.511	246.2
324.966	328.11
325.421	262.58
325.875	349.18
326.33	351.52
326.785	351.52
327.24	318.75
327.694	342.16
328.149	332.79
328.603	274.28
329.058	358.54
329.512	318.75
329.966	335.14
330.421	316.41
330.875	290.67
331.329	314.07
331.783	403.01
332.237	358.54
332.691	274.28
333.145	290.67
333.599	335.14
334.053	314.07
334.507	304.71
334.96	328.11
335.414	379.61
335.868	297.69
336.321	302.37
336.775	358.54
337.228	360.88
337.682	297.69
338.135	363.22
338.588	351.52
339.042	318.75
339.495	395.99
339.948	358.54
340.401	349.18
340.854	344.5
341.307	304.71
341.76	300.03
342.213	295.35
342.666	365.56
343.119	381.95
343.571	321.09
344.024	281.3
344.477	358.54
344.929	318.75
345.382	307.05
345.834	295.35
346.287	323.43
346.739	328.11
347.191	323.43
347.644	358.54
348.096	330.45
348.548	391.31
349	365.56
349.452	339.82
349.904	337.48
350.356	239.17
350.808	339.82
351.26	309.39
351.711	342.16
352.163	332.79
352.615	349.18
353.066	281.3
353.518	300.03
353.969	353.86
354.421	330.45
354.872	285.98
355.324	337.48
355.775	290.67
356.226	330.45
356.677	374.92
357.128	288.32
357.579	271.94
358.03	295.35
358.481	351.52
358.932	285.98
359.383	353.86
359.834	328.11
360.285	358.54
360.735	278.96
361.186	344.5
361.637	269.6
362.087	403.01
362.538	323.43
362.988	311.73
363.438	330.45
363.889	339.82
364.339	342.16
364.789	377.27
365.239	403.01
365.689	388.97
366.139	337.48
366.589	316.41
367.039	346.84
367.489	323.43
367.939	339.82
368.389	314.07
368.839	367.9
369.288	332.79
369.738	405.35
370.187	384.29
370.637	278.96
371.086	243.85
371.536	339.82
371.985	300.03
372.434	314.07
372.884	264.92
373.333	323.43
373.782	346.84
374.231	374.92
374.68	335.14
375.129	360.88
375.578	325.77
376.027	370.24
376.475	300.03
376.924	367.9
377.373	236.83
377.822	283.64
378.27	274.28
378.719	346.84
379.167	328.11
379.616	356.2
380.064	342.16
380.512	435.78
380.961	351.52
381.409	248.54
381.857	309.39
382.305	321.09
382.753	316.41
383.201	293.01
383.649	339.82
384.097	351.52
384.545	314.07
384.992	367.9
385.44	318.75
385.888	267.26
386.335	321.09
386.783	302.37
387.231	337.48
387.678	407.69
388.125	353.86
388.573	295.35
389.02	295.35
389.467	332.79
389.914	339.82
390.362	414.71
390.809	293.01
391.256	400.67
391.703	349.18
392.15	337.48
392.596	370.24
393.043	267.26
393.49	307.05
393.937	379.61
394.383	356.2
394.83	363.22
395.276	293.01
395.723	353.86
396.169	316.41
396.616	257.9
397.062	349.18
397.508	337.48
397.954	349.18
398.401	349.18
398.847	269.6
399.293	304.71
399.739	234.49
400.185	356.2
400.631	346.84
401.076	339.82
401.522	307.05
401.968	276.62
402.414	323.43
402.859	328.11
403.305	281.3
403.75	316.41
404.196	274.28
404.641	400.67
405.086	365.56
405.532	318.75
405.977	325.77
406.422	281.3
406.867	386.63
407.312	290.67
407.757	318.75
408.202	325.77
408.647	356.2
409.092	337.48
409.537	295.35
409.982	318.75
410.426	311.73
410.871	360.88
411.316	356.2
411.76	377.27
412.205	356.2
412.649	328.11
413.093	311.73
413.538	285.98
413.982	332.79
414.426	309.39
414.87	384.29
415.314	351.52
415.758	391.31
416.202	400.67
416.646	351.52
417.09	449.82
417.534	353.86
417.978	274.28
418.421	325.77
418.865	381.95
419.309	351.52
419.752	419.39
420.196	379.61
420.639	344.5
421.083	353.86
421.526	363.22
421.969	339.82
422.412	381.95
422.856	344.5
423.299	377.27
423.742	367.9
424.185	351.52
424.628	302.37
425.071	419.39
425.513	384.29
425.956	374.92
426.399	400.67
426.842	412.37
427.284	344.5
427.727	449.82
428.169	384.29
428.612	353.86
429.054	365.56
429.497	400.67
429.939	417.05
430.381	351.52
430.823	410.03
431.265	379.61
431.707	442.8
432.149	484.93
432.591	400.67
433.033	447.48
433.475	424.08
433.917	482.59
434.359	513.02
434.8	536.42
435.242	592.59
435.684	548.12
436.125	531.74
436.567	484.93
437.008	431.1
437.449	459.18
437.891	522.38
438.332	456.84
438.773	475.57
439.214	534.08
439.656	501.31
440.097	489.61
440.538	513.02
440.978	484.93
441.419	487.27
441.86	503.65
442.301	491.95
442.742	545.78
443.182	601.96
443.623	585.57
444.063	559.83
444.504	597.28
444.944	562.17
445.385	557.49
445.825	592.59
446.265	517.7
446.706	555.15
447.146	534.08
447.586	550.46
448.026	524.72
448.466	552.81
448.906	552.81
449.346	548.12
449.786	583.23
450.225	534.08
450.665	501.31
451.105	491.95
451.544	550.46
451.984	473.23
452.424	566.85
452.863	470.89
453.302	466.21
453.742	470.89
454.181	470.89
454.62	498.97
455.059	538.76
455.499	470.89
455.938	417.05
456.377	496.63
456.816	454.5
457.254	489.61
457.693	435.78
458.132	475.57
458.571	393.65
459.01	442.8
459.448	435.78
459.887	456.84
460.325	475.57
460.764	365.56
461.202	393.65
461.641	438.12
462.079	400.67
462.517	414.71
462.955	417.05
463.393	449.82
463.832	428.76
464.27	367.9
464.708	393.65
465.145	419.39
465.583	421.74
466.021	414.71
466.459	449.82
466.897	421.74
467.334	461.52
467.772	388.97
468.209	473.23
468.647	374.92
469.084	473.23
469.522	421.74
469.959	442.8
470.396	433.44
470.833	431.1
471.271	475.57
471.708	393.65
472.145	454.5
472.582	388.97
473.019	374.92
473.456	386.63
473.892	421.74
474.329	419.39
474.766	372.58
475.202	426.42
475.639	342.16
476.076	412.37
476.512	391.31
476.949	400.67
477.385	414.71
477.821	405.35
478.258	370.24
478.694	335.14
479.13	405.35
479.566	435.78
480.002	487.27
480.438	400.67
480.874	386.63
481.31	388.97
481.746	461.52
482.181	379.61
482.617	438.12
483.053	337.48
483.488	405.35
483.924	440.46
484.36	405.35
484.795	442.8
485.23	426.42
485.666	440.46
486.101	445.14
486.536	473.23
486.971	501.31
487.407	424.08
487.842	491.95
488.277	470.89
488.712	503.65
489.146	456.84
489.581	374.92
490.016	405.35
490.451	468.55
490.885	470.89
491.32	433.44
491.755	496.63
492.189	417.05
492.624	463.86
493.058	477.91
493.492	374.92
493.927	482.59
494.361	466.21
494.795	433.44
495.229	435.78
495.663	421.74
496.097	447.48
496.531	442.8
496.965	412.37
497.399	381.95
497.833	421.74
498.266	358.54
498.7	454.5
499.134	426.42
499.567	386.63
500.001	412.37
500.434	407.69
500.868	438.12
501.301	484.93
501.734	384.29
502.168	477.91
502.601	410.03
503.034	414.71
503.467	419.39
503.9	412.37
504.333	426.42
504.766	428.76
505.199	440.46
505.632	489.61
506.064	449.82
506.497	372.58
506.93	419.39
507.362	417.05
507.795	417.05
508.227	435.78
508.66	424.08
509.092	447.48
509.524	498.97
509.956	419.39
510.389	452.16
510.821	468.55
511.253	414.71
511.685	374.92
512.117	438.12
512.549	473.23
512.981	412.37
513.412	412.37
513.844	440.46
514.276	438.12
514.707	531.74
515.139	459.18
515.571	421.74
516.002	412.37
516.433	442.8
516.865	461.52
517.296	426.42
517.727	510.68
518.159	440.46
518.59	491.95
519.021	431.1
519.452	424.08
519.883	470.89
520.314	407.69
520.744	452.16
521.175	398.33
521.606	459.18
522.037	449.82
522.467	428.76
522.898	468.55
523.328	555.15
523.759	515.36
524.189	505.99
524.62	447.48
525.05	459.18
525.48	412.37
525.91	445.14
526.341	510.68
526.771	461.52
527.201	449.82
527.631	445.14
528.061	428.76
528.49	442.8
528.92	538.76
529.35	431.1
529.78	461.52
530.209	381.95
530.639	449.82
531.068	424.08
531.498	417.05
531.927	454.5
532.357	475.57
532.786	491.95
533.215	524.72
533.644	447.48
534.074	433.44
534.503	456.84
534.932	503.65
535.361	491.95
535.79	414.71
536.218	426.42
536.647	414.71
537.076	475.57
537.505	508.34
537.933	473.23
538.362	428.76
538.79	505.99
539.219	559.83
539.647	501.31
540.076	531.74
540.504	541.1
540.932	594.93
541.36	723.66
541.788	686.22
542.217	737.71
542.645	817.29
543.073	775.16
543.5	740.05
543.928	711.96
544.356	728.35
544.784	758.77
545.211	751.75
545.639	772.82
546.067	721.32
546.494	714.3
546.922	608.98
547.349	534.08
547.776	550.46
548.204	576.21
548.631	520.04
549.058	566.85
549.485	552.81
549.912	475.57
550.339	541.1
550.766	517.7
551.193	489.61
551.62	529.4
552.047	522.38
552.474	545.78
552.9	524.72
553.327	538.76
553.754	522.38
554.18	466.21
554.607	510.68
555.033	482.59
555.459	503.65
555.886	494.29
556.312	424.08
556.738	503.65
557.164	480.25
557.59	498.97
558.016	424.08
558.442	463.86
558.868	414.71
559.294	445.14
559.72	379.61
560.145	426.42
560.571	480.25
560.997	454.5
561.422	414.71
561.848	400.67
562.273	442.8
562.699	379.61
563.124	442.8
563.549	477.91
563.974	466.21
564.4	463.86
564.825	447.48
565.25	454.5
565.675	459.18
566.1	400.67
566.525	367.9
566.95	372.58
567.374	386.63
567.799	487.27
568.224	428.76
568.648	459.18
569.073	428.76
569.497	487.27
569.922	412.37
570.346	466.21
570.771	431.1
571.195	480.25
571.619	468.55
572.043	449.82
572.467	489.61
572.891	445.14
573.315	473.23
573.739	449.82
574.163	496.63
574.587	426.42
575.011	442.8
575.435	428.76
575.858	515.36
576.282	515.36
576.705	452.16
577.129	473.23
577.552	400.67
577.976	473.23
578.399	524.72
578.822	431.1
579.245	466.21
579.669	447.48
580.092	447.48
580.515	435.78
580.938	440.46
581.361	447.48
581.784	438.12
582.206	536.42
582.629	452.16
583.052	491.95
583.474	498.97
583.897	456.84
584.32	454.5
584.742	477.91
585.165	452.16
585.587	445.14
586.009	442.8
586.431	489.61
586.854	487.27
587.276	440.46
587.698	536.42
588.12	524.72
588.542	538.76
588.964	459.18
589.386	431.1
589.807	417.05
590.229	449.82
590.651	475.57
591.073	454.5
591.494	435.78
591.916	424.08
592.337	463.86
592.759	484.93
593.18	433.44
593.601	466.21
594.022	435.78
594.444	424.08
594.865	503.65
595.286	435.78
595.707	438.12
596.128	424.08
596.549	398.33
596.97	419.39
597.39	391.31
597.811	414.71
598.232	417.05
598.652	428.76
599.073	447.48
599.494	447.48
599.914	459.18
600.334	400.67
600.755	395.99
601.175	377.27
601.595	363.22
602.015	398.33
602.436	372.58
602.856	529.4
603.276	398.33
603.696	475.57
604.115	475.57
604.535	419.39
604.955	470.89
605.375	424.08
605.794	428.76
606.214	400.67
606.634	424.08
607.053	459.18
607.473	435.78
607.892	456.84
608.311	470.89
608.731	491.95
609.15	477.91
609.569	681.53
609.988	648.77
610.407	810.26
610.826	850.05
611.245	833.67
611.664	733.03
612.083	754.09
612.501	728.35
612.92	644.09
613.339	576.21
613.757	557.49
614.176	555.15
614.594	601.96
615.013	531.74
615.431	498.97
615.85	447.48
616.268	431.1
616.686	482.59
617.104	480.25
617.522	435.78
617.94	419.39
618.358	421.74
618.776	489.61
619.194	431.1
619.612	424.08
620.03	428.76
620.447	482.59
620.865	421.74
621.282	435.78
621.7	459.18
622.117	386.63
622.535	391.31
622.952	388.97
623.369	452.16
623.787	393.65
624.204	435.78
624.621	428.76
625.038	405.35
625.455	412.37
625.872	356.2
626.289	377.27
626.706	433.44
627.123	473.23
627.539	435.78
627.956	421.74
628.373	384.29
628.789	407.69
629.206	433.44
629.622	414.71
630.038	426.42
630.455	370.24
630.871	461.52
631.287	398.33
631.703	388.97
632.12	367.9
632.536	438.12
632.952	365.56
633.368	363.22
633.783	358.54
634.199	370.24
634.615	349.18
635.031	393.65
635.446	400.67
635.862	304.71
636.277	424.08
636.693	328.11
637.108	285.98
637.524	414.71
637.939	250.88
638.354	351.52
638.77	351.52
639.185	391.31
639.6	384.29
640.015	438.12
640.43	419.39
640.845	325.77
641.259	400.67
641.674	351.52
642.089	330.45
642.504	339.82
642.918	339.82
643.333	321.09
643.747	349.18
644.162	351.52
644.576	351.52
644.991	374.92
645.405	398.33
645.819	328.11
646.233	325.77
646.647	297.69
647.061	346.84
647.475	419.39
647.889	318.75
648.303	353.86
648.717	367.9
649.131	323.43
649.545	400.67
649.958	328.11
650.372	344.5
650.785	360.88
651.199	349.18
651.612	339.82
652.026	318.75
652.439	307.05
652.852	344.5
653.266	365.56
653.679	328.11
654.092	379.61
654.505	325.77
654.918	349.18
655.331	374.92
655.744	351.52
656.156	372.58
656.569	344.5
656.982	318.75
657.394	356.2
657.807	377.27
658.22	358.54
658.632	353.86
659.044	360.88
659.457	323.43
659.869	351.52
660.281	360.88
660.693	349.18
661.106	367.9
661.518	311.73
661.93	321.09
662.342	344.5
662.754	393.65
663.165	379.61
663.577	365.56
663.989	360.88
664.401	339.82
664.812	295.35
665.224	358.54
665.635	328.11
666.047	330.45
666.458	337.48
666.869	302.37
667.281	342.16
667.692	403.01
668.103	337.48
668.514	290.67
668.925	332.79
669.336	363.22
669.747	309.39
670.158	337.48
670.569	384.29
670.979	344.5
671.39	377.27
671.801	398.33
672.211	337.48
672.622	412.37
673.032	358.54
673.443	365.56
673.853	395.99
674.263	393.65
674.674	342.16
675.084	337.48
675.494	370.24
675.904	370.24
676.314	365.56
676.724	316.41
677.134	304.71
677.544	339.82
677.953	321.09
678.363	337.48
678.773	447.48
679.182	339.82
679.592	365.56
680.001	365.56
680.411	332.79
680.82	330.45
681.23	328.11
681.639	370.24
682.048	356.2
682.457	288.32
682.866	360.88
683.275	314.07
683.684	377.27
684.093	370.24
684.502	339.82
684.911	297.69
685.32	381.95
685.728	285.98
686.137	316.41
686.546	351.52
686.954	367.9
687.363	339.82
687.771	330.45
688.179	353.86
688.588	344.5
688.996	412.37
689.404	393.65
689.812	417.05
690.22	316.41
690.628	372.58
691.036	314.07
691.444	365.56
691.852	335.14
692.26	283.64
692.667	414.71
693.075	316.41
693.483	328.11
693.89	358.54
694.298	323.43
694.705	318.75
695.112	353.86
695.52	370.24
695.927	374.92
696.334	367.9
696.741	337.48
697.148	274.28
697.555	367.9
697.962	323.43
698.369	337.48
698.776	332.79
699.183	309.39
699.59	300.03
699.996	335.14
700.403	318.75
700.81	363.22
701.216	318.75
701.623	342.16
702.029	363.22
702.435	370.24
702.842	297.69
703.248	407.69
703.654	316.41
704.06	377.27
704.466	410.03
704.872	381.95
705.278	330.45
705.684	349.18
706.09	417.05
706.496	316.41
706.901	414.71
707.307	407.69
707.712	337.48
708.118	349.18
708.523	344.5
708.929	398.33
709.334	316.41
709.74	337.48
710.145	346.84
710.55	395.99
710.955	372.58
711.36	405.35
711.765	314.07
712.17	351.52
712.575	276.62
712.98	882.82
713.385	388.97
713.789	353.86
714.194	316.41
714.599	349.18
715.003	417.05
715.408	302.37
715.812	353.86
716.217	363.22
716.621	309.39
717.025	307.05
717.429	360.88
717.833	283.64
718.238	293.01
718.642	374.92
719.046	302.37
719.449	358.54
719.853	365.56
720.257	323.43
720.661	290.67
721.065	351.52
721.468	318.75
721.872	374.92
722.275	278.96
722.679	323.43
723.082	330.45
723.485	271.94
723.889	285.98
724.292	302.37
724.695	302.37
725.098	314.07
725.501	304.71
725.904	335.14
726.307	370.24
726.71	314.07
727.113	386.63
727.516	377.27
727.918	269.6
728.321	381.95
728.724	381.95
729.126	346.84
729.529	332.79
729.931	414.71
730.333	349.18
730.736	316.41
731.138	360.88
731.54	311.73
731.942	342.16
732.344	271.94
732.746	335.14
733.148	344.5
733.55	370.24
733.952	335.14
734.354	337.48
734.756	330.45
735.157	297.69
735.559	316.41
735.96	377.27
736.362	356.2
736.763	295.35
737.165	208.75
737.566	339.82
737.967	337.48
738.368	332.79
738.77	321.09
739.171	304.71
739.572	342.16
739.973	300.03
740.374	353.86
740.774	332.79
741.175	339.82
741.576	274.28
741.977	370.24
742.377	330.45
742.778	363.22
743.178	365.56
743.579	337.48
743.979	353.86
744.379	356.2
744.78	288.32
745.18	328.11
745.58	295.35
745.98	363.22
746.38	314.07
746.78	367.9
747.18	374.92
747.58	344.5
747.98	349.18
748.38	353.86
748.779	342.16
749.179	342.16
749.578	344.5
749.978	332.79
750.377	377.27
750.777	325.77
751.176	419.39
751.575	386.63
751.975	349.18
752.374	323.43
752.773	335.14
753.172	335.14
753.571	346.84
753.97	290.67
754.369	321.09
754.768	316.41
755.166	358.54
755.565	374.92
755.964	328.11
756.362	342.16
756.761	325.77
757.159	346.84
757.558	379.61
757.956	318.75
758.354	353.86
758.753	344.5
759.151	346.84
759.549	335.14
759.947	370.24
760.345	353.86
760.743	321.09
761.141	276.62
761.539	358.54
761.936	367.9
762.334	349.18
762.732	374.92
763.129	311.73
763.527	384.29
763.924	332.79
764.322	379.61
764.719	412.37
