Data from Al_FLMS009871__744__15-15-02-326.txt Node

Date: Fri Mar 08 15:15:02 CST 2024
User: pe5414po
Spectrometer: FLMS00987
Trigger mode: 0
Integration Time (sec): 1.000000E-1
Scans to average: 1
Electric dark correction enabled: true
Nonlinearity correction enabled: false
Boxcar width: 0
XAxis mode: Wavelengths
Number of Pixels in Spectrum: 2048
>>>>>Begin Spectral Data<<<<<
188.938	-54.42
189.409	-54.42
189.879	-54.42
190.349	-112.93
190.819	-42.71
191.29	-96.55
191.76	-52.08
192.23	-66.12
192.7	-80.16
193.17	-31.01
193.64	-23.99
194.109	-101.23
194.579	-38.03
195.049	57.93
195.519	-0.59
195.988	-7.61
196.458	86.01
196.927	41.54
197.397	123.46
197.866	83.67
198.336	104.74
198.805	118.78
199.274	109.42
199.744	109.42
200.213	167.93
200.682	160.91
201.151	191.34
201.62	224.11
202.089	191.34
202.558	247.51
203.027	235.81
203.495	198.36
203.964	210.06
204.433	212.4
204.902	259.21
205.37	231.13
205.839	263.9
206.307	235.81
206.776	308.37
207.244	219.43
207.712	261.55
208.181	245.17
208.649	240.49
209.117	256.87
209.585	240.49
210.053	247.51
210.521	268.58
210.989	256.87
211.457	291.98
211.925	280.28
212.393	315.39
212.861	289.64
213.328	263.9
213.796	193.68
214.264	270.92
214.731	294.32
215.199	266.24
215.666	310.71
216.133	294.32
216.601	256.87
217.068	240.49
217.535	240.49
218.003	263.9
218.47	254.53
218.937	235.81
219.404	275.6
219.871	256.87
220.338	235.81
220.805	235.81
221.271	254.53
221.738	231.13
222.205	268.58
222.671	226.45
223.138	254.53
223.605	179.64
224.071	224.11
224.538	242.83
225.004	259.21
225.47	282.62
225.937	282.62
226.403	214.74
226.869	270.92
227.335	219.43
227.801	254.53
228.267	277.94
228.733	247.51
229.199	247.51
229.665	231.13
230.131	174.96
230.597	261.55
231.062	324.75
231.528	259.21
231.994	266.24
232.459	275.6
232.925	252.19
233.39	256.87
233.856	275.6
234.321	235.81
234.786	245.17
235.252	219.43
235.717	235.81
236.182	282.62
236.647	221.77
237.112	254.53
237.577	306.03
238.042	310.71
238.507	193.68
238.972	355.18
239.436	287.3
239.901	252.19
240.366	254.53
240.83	228.79
241.295	261.55
241.76	308.37
242.224	275.6
242.688	254.53
243.153	240.49
243.617	252.19
244.081	224.11
244.545	245.17
245.01	315.39
245.474	233.47
245.938	252.19
246.402	224.11
246.866	254.53
247.33	299
247.793	275.6
248.257	275.6
248.721	219.43
249.185	240.49
249.648	284.96
250.112	277.94
250.575	263.9
251.039	263.9
251.502	308.37
251.965	226.45
252.429	280.28
252.892	291.98
253.355	277.94
253.818	247.51
254.281	282.62
254.744	350.5
255.207	240.49
255.67	242.83
256.133	254.53
256.596	277.94
257.059	310.71
257.522	280.28
257.984	266.24
258.447	221.77
258.909	331.77
259.372	273.26
259.834	299
260.297	320.07
260.759	256.87
261.221	249.85
261.684	306.03
262.146	261.55
262.608	207.72
263.07	217.08
263.532	256.87
263.994	284.96
264.456	308.37
264.918	282.62
265.38	207.72
265.842	245.17
266.303	296.66
266.765	327.09
267.227	329.43
267.688	310.71
268.15	273.26
268.611	275.6
269.072	228.79
269.534	268.58
269.995	277.94
270.456	315.39
270.918	259.21
271.379	315.39
271.84	294.32
272.301	256.87
272.762	303.68
273.223	210.06
273.684	266.24
274.144	249.85
274.605	357.52
275.066	287.3
275.527	277.94
275.987	282.62
276.448	303.68
276.908	301.34
277.369	270.92
277.829	303.68
278.289	254.53
278.75	306.03
279.21	277.94
279.67	322.41
280.13	282.62
280.59	282.62
281.05	233.47
281.51	317.73
281.97	301.34
282.43	254.53
282.89	254.53
283.35	327.09
283.809	224.11
284.269	273.26
284.729	277.94
285.188	320.07
285.648	355.18
286.107	317.73
286.567	217.08
287.026	284.96
287.485	282.62
287.944	252.19
288.404	270.92
288.863	306.03
289.322	301.34
289.781	324.75
290.24	275.6
290.699	359.86
291.158	275.6
291.616	291.98
292.075	336.45
292.534	263.9
292.992	254.53
293.451	310.71
293.91	273.26
294.368	270.92
294.827	268.58
295.285	301.34
295.743	226.45
296.202	287.3
296.66	270.92
297.118	303.68
297.576	291.98
298.034	291.98
298.492	266.24
298.95	256.87
299.408	263.9
299.866	334.11
300.324	310.71
300.781	296.66
301.239	254.53
301.697	306.03
302.154	294.32
302.612	287.3
303.069	289.64
303.527	338.79
303.984	299
304.441	338.79
304.899	266.24
305.356	308.37
305.813	320.07
306.27	280.28
306.727	273.26
307.184	277.94
307.641	313.05
308.098	320.07
308.555	308.37
309.012	249.85
309.468	308.37
309.925	273.26
310.382	231.13
310.838	294.32
311.295	322.41
311.751	256.87
312.208	301.34
312.664	284.96
313.12	334.11
313.577	315.39
314.033	306.03
314.489	291.98
314.945	277.94
315.401	308.37
315.857	308.37
316.313	266.24
316.769	273.26
317.225	322.41
317.681	284.96
318.136	270.92
318.592	296.66
319.048	282.62
319.503	245.17
319.959	282.62
320.414	327.09
320.869	294.32
321.325	306.03
321.78	291.98
322.235	334.11
322.691	308.37
323.146	282.62
323.601	303.68
324.056	282.62
324.511	284.96
324.966	317.73
325.421	277.94
325.875	348.15
326.33	329.43
326.785	282.62
327.24	266.24
327.694	261.55
328.149	338.79
328.603	329.43
329.058	259.21
329.512	301.34
329.966	275.6
330.421	291.98
330.875	306.03
331.329	238.15
331.783	254.53
332.237	310.71
332.691	315.39
333.145	299
333.599	301.34
334.053	263.9
334.507	249.85
334.96	313.05
335.414	275.6
335.868	287.3
336.321	263.9
336.775	331.77
337.228	277.94
337.682	310.71
338.135	280.28
338.588	277.94
339.042	306.03
339.495	270.92
339.948	324.75
340.401	294.32
340.854	350.5
341.307	373.9
341.76	280.28
342.213	313.05
342.666	310.71
343.119	320.07
343.571	270.92
344.024	266.24
344.477	362.2
344.929	306.03
345.382	306.03
345.834	242.83
346.287	277.94
346.739	280.28
347.191	280.28
347.644	242.83
348.096	284.96
348.548	280.28
349	266.24
349.452	289.64
349.904	317.73
350.356	301.34
350.808	359.86
351.26	259.21
351.711	256.87
352.163	327.09
352.615	320.07
353.066	357.52
353.518	331.77
353.969	287.3
354.421	341.13
354.872	277.94
355.324	235.81
355.775	296.66
356.226	280.28
356.677	296.66
357.128	308.37
357.579	249.85
358.03	303.68
358.481	299
358.932	266.24
359.383	238.15
359.834	270.92
360.285	268.58
360.735	359.86
361.186	231.13
361.637	287.3
362.087	294.32
362.538	294.32
362.988	268.58
363.438	313.05
363.889	294.32
364.339	287.3
364.789	320.07
365.239	303.68
365.689	282.62
366.139	324.75
366.589	238.15
367.039	296.66
367.489	296.66
367.939	282.62
368.389	317.73
368.839	263.9
369.288	289.64
369.738	317.73
370.187	282.62
370.637	317.73
371.086	296.66
371.536	261.55
371.985	252.19
372.434	301.34
372.884	252.19
373.333	289.64
373.782	299
374.231	308.37
374.68	334.11
375.129	289.64
375.578	378.58
376.027	256.87
376.475	327.09
376.924	313.05
377.373	308.37
377.822	315.39
378.27	268.58
378.719	275.6
379.167	301.34
379.616	270.92
380.064	355.18
380.512	345.81
380.961	315.39
381.409	357.52
381.857	289.64
382.305	331.77
382.753	299
383.201	252.19
383.649	291.98
384.097	299
384.545	287.3
384.992	289.64
385.44	294.32
385.888	301.34
386.335	270.92
386.783	317.73
387.231	256.87
387.678	324.75
388.125	207.72
388.573	313.05
389.02	303.68
389.467	259.21
389.914	331.77
390.362	310.71
390.809	362.2
391.256	301.34
391.703	270.92
392.15	301.34
392.596	320.07
393.043	280.28
393.49	296.66
393.937	242.83
394.383	221.77
394.83	413.69
395.276	359.86
395.723	256.87
396.169	280.28
396.616	256.87
397.062	352.84
397.508	277.94
397.954	291.98
398.401	261.55
398.847	282.62
399.293	303.68
399.739	336.45
400.185	315.39
400.631	308.37
401.076	268.58
401.522	310.71
401.968	303.68
402.414	327.09
402.859	308.37
403.305	266.24
403.75	320.07
404.196	231.13
404.641	294.32
405.086	313.05
405.532	207.72
405.977	329.43
406.422	327.09
406.867	282.62
407.312	287.3
407.757	334.11
408.202	296.66
408.647	359.86
409.092	259.21
409.537	261.55
409.982	275.6
410.426	313.05
410.871	287.3
411.316	238.15
411.76	303.68
412.205	277.94
412.649	320.07
413.093	355.18
413.538	338.79
413.982	212.4
414.426	289.64
414.87	324.75
415.314	322.41
415.758	221.77
416.202	322.41
416.646	280.28
417.09	313.05
417.534	306.03
417.978	284.96
418.421	338.79
418.865	317.73
419.309	249.85
419.752	317.73
420.196	254.53
420.639	277.94
421.083	289.64
421.526	308.37
421.969	336.45
422.412	296.66
422.856	341.13
423.299	331.77
423.742	275.6
424.185	242.83
424.628	331.77
425.071	263.9
425.513	306.03
425.956	310.71
426.399	341.13
426.842	320.07
427.284	273.26
427.727	266.24
428.169	287.3
428.612	362.2
429.054	263.9
429.497	291.98
429.939	291.98
430.381	289.64
430.823	261.55
431.265	301.34
431.707	259.21
432.149	259.21
432.591	331.77
433.033	313.05
433.475	310.71
433.917	350.5
434.359	270.92
434.8	268.58
435.242	343.47
435.684	352.84
436.125	352.84
436.567	284.96
437.008	345.81
437.449	289.64
437.891	266.24
438.332	331.77
438.773	296.66
439.214	294.32
439.656	275.6
440.097	329.43
440.538	310.71
440.978	261.55
441.419	268.58
441.86	231.13
442.301	249.85
442.742	338.79
443.182	303.68
443.623	308.37
444.063	266.24
444.504	275.6
444.944	263.9
445.385	315.39
445.825	233.47
446.265	273.26
446.706	287.3
447.146	259.21
447.586	364.54
448.026	294.32
448.466	362.2
448.906	280.28
449.346	317.73
449.786	322.41
450.225	343.47
450.665	266.24
451.105	397.31
451.544	303.68
451.984	324.75
452.424	303.68
452.863	338.79
453.302	277.94
453.742	240.49
454.181	308.37
454.62	320.07
455.059	310.71
455.499	275.6
455.938	299
456.377	270.92
456.816	296.66
457.254	291.98
457.693	291.98
458.132	345.81
458.571	299
459.01	322.41
459.448	273.26
459.887	277.94
460.325	247.51
460.764	336.45
461.202	282.62
461.641	310.71
462.079	261.55
462.517	296.66
462.955	327.09
463.393	357.52
463.832	291.98
464.27	275.6
464.708	303.68
465.145	313.05
465.583	282.62
466.021	282.62
466.459	282.62
466.897	310.71
467.334	310.71
467.772	287.3
468.209	310.71
468.647	249.85
469.084	320.07
469.522	296.66
469.959	336.45
470.396	235.81
470.833	275.6
471.271	287.3
471.708	280.28
472.145	275.6
472.582	310.71
473.019	254.53
473.456	238.15
473.892	303.68
474.329	334.11
474.766	352.84
475.202	324.75
475.639	306.03
476.076	259.21
476.512	308.37
476.949	280.28
477.385	313.05
477.821	261.55
478.258	284.96
478.694	322.41
479.13	266.24
479.566	343.47
480.002	327.09
480.438	320.07
480.874	306.03
481.31	291.98
481.746	280.28
482.181	331.77
482.617	348.15
483.053	317.73
483.488	259.21
483.924	313.05
484.36	329.43
484.795	273.26
485.23	317.73
485.666	364.54
486.101	296.66
486.536	231.13
486.971	235.81
487.407	317.73
487.842	350.5
488.277	280.28
488.712	294.32
489.146	235.81
489.581	303.68
490.016	287.3
490.451	317.73
490.885	320.07
491.32	310.71
491.755	301.34
492.189	242.83
492.624	299
493.058	263.9
493.492	259.21
493.927	273.26
494.361	350.5
494.795	256.87
495.229	329.43
495.663	369.22
496.097	315.39
496.531	282.62
496.965	306.03
497.399	366.88
497.833	366.88
498.266	369.22
498.7	268.58
499.134	331.77
499.567	282.62
500.001	263.9
500.434	334.11
500.868	341.13
501.301	320.07
501.734	263.9
502.168	263.9
502.601	299
503.034	324.75
503.467	291.98
503.9	277.94
504.333	254.53
504.766	280.28
505.199	317.73
505.632	348.15
506.064	327.09
506.497	348.15
506.93	341.13
507.362	280.28
507.795	273.26
508.227	303.68
508.66	315.39
509.092	352.84
509.524	266.24
509.956	329.43
510.389	287.3
510.821	252.19
511.253	313.05
511.685	306.03
512.117	245.17
512.549	313.05
512.981	261.55
513.412	324.75
513.844	313.05
514.276	329.43
514.707	306.03
515.139	289.64
515.571	336.45
516.002	291.98
516.433	287.3
516.865	270.92
517.296	336.45
517.727	336.45
518.159	249.85
518.59	275.6
519.021	270.92
519.452	313.05
519.883	317.73
520.314	303.68
520.744	287.3
521.175	299
521.606	291.98
522.037	308.37
522.467	306.03
522.898	266.24
523.328	261.55
523.759	329.43
524.189	383.26
524.62	322.41
525.05	282.62
525.48	294.32
525.91	306.03
526.341	317.73
526.771	291.98
527.201	277.94
527.631	334.11
528.061	322.41
528.49	289.64
528.92	263.9
529.35	275.6
529.78	275.6
530.209	310.71
530.639	317.73
531.068	315.39
531.498	287.3
531.927	296.66
532.357	287.3
532.786	280.28
533.215	331.77
533.644	341.13
534.074	322.41
534.503	252.19
534.932	303.68
535.361	263.9
535.79	217.08
536.218	380.92
536.647	261.55
537.076	380.92
537.505	343.47
537.933	315.39
538.362	359.86
538.79	355.18
539.219	322.41
539.647	327.09
540.076	322.41
540.504	282.62
540.932	341.13
541.36	334.11
541.788	336.45
542.217	315.39
542.645	273.26
543.073	301.34
543.5	303.68
543.928	284.96
544.356	345.81
544.784	324.75
545.211	226.45
545.639	254.53
546.067	320.07
546.494	303.68
546.922	336.45
547.349	315.39
547.776	310.71
548.204	315.39
548.631	301.34
549.058	284.96
549.485	266.24
549.912	324.75
550.339	284.96
550.766	320.07
551.193	226.45
551.62	291.98
552.047	284.96
552.474	207.72
552.9	282.62
553.327	324.75
553.754	235.81
554.18	320.07
554.607	315.39
555.033	310.71
555.459	359.86
555.886	315.39
556.312	329.43
556.738	256.87
557.164	296.66
557.59	259.21
558.016	247.51
558.442	268.58
558.868	320.07
559.294	359.86
559.72	289.64
560.145	287.3
560.571	275.6
560.997	352.84
561.422	268.58
561.848	308.37
562.273	261.55
562.699	301.34
563.124	364.54
563.549	299
563.974	317.73
564.4	336.45
564.825	315.39
565.25	336.45
565.675	317.73
566.1	261.55
566.525	289.64
566.95	331.77
567.374	327.09
567.799	280.28
568.224	303.68
568.648	317.73
569.073	352.84
569.497	275.6
569.922	270.92
570.346	343.47
570.771	289.64
571.195	266.24
571.619	259.21
572.043	322.41
572.467	317.73
572.891	345.81
573.315	376.24
573.739	270.92
574.163	315.39
574.587	308.37
575.011	327.09
575.435	371.56
575.858	261.55
576.282	359.86
576.705	308.37
577.129	345.81
577.552	299
577.976	317.73
578.399	231.13
578.822	299
579.245	299
579.669	327.09
580.092	256.87
580.515	256.87
580.938	345.81
581.361	284.96
581.784	303.68
582.206	306.03
582.629	221.77
583.052	299
583.474	296.66
583.897	301.34
584.32	289.64
584.742	280.28
585.165	270.92
585.587	303.68
586.009	287.3
586.431	280.28
586.854	313.05
587.276	308.37
587.698	259.21
588.12	317.73
588.542	308.37
588.964	315.39
589.386	350.5
589.807	256.87
590.229	327.09
590.651	327.09
591.073	401.99
591.494	334.11
591.916	338.79
592.337	313.05
592.759	317.73
593.18	294.32
593.601	289.64
594.022	324.75
594.444	291.98
594.865	313.05
595.286	324.75
595.707	327.09
596.128	373.9
596.549	277.94
596.97	296.66
597.39	313.05
597.811	280.28
598.232	289.64
598.652	294.32
599.073	256.87
599.494	268.58
599.914	350.5
600.334	275.6
600.755	324.75
601.175	273.26
601.595	313.05
602.015	334.11
602.436	287.3
602.856	472.2
603.276	287.3
603.696	268.58
604.115	350.5
604.535	345.81
604.955	245.17
605.375	359.86
605.794	345.81
606.214	277.94
606.634	303.68
607.053	240.49
607.473	306.03
607.892	270.92
608.311	331.77
608.731	296.66
609.15	317.73
609.569	233.47
609.988	308.37
610.407	362.2
610.826	308.37
611.245	317.73
611.664	266.24
612.083	270.92
612.501	317.73
612.92	280.28
613.339	308.37
613.757	334.11
614.176	397.31
614.594	364.54
615.013	280.28
615.431	266.24
615.85	364.54
616.268	306.03
616.686	280.28
617.104	247.51
617.522	263.9
617.94	280.28
618.358	345.81
618.776	266.24
619.194	306.03
619.612	306.03
620.03	289.64
620.447	252.19
620.865	282.62
621.282	299
621.7	317.73
622.117	313.05
622.535	242.83
622.952	277.94
623.369	294.32
623.787	308.37
624.204	296.66
624.621	270.92
625.038	289.64
625.455	324.75
625.872	200.7
626.289	369.22
626.706	294.32
627.123	289.64
627.539	275.6
627.956	231.13
628.373	259.21
628.789	315.39
629.206	294.32
629.622	287.3
630.038	350.5
630.455	261.55
630.871	289.64
631.287	249.85
631.703	224.11
632.12	315.39
632.536	308.37
632.952	270.92
633.368	355.18
633.783	266.24
634.199	270.92
634.615	308.37
635.031	294.32
635.446	266.24
635.862	329.43
636.277	350.5
636.693	270.92
637.108	291.98
637.524	409.01
637.939	310.71
638.354	282.62
638.77	327.09
639.185	263.9
639.6	331.77
640.015	306.03
640.43	273.26
640.845	345.81
641.259	268.58
641.674	287.3
642.089	299
642.504	306.03
642.918	284.96
643.333	308.37
643.747	299
644.162	280.28
644.576	266.24
644.991	310.71
645.405	308.37
645.819	303.68
646.233	289.64
646.647	282.62
647.061	366.88
647.475	261.55
647.889	287.3
648.303	299
648.717	249.85
649.131	324.75
649.545	299
649.958	313.05
650.372	308.37
650.785	256.87
651.199	270.92
651.612	280.28
652.026	254.53
652.439	317.73
652.852	240.49
653.266	210.06
653.679	303.68
654.092	310.71
654.505	289.64
654.918	270.92
655.331	357.52
655.744	291.98
656.156	352.84
656.569	327.09
656.982	313.05
657.394	254.53
657.807	287.3
658.22	299
658.632	317.73
659.044	320.07
659.457	212.4
659.869	294.32
660.281	350.5
660.693	261.55
661.106	296.66
661.518	317.73
661.93	268.58
662.342	240.49
662.754	303.68
663.165	331.77
663.577	284.96
663.989	322.41
664.401	308.37
664.812	338.79
665.224	268.58
665.635	301.34
666.047	380.92
666.458	313.05
666.869	296.66
667.281	322.41
667.692	263.9
668.103	247.51
668.514	268.58
668.925	294.32
669.336	277.94
669.747	249.85
670.158	254.53
670.569	275.6
670.979	352.84
671.39	280.28
671.801	275.6
672.211	263.9
672.622	254.53
673.032	308.37
673.443	284.96
673.853	296.66
674.263	301.34
674.674	357.52
675.084	275.6
675.494	329.43
675.904	313.05
676.314	235.81
676.724	315.39
677.134	310.71
677.544	291.98
677.953	296.66
678.363	301.34
678.773	345.81
679.182	259.21
679.592	301.34
680.001	336.45
680.411	282.62
680.82	317.73
681.23	303.68
681.639	263.9
682.048	369.22
682.457	306.03
682.866	359.86
683.275	310.71
683.684	221.77
684.093	301.34
684.502	299
684.911	259.21
685.32	268.58
685.728	266.24
686.137	249.85
686.546	205.38
686.954	252.19
687.363	355.18
687.771	263.9
688.179	252.19
688.588	289.64
688.996	252.19
689.404	294.32
689.812	310.71
690.22	275.6
690.628	299
691.036	303.68
691.444	310.71
691.852	259.21
692.26	287.3
692.667	299
693.075	287.3
693.483	291.98
693.89	327.09
694.298	275.6
694.705	219.43
695.112	317.73
695.52	352.84
695.927	294.32
696.334	343.47
696.741	320.07
697.148	270.92
697.555	327.09
697.962	301.34
698.369	313.05
698.776	329.43
699.183	256.87
699.59	219.43
699.996	390.28
700.403	315.39
700.81	268.58
701.216	310.71
701.623	217.08
702.029	308.37
702.435	313.05
702.842	270.92
703.248	329.43
703.654	315.39
704.06	345.81
704.466	301.34
704.872	233.47
705.278	306.03
705.684	238.15
706.09	256.87
706.496	306.03
706.901	355.18
707.307	322.41
707.712	338.79
708.118	315.39
708.523	308.37
708.929	266.24
709.334	291.98
709.74	301.34
710.145	322.41
710.55	284.96
710.955	371.56
711.36	287.3
711.765	348.15
712.17	338.79
712.575	254.53
712.98	813.92
713.385	327.09
713.789	277.94
714.194	249.85
714.599	221.77
715.003	266.24
715.408	317.73
715.812	275.6
716.217	280.28
716.621	303.68
717.025	306.03
717.429	284.96
717.833	240.49
718.238	322.41
718.642	366.88
719.046	280.28
719.449	343.47
719.853	313.05
720.257	291.98
720.661	306.03
721.065	284.96
721.468	294.32
721.872	282.62
722.275	273.26
722.679	210.06
723.082	259.21
723.485	324.75
723.889	310.71
724.292	315.39
724.695	235.81
725.098	359.86
725.501	322.41
725.904	291.98
726.307	256.87
726.71	329.43
727.113	338.79
727.516	268.58
727.918	296.66
728.321	282.62
728.724	287.3
729.126	291.98
729.529	336.45
729.931	299
730.333	362.2
730.736	284.96
731.138	315.39
731.54	299
731.942	303.68
732.344	210.06
732.746	315.39
733.148	261.55
733.55	284.96
733.952	306.03
734.354	282.62
734.756	308.37
735.157	261.55
735.559	240.49
735.96	280.28
736.362	291.98
736.763	219.43
737.165	383.26
737.566	327.09
737.967	350.5
738.368	273.26
738.77	287.3
739.171	313.05
739.572	219.43
739.973	334.11
740.374	306.03
740.774	308.37
741.175	310.71
741.576	249.85
741.977	256.87
742.377	327.09
742.778	261.55
743.178	273.26
743.579	303.68
743.979	315.39
744.379	331.77
744.78	308.37
745.18	263.9
745.58	320.07
745.98	270.92
746.38	291.98
746.78	242.83
747.18	338.79
747.58	306.03
747.98	270.92
748.38	362.2
748.779	270.92
749.179	273.26
749.578	294.32
749.978	322.41
750.377	308.37
750.777	303.68
751.176	348.15
751.575	277.94
751.975	315.39
752.374	275.6
752.773	277.94
753.172	324.75
753.571	313.05
753.97	359.86
754.369	287.3
754.768	308.37
755.166	317.73
755.565	273.26
755.964	320.07
756.362	256.87
756.761	308.37
757.159	313.05
757.558	306.03
757.956	282.62
758.354	291.98
758.753	341.13
759.151	282.62
759.549	289.64
759.947	315.39
760.345	296.66
760.743	376.24
761.141	287.3
761.539	252.19
761.936	392.62
762.334	336.45
762.732	282.62
763.129	280.28
763.527	322.41
763.924	303.68
764.322	331.77
764.719	301.34
765.117	256.87
765.514	282.62
765.911	268.58
766.308	291.98
766.705	291.98
767.102	268.58
