Data from Al_FLMS009871__755__15-15-03-426.txt Node

Date: Fri Mar 08 15:15:03 CST 2024
User: pe5414po
Spectrometer: FLMS00987
Trigger mode: 0
Integration Time (sec): 1.000000E-1
Scans to average: 1
Electric dark correction enabled: true
Nonlinearity correction enabled: false
Boxcar width: 0
XAxis mode: Wavelengths
Number of Pixels in Spectrum: 2048
>>>>>Begin Spectral Data<<<<<
188.938	-124.05
189.409	-124.05
189.879	-124.05
190.349	-149.79
190.819	-100.64
191.29	-107.66
191.76	-131.07
192.23	-72.56
192.7	-30.43
193.17	-91.28
193.64	-79.58
194.109	-39.79
194.579	-44.47
195.049	4.68
195.519	39.79
195.988	70.22
196.458	79.58
196.927	35.11
197.397	102.98
197.866	100.64
198.336	163.84
198.805	88.94
199.274	145.11
199.744	152.13
200.213	215.33
200.682	182.56
201.151	285.55
201.62	238.73
202.089	180.22
202.558	292.57
203.027	243.42
203.495	262.14
203.964	257.46
204.433	255.12
204.902	311.29
205.37	301.93
205.839	344.06
206.307	248.1
206.776	264.48
207.244	231.71
207.712	278.52
208.181	374.49
208.649	280.86
209.117	287.89
209.585	308.95
210.053	313.63
210.521	344.06
210.989	198.95
211.457	285.55
211.925	241.08
212.393	322.99
212.861	229.37
213.328	287.89
213.796	299.59
214.264	313.63
214.731	280.86
215.199	252.78
215.666	322.99
216.133	334.7
216.601	285.55
217.068	217.67
217.535	273.84
218.003	290.23
218.47	290.23
218.937	229.37
219.404	255.12
219.871	255.12
220.338	259.8
220.805	264.48
221.271	271.5
221.738	227.03
222.205	283.2
222.671	201.29
223.138	283.2
223.605	301.93
224.071	241.08
224.538	273.84
225.004	332.36
225.47	264.48
225.937	245.76
226.403	248.1
226.869	278.52
227.335	201.29
227.801	231.71
228.267	203.63
228.733	280.86
229.199	266.82
229.665	243.42
230.131	262.14
230.597	299.59
231.062	339.38
231.528	290.23
231.994	259.8
232.459	236.39
232.925	184.9
233.39	320.65
233.856	245.76
234.321	215.33
234.786	311.29
235.252	266.82
235.717	259.8
236.182	264.48
236.647	255.12
237.112	250.44
237.577	285.55
238.042	252.78
238.507	255.12
238.972	278.52
239.436	299.59
239.901	304.27
240.366	236.39
240.83	287.89
241.295	205.97
241.76	273.84
242.224	257.46
242.688	208.31
243.153	276.18
243.617	259.8
244.081	320.65
244.545	220.01
245.01	217.67
245.474	238.73
245.938	266.82
246.402	283.2
246.866	294.91
247.33	311.29
247.793	220.01
248.257	290.23
248.721	287.89
249.185	252.78
249.648	245.76
250.112	248.1
250.575	231.71
251.039	220.01
251.502	269.16
251.965	208.31
252.429	262.14
252.892	271.5
253.355	332.36
253.818	346.4
254.281	311.29
254.744	236.39
255.207	222.35
255.67	285.55
256.133	273.84
256.596	292.57
257.059	320.65
257.522	285.55
257.984	201.29
258.447	278.52
258.909	325.33
259.372	306.61
259.834	308.95
260.297	243.42
260.759	294.91
261.221	322.99
261.684	252.78
262.146	297.25
262.608	278.52
263.07	248.1
263.532	276.18
263.994	236.39
264.456	243.42
264.918	313.63
265.38	220.01
265.842	304.27
266.303	264.48
266.765	241.08
267.227	351.08
267.688	276.18
268.15	285.55
268.611	297.25
269.072	262.14
269.534	337.04
269.995	322.99
270.456	229.37
270.918	252.78
271.379	297.25
271.84	292.57
272.301	299.59
272.762	262.14
273.223	269.16
273.684	280.86
274.144	287.89
274.605	259.8
275.066	301.93
275.527	238.73
275.987	334.7
276.448	257.46
276.908	262.14
277.369	273.84
277.829	304.27
278.289	262.14
278.75	280.86
279.21	278.52
279.67	278.52
280.13	327.67
280.59	287.89
281.05	339.38
281.51	271.5
281.97	276.18
282.43	292.57
282.89	266.82
283.35	306.61
283.809	330.02
284.269	285.55
284.729	273.84
285.188	280.86
285.648	262.14
286.107	311.29
286.567	322.99
287.026	250.44
287.485	297.25
287.944	292.57
288.404	348.74
288.863	299.59
289.322	299.59
289.781	351.08
290.24	292.57
290.699	273.84
291.158	334.7
291.616	292.57
292.075	290.23
292.534	301.93
292.992	269.16
293.451	290.23
293.91	301.93
294.368	292.57
294.827	315.97
295.285	346.4
295.743	287.89
296.202	273.84
296.66	334.7
297.118	238.73
297.576	278.52
298.034	276.18
298.492	334.7
298.95	332.36
299.408	280.86
299.866	304.27
300.324	262.14
300.781	290.23
301.239	318.31
301.697	292.57
302.154	299.59
302.612	287.89
303.069	269.16
303.527	301.93
303.984	227.03
304.441	306.61
304.899	238.73
305.356	234.05
305.813	334.7
306.27	325.33
306.727	332.36
307.184	299.59
307.641	344.06
308.098	290.23
308.555	252.78
309.012	318.31
309.468	269.16
309.925	337.04
310.382	315.97
310.838	292.57
311.295	241.08
311.751	290.23
312.208	301.93
312.664	304.27
313.12	306.61
313.577	290.23
314.033	287.89
314.489	283.2
314.945	257.46
315.401	299.59
315.857	245.76
316.313	252.78
316.769	259.8
317.225	248.1
317.681	292.57
318.136	325.33
318.592	245.76
319.048	285.55
319.503	304.27
319.959	292.57
320.414	285.55
320.869	278.52
321.325	266.82
321.78	257.46
322.235	292.57
322.691	234.05
323.146	313.63
323.601	271.5
324.056	280.86
324.511	315.97
324.966	315.97
325.421	369.8
325.875	292.57
326.33	259.8
326.785	313.63
327.24	304.27
327.694	308.95
328.149	245.76
328.603	341.72
329.058	276.18
329.512	299.59
329.966	311.29
330.421	264.48
330.875	355.76
331.329	229.37
331.783	283.2
332.237	259.8
332.691	344.06
333.145	339.38
333.599	318.31
334.053	292.57
334.507	308.95
334.96	285.55
335.414	250.44
335.868	287.89
336.321	264.48
336.775	292.57
337.228	313.63
337.682	294.91
338.135	322.99
338.588	330.02
339.042	315.97
339.495	355.76
339.948	332.36
340.401	248.1
340.854	301.93
341.307	351.08
341.76	330.02
342.213	360.44
342.666	290.23
343.119	311.29
343.571	238.73
344.024	344.06
344.477	299.59
344.929	297.25
345.382	269.16
345.834	220.01
346.287	248.1
346.739	250.44
347.191	383.85
347.644	304.27
348.096	332.36
348.548	332.36
349	252.78
349.452	212.99
349.904	322.99
350.356	318.31
350.808	318.31
351.26	283.2
351.711	341.72
352.163	313.63
352.615	334.7
353.066	320.65
353.518	236.39
353.969	294.91
354.421	280.86
354.872	290.23
355.324	283.2
355.775	287.89
356.226	290.23
356.677	320.65
357.128	269.16
357.579	311.29
358.03	252.78
358.481	344.06
358.932	231.71
359.383	327.67
359.834	358.1
360.285	348.74
360.735	341.72
361.186	313.63
361.637	287.89
362.087	297.25
362.538	334.7
362.988	285.55
363.438	332.36
363.889	374.49
364.339	308.95
364.789	346.4
365.239	248.1
365.689	285.55
366.139	367.46
366.589	292.57
367.039	245.76
367.489	327.67
367.939	346.4
368.389	283.2
368.839	306.61
369.288	292.57
369.738	306.61
370.187	334.7
370.637	287.89
371.086	191.92
371.536	315.97
371.985	299.59
372.434	224.69
372.884	337.04
373.333	271.5
373.782	332.36
374.231	259.8
374.68	287.89
375.129	315.97
375.578	297.25
376.027	355.76
376.475	322.99
376.924	341.72
377.373	318.31
377.822	308.95
378.27	301.93
378.719	304.27
379.167	299.59
379.616	315.97
380.064	273.84
380.512	334.7
380.961	308.95
381.409	330.02
381.857	360.44
382.305	315.97
382.753	332.36
383.201	273.84
383.649	278.52
384.097	360.44
384.545	304.27
384.992	262.14
385.44	245.76
385.888	341.72
386.335	271.5
386.783	327.67
387.231	311.29
387.678	325.33
388.125	257.46
388.573	287.89
389.02	348.74
389.467	325.33
389.914	313.63
390.362	313.63
390.809	313.63
391.256	264.48
391.703	318.31
392.15	351.08
392.596	266.82
393.043	294.91
393.49	330.02
393.937	245.76
394.383	285.55
394.83	313.63
395.276	294.91
395.723	311.29
396.169	273.84
396.616	280.86
397.062	322.99
397.508	294.91
397.954	287.89
398.401	315.97
398.847	306.61
399.293	318.31
399.739	290.23
400.185	332.36
400.631	280.86
401.076	276.18
401.522	306.61
401.968	236.39
402.414	341.72
402.859	334.7
403.305	285.55
403.75	304.27
404.196	330.02
404.641	285.55
405.086	285.55
405.532	313.63
405.977	313.63
406.422	297.25
406.867	332.36
407.312	266.82
407.757	285.55
408.202	355.76
408.647	318.31
409.092	351.08
409.537	257.46
409.982	290.23
410.426	311.29
410.871	344.06
411.316	337.04
411.76	327.67
412.205	283.2
412.649	320.65
413.093	276.18
413.538	339.38
413.982	306.61
414.426	348.74
414.87	273.84
415.314	313.63
415.758	339.38
416.202	262.14
416.646	376.83
417.09	245.76
417.534	355.76
417.978	259.8
418.421	306.61
418.865	292.57
419.309	390.87
419.752	301.93
420.196	341.72
420.639	290.23
421.083	348.74
421.526	318.31
421.969	306.61
422.412	290.23
422.856	325.33
423.299	348.74
423.742	315.97
424.185	266.82
424.628	330.02
425.071	327.67
425.513	292.57
425.956	327.67
426.399	322.99
426.842	311.29
427.284	292.57
427.727	344.06
428.169	259.8
428.612	299.59
429.054	311.29
429.497	287.89
429.939	313.63
430.381	322.99
430.823	255.12
431.265	287.89
431.707	332.36
432.149	271.5
432.591	332.36
433.033	362.78
433.475	304.27
433.917	299.59
434.359	320.65
434.8	351.08
435.242	294.91
435.684	355.76
436.125	278.52
436.567	273.84
437.008	318.31
437.449	299.59
437.891	306.61
438.332	280.86
438.773	306.61
439.214	320.65
439.656	250.44
440.097	257.46
440.538	325.33
440.978	327.67
441.419	227.03
441.86	346.4
442.301	337.04
442.742	355.76
443.182	334.7
443.623	372.15
444.063	306.61
444.504	301.93
444.944	306.61
445.385	299.59
445.825	280.86
446.265	285.55
446.706	311.29
447.146	332.36
447.586	287.89
448.026	386.19
448.466	285.55
448.906	325.33
449.346	341.72
449.786	308.95
450.225	287.89
450.665	341.72
451.105	341.72
451.544	360.44
451.984	320.65
452.424	299.59
452.863	229.37
453.302	285.55
453.742	304.27
454.181	325.33
454.62	301.93
455.059	322.99
455.499	243.42
455.938	290.23
456.377	365.12
456.816	344.06
457.254	308.95
457.693	339.38
458.132	292.57
458.571	292.57
459.01	332.36
459.448	325.33
459.887	292.57
460.325	339.38
460.764	278.52
461.202	327.67
461.641	313.63
462.079	362.78
462.517	292.57
462.955	257.46
463.393	325.33
463.832	308.95
464.27	294.91
464.708	292.57
465.145	369.8
465.583	327.67
466.021	344.06
466.459	313.63
466.897	330.02
467.334	365.12
467.772	334.7
468.209	280.86
468.647	294.91
469.084	241.08
469.522	264.48
469.959	341.72
470.396	367.46
470.833	337.04
471.271	285.55
471.708	292.57
472.145	299.59
472.582	320.65
473.019	348.74
473.456	365.12
473.892	283.2
474.329	334.7
474.766	306.61
475.202	297.25
475.639	372.15
476.076	292.57
476.512	308.95
476.949	322.99
477.385	318.31
477.821	299.59
478.258	344.06
478.694	245.76
479.13	318.31
479.566	311.29
480.002	278.52
480.438	271.5
480.874	255.12
481.31	264.48
481.746	283.2
482.181	360.44
482.617	301.93
483.053	292.57
483.488	264.48
483.924	344.06
484.36	332.36
484.795	297.25
485.23	320.65
485.666	315.97
486.101	322.99
486.536	252.78
486.971	308.95
487.407	273.84
487.842	337.04
488.277	262.14
488.712	301.93
489.146	325.33
489.581	278.52
490.016	301.93
490.451	283.2
490.885	287.89
491.32	308.95
491.755	351.08
492.189	273.84
492.624	273.84
493.058	257.46
493.492	297.25
493.927	257.46
494.361	334.7
494.795	325.33
495.229	308.95
495.663	346.4
496.097	337.04
496.531	341.72
496.965	257.46
497.399	301.93
497.833	255.12
498.266	264.48
498.7	322.99
499.134	304.27
499.567	301.93
500.001	381.51
500.434	320.65
500.868	299.59
501.301	248.1
501.734	372.15
502.168	290.23
502.601	283.2
503.034	241.08
503.467	322.99
503.9	280.86
504.333	358.1
504.766	344.06
505.199	266.82
505.632	332.36
506.064	334.7
506.497	344.06
506.93	327.67
507.362	304.27
507.795	304.27
508.227	332.36
508.66	332.36
509.092	348.74
509.524	280.86
509.956	304.27
510.389	280.86
510.821	299.59
511.253	250.44
511.685	255.12
512.117	294.91
512.549	292.57
512.981	278.52
513.412	337.04
513.844	287.89
514.276	346.4
514.707	278.52
515.139	257.46
515.571	311.29
516.002	308.95
516.433	269.16
516.865	252.78
517.296	365.12
517.727	250.44
518.159	348.74
518.59	332.36
519.021	306.61
519.452	320.65
519.883	299.59
520.314	283.2
520.744	308.95
521.175	355.76
521.606	334.7
522.037	325.33
522.467	278.52
522.898	306.61
523.328	315.97
523.759	341.72
524.189	248.1
524.62	308.95
525.05	299.59
525.48	332.36
525.91	346.4
526.341	299.59
526.771	311.29
527.201	283.2
527.631	318.31
528.061	306.61
528.49	273.84
528.92	227.03
529.35	315.97
529.78	362.78
530.209	327.67
530.639	330.02
531.068	306.61
531.498	360.44
531.927	238.73
532.357	367.46
532.786	245.76
533.215	318.31
533.644	346.4
534.074	313.63
534.503	269.16
534.932	301.93
535.361	311.29
535.79	358.1
536.218	407.25
536.647	290.23
537.076	273.84
537.505	269.16
537.933	273.84
538.362	327.67
538.79	330.02
539.219	362.78
539.647	337.04
540.076	362.78
540.504	292.57
540.932	287.89
541.36	322.99
541.788	315.97
542.217	304.27
542.645	334.7
543.073	374.49
543.5	229.37
543.928	313.63
544.356	308.95
544.784	313.63
545.211	325.33
545.639	341.72
546.067	290.23
546.494	367.46
546.922	299.59
547.349	290.23
547.776	299.59
548.204	278.52
548.631	344.06
549.058	245.76
549.485	259.8
549.912	269.16
550.339	322.99
550.766	355.76
551.193	372.15
551.62	280.86
552.047	271.5
552.474	266.82
552.9	301.93
553.327	318.31
553.754	348.74
554.18	283.2
554.607	280.86
555.033	315.97
555.459	306.61
555.886	306.61
556.312	297.25
556.738	301.93
557.164	374.49
557.59	276.18
558.016	313.63
558.442	290.23
558.868	320.65
559.294	311.29
559.72	379.17
560.145	425.98
560.571	311.29
560.997	334.7
561.422	367.46
561.848	346.4
562.273	327.67
562.699	292.57
563.124	294.91
563.549	320.65
563.974	330.02
564.4	306.61
564.825	278.52
565.25	369.8
565.675	348.74
566.1	315.97
566.525	266.82
566.95	337.04
567.374	322.99
567.799	264.48
568.224	294.91
568.648	276.18
569.073	362.78
569.497	322.99
569.922	301.93
570.346	308.95
570.771	304.27
571.195	346.4
571.619	248.1
572.043	358.1
572.467	353.42
572.891	346.4
573.315	320.65
573.739	299.59
574.163	278.52
574.587	313.63
575.011	241.08
575.435	301.93
575.858	311.29
576.282	299.59
576.705	252.78
577.129	313.63
577.552	362.78
577.976	283.2
578.399	344.06
578.822	311.29
579.245	313.63
579.669	313.63
580.092	301.93
580.515	355.76
580.938	344.06
581.361	341.72
581.784	294.91
582.206	334.7
582.629	273.84
583.052	351.08
583.474	360.44
583.897	351.08
584.32	341.72
584.742	334.7
585.165	294.91
585.587	341.72
586.009	318.31
586.431	313.63
586.854	257.46
587.276	271.5
587.698	280.86
588.12	334.7
588.542	238.73
588.964	299.59
589.386	330.02
589.807	231.71
590.229	299.59
590.651	304.27
591.073	278.52
591.494	311.29
591.916	276.18
592.337	330.02
592.759	318.31
593.18	332.36
593.601	283.2
594.022	262.14
594.444	348.74
594.865	301.93
595.286	322.99
595.707	273.84
596.128	273.84
596.549	339.38
596.97	353.42
597.39	318.31
597.811	259.8
598.232	255.12
598.652	306.61
599.073	252.78
599.494	264.48
599.914	266.82
600.334	358.1
600.755	271.5
601.175	330.02
601.595	334.7
602.015	337.04
602.436	264.48
602.856	423.64
603.276	330.02
603.696	294.91
604.115	330.02
604.535	287.89
604.955	283.2
605.375	330.02
605.794	304.27
606.214	269.16
606.634	234.05
607.053	325.33
607.473	287.89
607.892	285.55
608.311	351.08
608.731	320.65
609.15	318.31
609.569	280.86
609.988	346.4
610.407	276.18
610.826	297.25
611.245	301.93
611.664	358.1
612.083	306.61
612.501	337.04
612.92	341.72
613.339	292.57
613.757	334.7
614.176	360.44
614.594	339.38
615.013	318.31
615.431	334.7
615.85	299.59
616.268	299.59
616.686	339.38
617.104	334.7
617.522	262.14
617.94	269.16
618.358	306.61
618.776	269.16
619.194	262.14
619.612	315.97
620.03	332.36
620.447	290.23
620.865	313.63
621.282	255.12
621.7	299.59
622.117	304.27
622.535	306.61
622.952	341.72
623.369	376.83
623.787	339.38
624.204	322.99
624.621	280.86
625.038	318.31
625.455	311.29
625.872	287.89
626.289	248.1
626.706	348.74
627.123	278.52
627.539	273.84
627.956	313.63
628.373	285.55
628.789	320.65
629.206	271.5
629.622	301.93
630.038	346.4
630.455	285.55
630.871	330.02
631.287	320.65
631.703	269.16
632.12	297.25
632.536	313.63
632.952	325.33
633.368	292.57
633.783	290.23
634.199	327.67
634.615	313.63
635.031	229.37
635.446	287.89
635.862	348.74
636.277	367.46
636.693	304.27
637.108	257.46
637.524	346.4
637.939	283.2
638.354	297.25
638.77	210.65
639.185	308.95
639.6	325.33
640.015	255.12
640.43	318.31
640.845	355.76
641.259	306.61
641.674	276.18
642.089	264.48
642.504	287.89
642.918	325.33
643.333	248.1
643.747	294.91
644.162	334.7
644.576	285.55
644.991	266.82
645.405	285.55
645.819	318.31
646.233	285.55
646.647	290.23
647.061	322.99
647.475	262.14
647.889	259.8
648.303	234.05
648.717	311.29
649.131	313.63
649.545	217.67
649.958	285.55
650.372	325.33
650.785	297.25
651.199	337.04
651.612	339.38
652.026	280.86
652.439	341.72
652.852	262.14
653.266	283.2
653.679	348.74
654.092	301.93
654.505	252.78
654.918	306.61
655.331	255.12
655.744	306.61
656.156	306.61
656.569	362.78
656.982	257.46
657.394	334.7
657.807	252.78
658.22	308.95
658.632	346.4
659.044	266.82
659.457	337.04
659.869	306.61
660.281	315.97
660.693	287.89
661.106	341.72
661.518	344.06
661.93	308.95
662.342	393.21
662.754	360.44
663.165	355.76
663.577	290.23
663.989	344.06
664.401	245.76
664.812	332.36
665.224	292.57
665.635	334.7
666.047	318.31
666.458	330.02
666.869	322.99
667.281	325.33
667.692	322.99
668.103	287.89
668.514	283.2
668.925	332.36
669.336	318.31
669.747	229.37
670.158	365.12
670.569	404.91
670.979	341.72
671.39	315.97
671.801	252.78
672.211	301.93
672.622	273.84
673.032	374.49
673.443	327.67
673.853	306.61
674.263	344.06
674.674	372.15
675.084	334.7
675.494	301.93
675.904	299.59
676.314	313.63
676.724	332.36
677.134	318.31
677.544	344.06
677.953	358.1
678.363	332.36
678.773	351.08
679.182	334.7
679.592	290.23
680.001	283.2
680.411	294.91
680.82	252.78
681.23	285.55
681.639	315.97
682.048	320.65
682.457	299.59
682.866	362.78
683.275	294.91
683.684	248.1
684.093	264.48
684.502	325.33
684.911	294.91
685.32	346.4
685.728	341.72
686.137	358.1
686.546	327.67
686.954	313.63
687.363	269.16
687.771	318.31
688.179	287.89
688.588	287.89
688.996	285.55
689.404	308.95
689.812	348.74
690.22	313.63
690.628	308.95
691.036	337.04
691.444	344.06
691.852	301.93
692.26	304.27
692.667	250.44
693.075	315.97
693.483	327.67
693.89	273.84
694.298	271.5
694.705	271.5
695.112	313.63
695.52	367.46
695.927	311.29
696.334	250.44
696.741	264.48
697.148	327.67
697.555	320.65
697.962	306.61
698.369	332.36
698.776	306.61
699.183	292.57
699.59	292.57
699.996	337.04
700.403	308.95
700.81	355.76
701.216	353.42
701.623	236.39
702.029	297.25
702.435	344.06
702.842	334.7
703.248	304.27
703.654	311.29
704.06	304.27
704.466	337.04
704.872	290.23
705.278	262.14
705.684	311.29
706.09	318.31
706.496	278.52
706.901	306.61
707.307	269.16
707.712	278.52
708.118	306.61
708.523	332.36
708.929	313.63
709.334	346.4
709.74	318.31
710.145	285.55
710.55	318.31
710.955	332.36
711.36	330.02
711.765	325.33
712.17	337.04
712.575	306.61
712.98	880.04
713.385	362.78
713.789	299.59
714.194	287.89
714.599	262.14
715.003	283.2
715.408	276.18
715.812	241.08
716.217	313.63
716.621	367.46
717.025	320.65
717.429	318.31
717.833	337.04
718.238	238.73
718.642	315.97
719.046	311.29
719.449	320.65
719.853	297.25
720.257	332.36
720.661	266.82
721.065	259.8
721.468	306.61
721.872	341.72
722.275	332.36
722.679	304.27
723.082	266.82
723.485	257.46
723.889	271.5
724.292	327.67
724.695	322.99
725.098	388.53
725.501	294.91
725.904	287.89
726.307	287.89
726.71	308.95
727.113	304.27
727.516	257.46
727.918	280.86
728.321	304.27
728.724	273.84
729.126	248.1
729.529	341.72
729.931	311.29
730.333	318.31
730.736	301.93
731.138	318.31
731.54	337.04
731.942	227.03
732.344	283.2
732.746	325.33
733.148	306.61
733.55	330.02
733.952	315.97
734.354	334.7
734.756	318.31
735.157	374.49
735.559	222.35
735.96	318.31
736.362	299.59
736.763	283.2
737.165	273.84
737.566	276.18
737.967	362.78
738.368	301.93
738.77	348.74
739.171	306.61
739.572	397.89
739.973	337.04
740.374	273.84
740.774	311.29
741.175	327.67
741.576	266.82
741.977	353.42
742.377	330.02
742.778	311.29
743.178	358.1
743.579	393.21
743.979	304.27
744.379	348.74
744.78	292.57
745.18	348.74
745.58	306.61
745.98	262.14
746.38	250.44
746.78	250.44
747.18	264.48
747.58	332.36
747.98	339.38
748.38	294.91
748.779	308.95
749.179	372.15
749.578	351.08
749.978	236.39
750.377	276.18
750.777	315.97
751.176	393.21
751.575	313.63
751.975	278.52
752.374	346.4
752.773	248.1
753.172	311.29
753.571	224.69
753.97	313.63
754.369	306.61
754.768	280.86
755.166	381.51
755.565	283.2
755.964	308.95
756.362	393.21
756.761	297.25
757.159	266.82
757.558	334.7
757.956	372.15
758.354	330.02
758.753	299.59
759.151	355.76
759.549	280.86
759.947	280.86
760.345	255.12
760.743	264.48
761.141	301.93
761.539	311.29
761.936	334.7
762.334	330.02
762.732	320.65
763.129	344.06
763.527	283.2
763.924	243.42
764.322	315.97
764.719	330.02
765.117	341.72
