Data from Al_FLMS009871__752__15-15-03-126.txt Node

Date: Fri Mar 08 15:15:03 CST 2024
User: pe5414po
Spectrometer: FLMS00987
Trigger mode: 0
Integration Time (sec): 1.000000E-1
Scans to average: 1
Electric dark correction enabled: true
Nonlinearity correction enabled: false
Boxcar width: 0
XAxis mode: Wavelengths
Number of Pixels in Spectrum: 2048
>>>>>Begin Spectral Data<<<<<
188.938	-112.64
189.409	-112.64
189.879	-112.64
190.349	-100.94
190.819	-35.4
191.29	-129.02
191.76	-79.87
192.23	-79.87
192.7	-75.19
193.17	-93.91
193.64	-61.15
194.109	4.39
194.579	27.79
195.049	16.09
195.519	58.22
195.988	46.52
196.458	51.2
196.927	48.86
197.397	119.07
197.866	121.42
198.336	25.45
198.805	163.54
199.274	121.42
199.744	203.33
200.213	259.51
200.682	259.51
201.151	144.82
201.62	264.19
202.089	198.65
202.558	320.36
203.027	278.23
203.495	289.93
203.964	313.34
204.433	280.57
204.902	322.7
205.37	315.68
205.839	339.09
206.307	285.25
206.776	296.96
207.244	369.51
207.712	273.55
208.181	327.38
208.649	299.3
209.117	278.23
209.585	341.43
210.053	229.08
210.521	287.59
210.989	254.83
211.457	315.68
211.925	308.66
212.393	308.66
212.861	236.1
213.328	215.04
213.796	268.87
214.264	311
214.731	311
215.199	289.93
215.666	287.59
216.133	240.78
216.601	257.17
217.068	285.25
217.535	292.27
218.003	282.91
218.47	264.19
218.937	327.38
219.404	261.85
219.871	318.02
220.338	289.93
220.805	313.34
221.271	348.45
221.738	278.23
222.205	254.83
222.671	222.06
223.138	186.95
223.605	313.34
224.071	292.27
224.538	303.98
225.004	334.4
225.47	254.83
225.937	308.66
226.403	243.12
226.869	318.02
227.335	240.78
227.801	271.21
228.267	264.19
228.733	339.09
229.199	306.32
229.665	259.51
230.131	278.23
230.597	275.89
231.062	271.21
231.528	296.96
231.994	245.46
232.459	301.64
232.925	261.85
233.39	236.1
233.856	301.64
234.321	289.93
234.786	243.12
235.252	278.23
235.717	285.25
236.182	261.85
236.647	273.55
237.112	287.59
237.577	217.38
238.042	275.89
238.507	306.32
238.972	299.3
239.436	254.83
239.901	280.57
240.366	327.38
240.83	259.51
241.295	301.64
241.76	257.17
242.224	301.64
242.688	315.68
243.153	339.09
243.617	303.98
244.081	275.89
244.545	294.61
245.01	268.87
245.474	336.74
245.938	308.66
246.402	322.7
246.866	243.12
247.33	287.59
247.793	353.13
248.257	348.45
248.721	247.8
249.185	287.59
249.648	311
250.112	282.91
250.575	313.34
251.039	271.21
251.502	278.23
251.965	280.57
252.429	355.47
252.892	261.85
253.355	329.72
253.818	254.83
254.281	278.23
254.744	301.64
255.207	259.51
255.67	327.38
256.133	327.38
256.596	296.96
257.059	313.34
257.522	254.83
257.984	268.87
258.447	315.68
258.909	306.32
259.372	303.98
259.834	257.17
260.297	329.72
260.759	259.51
261.221	268.87
261.684	308.66
262.146	355.47
262.608	350.79
263.07	311
263.532	250.14
263.994	278.23
264.456	339.09
264.918	285.25
265.38	271.21
265.842	264.19
266.303	296.96
266.765	350.79
267.227	318.02
267.688	325.04
268.15	294.61
268.611	222.06
269.072	280.57
269.534	268.87
269.995	334.4
270.456	289.93
270.918	306.32
271.379	287.59
271.84	296.96
272.301	282.91
272.762	287.59
273.223	259.51
273.684	376.53
274.144	278.23
274.605	313.34
275.066	268.87
275.527	329.72
275.987	322.7
276.448	296.96
276.908	318.02
277.369	259.51
277.829	275.89
278.289	294.61
278.75	254.83
279.21	329.72
279.67	296.96
280.13	322.7
280.59	303.98
281.05	313.34
281.51	285.25
281.97	282.91
282.43	261.85
282.89	285.25
283.35	303.98
283.809	322.7
284.269	303.98
284.729	325.04
285.188	308.66
285.648	252.49
286.107	257.17
286.567	275.89
287.026	315.68
287.485	306.32
287.944	268.87
288.404	280.57
288.863	289.93
289.322	320.36
289.781	296.96
290.24	282.91
290.699	254.83
291.158	287.59
291.616	322.7
292.075	329.72
292.534	289.93
292.992	285.25
293.451	292.27
293.91	299.3
294.368	322.7
294.827	325.04
295.285	299.3
295.743	308.66
296.202	287.59
296.66	346.11
297.118	357.81
297.576	371.85
298.034	259.51
298.492	301.64
298.95	339.09
299.408	261.85
299.866	339.09
300.324	334.4
300.781	285.25
301.239	332.06
301.697	264.19
302.154	247.8
302.612	320.36
303.069	266.53
303.527	350.79
303.984	229.08
304.441	322.7
304.899	271.21
305.356	313.34
305.813	336.74
306.27	313.34
306.727	285.25
307.184	250.14
307.641	294.61
308.098	348.45
308.555	341.43
309.012	318.02
309.468	273.55
309.925	313.34
310.382	261.85
310.838	318.02
311.295	311
311.751	318.02
312.208	313.34
312.664	311
313.12	320.36
313.577	369.51
314.033	311
314.489	313.34
314.945	280.57
315.401	313.34
315.857	318.02
316.313	327.38
316.769	294.61
317.225	311
317.681	313.34
318.136	292.27
318.592	306.32
319.048	336.74
319.503	332.06
319.959	360.15
320.414	303.98
320.869	334.4
321.325	264.19
321.78	285.25
322.235	318.02
322.691	285.25
323.146	278.23
323.601	350.79
324.056	303.98
324.511	376.53
324.966	355.47
325.421	292.27
325.875	252.49
326.33	350.79
326.785	322.7
327.24	334.4
327.694	289.93
328.149	311
328.603	346.11
329.058	299.3
329.512	329.72
329.966	315.68
330.421	252.49
330.875	381.21
331.329	292.27
331.783	294.61
332.237	292.27
332.691	292.27
333.145	353.13
333.599	261.85
334.053	266.53
334.507	374.19
334.96	299.3
335.414	311
335.868	296.96
336.321	383.56
336.775	357.81
337.228	301.64
337.682	327.38
338.135	311
338.588	320.36
339.042	313.34
339.495	378.87
339.948	320.36
340.401	275.89
340.854	336.74
341.307	289.93
341.76	299.3
342.213	280.57
342.666	341.43
343.119	362.49
343.571	315.68
344.024	367.17
344.477	367.17
344.929	322.7
345.382	311
345.834	282.91
346.287	322.7
346.739	350.79
347.191	289.93
347.644	303.98
348.096	313.34
348.548	369.51
349	308.66
349.452	292.27
349.904	360.15
350.356	322.7
350.808	364.83
351.26	334.4
351.711	299.3
352.163	313.34
352.615	346.11
353.066	292.27
353.518	301.64
353.969	292.27
354.421	318.02
354.872	325.04
355.324	285.25
355.775	369.51
356.226	369.51
356.677	301.64
357.128	296.96
357.579	275.89
358.03	294.61
358.481	318.02
358.932	336.74
359.383	357.81
359.834	341.43
360.285	299.3
360.735	343.77
361.186	371.85
361.637	346.11
362.087	374.19
362.538	329.72
362.988	287.59
363.438	329.72
363.889	306.32
364.339	362.49
364.789	346.11
365.239	236.1
365.689	336.74
366.139	399.94
366.589	236.1
367.039	268.87
367.489	332.06
367.939	320.36
368.389	339.09
368.839	308.66
369.288	339.09
369.738	289.93
370.187	266.53
370.637	299.3
371.086	250.14
371.536	341.43
371.985	301.64
372.434	336.74
372.884	367.17
373.333	306.32
373.782	308.66
374.231	332.06
374.68	325.04
375.129	346.11
375.578	273.55
376.027	301.64
376.475	285.25
376.924	282.91
377.373	353.13
377.822	275.89
378.27	346.11
378.719	336.74
379.167	322.7
379.616	325.04
380.064	327.38
380.512	325.04
380.961	245.46
381.409	303.98
381.857	334.4
382.305	320.36
382.753	320.36
383.201	280.57
383.649	294.61
384.097	273.55
384.545	350.79
384.992	378.87
385.44	367.17
385.888	336.74
386.335	374.19
386.783	360.15
387.231	299.3
387.678	322.7
388.125	315.68
388.573	320.36
389.02	285.25
389.467	367.17
389.914	313.34
390.362	334.4
390.809	271.21
391.256	346.11
391.703	303.98
392.15	360.15
392.596	339.09
393.043	292.27
393.49	339.09
393.937	341.43
394.383	280.57
394.83	360.15
395.276	303.98
395.723	392.92
396.169	289.93
396.616	367.17
397.062	313.34
397.508	327.38
397.954	371.85
398.401	371.85
398.847	332.06
399.293	299.3
399.739	329.72
400.185	353.13
400.631	371.85
401.076	364.83
401.522	287.59
401.968	327.38
402.414	250.14
402.859	339.09
403.305	329.72
403.75	292.27
404.196	287.59
404.641	320.36
405.086	303.98
405.532	341.43
405.977	336.74
406.422	348.45
406.867	318.02
407.312	350.79
407.757	308.66
408.202	315.68
408.647	336.74
409.092	301.64
409.537	299.3
409.982	381.21
410.426	320.36
410.871	306.32
411.316	369.51
411.76	254.83
412.205	301.64
412.649	336.74
413.093	296.96
413.538	336.74
413.982	327.38
414.426	341.43
414.87	311
415.314	325.04
415.758	306.32
416.202	301.64
416.646	364.83
417.09	299.3
417.534	334.4
417.978	320.36
418.421	336.74
418.865	325.04
419.309	320.36
419.752	385.9
420.196	332.06
420.639	348.45
421.083	334.4
421.526	332.06
421.969	299.3
422.412	355.47
422.856	336.74
423.299	343.77
423.742	332.06
424.185	287.59
424.628	325.04
425.071	329.72
425.513	399.94
425.956	303.98
426.399	301.64
426.842	301.64
427.284	318.02
427.727	278.23
428.169	360.15
428.612	275.89
429.054	322.7
429.497	315.68
429.939	250.14
430.381	257.17
430.823	355.47
431.265	275.89
431.707	343.77
432.149	329.72
432.591	336.74
433.033	395.26
433.475	364.83
433.917	292.27
434.359	294.61
434.8	254.83
435.242	313.34
435.684	306.32
436.125	350.79
436.567	252.49
437.008	327.38
437.449	243.12
437.891	301.64
438.332	364.83
438.773	362.49
439.214	325.04
439.656	353.13
440.097	322.7
440.538	320.36
440.978	353.13
441.419	334.4
441.86	306.32
442.301	308.66
442.742	346.11
443.182	362.49
443.623	278.23
444.063	273.55
444.504	353.13
444.944	273.55
445.385	240.78
445.825	264.19
446.265	280.57
446.706	301.64
447.146	327.38
447.586	287.59
448.026	369.51
448.466	311
448.906	252.49
449.346	320.36
449.786	315.68
450.225	327.38
450.665	294.61
451.105	306.32
451.544	383.56
451.984	311
452.424	348.45
452.863	341.43
453.302	339.09
453.742	315.68
454.181	303.98
454.62	318.02
455.059	346.11
455.499	261.85
455.938	296.96
456.377	327.38
456.816	306.32
457.254	320.36
457.693	329.72
458.132	287.59
458.571	376.53
459.01	311
459.448	299.3
459.887	322.7
460.325	357.81
460.764	322.7
461.202	303.98
461.641	301.64
462.079	280.57
462.517	327.38
462.955	313.34
463.393	289.93
463.832	332.06
464.27	353.13
464.708	311
465.145	299.3
465.583	292.27
466.021	341.43
466.459	273.55
466.897	299.3
467.334	343.77
467.772	332.06
468.209	332.06
468.647	313.34
469.084	329.72
469.522	376.53
469.959	275.89
470.396	308.66
470.833	322.7
471.271	275.89
471.708	327.38
472.145	327.38
472.582	301.64
473.019	322.7
473.456	364.83
473.892	334.4
474.329	334.4
474.766	374.19
475.202	289.93
475.639	348.45
476.076	325.04
476.512	268.87
476.949	306.32
477.385	367.17
477.821	336.74
478.258	296.96
478.694	367.17
479.13	357.81
479.566	360.15
480.002	353.13
480.438	367.17
480.874	350.79
481.31	388.24
481.746	271.21
482.181	348.45
482.617	289.93
483.053	285.25
483.488	327.38
483.924	315.68
484.36	341.43
484.795	311
485.23	411.64
485.666	301.64
486.101	339.09
486.536	299.3
486.971	308.66
487.407	273.55
487.842	285.25
488.277	332.06
488.712	334.4
489.146	287.59
489.581	336.74
490.016	285.25
490.451	285.25
490.885	287.59
491.32	296.96
491.755	329.72
492.189	318.02
492.624	355.47
493.058	418.66
493.492	292.27
493.927	332.06
494.361	353.13
494.795	320.36
495.229	320.36
495.663	303.98
496.097	341.43
496.531	353.13
496.965	294.61
497.399	327.38
497.833	289.93
498.266	374.19
498.7	315.68
499.134	318.02
499.567	343.77
500.001	222.06
500.434	329.72
500.868	381.21
501.301	301.64
501.734	273.55
502.168	339.09
502.601	299.3
503.034	371.85
503.467	243.12
503.9	332.06
504.333	313.34
504.766	311
505.199	334.4
505.632	282.91
506.064	289.93
506.497	350.79
506.93	308.66
507.362	320.36
507.795	318.02
508.227	367.17
508.66	350.79
509.092	376.53
509.524	313.34
509.956	268.87
510.389	322.7
510.821	421
511.253	322.7
511.685	271.21
512.117	315.68
512.549	289.93
512.981	381.21
513.412	346.11
513.844	306.32
514.276	334.4
514.707	259.51
515.139	320.36
515.571	296.96
516.002	353.13
516.433	343.77
516.865	287.59
517.296	308.66
517.727	371.85
518.159	320.36
518.59	362.49
519.021	329.72
519.452	343.77
519.883	282.91
520.314	336.74
520.744	259.51
521.175	355.47
521.606	301.64
522.037	364.83
522.467	329.72
522.898	292.27
523.328	320.36
523.759	397.6
524.189	292.27
524.62	327.38
525.05	332.06
525.48	360.15
525.91	327.38
526.341	332.06
526.771	273.55
527.201	322.7
527.631	280.57
528.061	282.91
528.49	374.19
528.92	327.38
529.35	299.3
529.78	334.4
530.209	341.43
530.639	287.59
531.068	353.13
531.498	273.55
531.927	287.59
532.357	303.98
532.786	362.49
533.215	320.36
533.644	275.89
534.074	306.32
534.503	303.98
534.932	339.09
535.361	350.79
535.79	322.7
536.218	292.27
536.647	289.93
537.076	308.66
537.505	266.53
537.933	271.21
538.362	341.43
538.79	278.23
539.219	311
539.647	308.66
540.076	367.17
540.504	322.7
540.932	329.72
541.36	303.98
541.788	362.49
542.217	327.38
542.645	336.74
543.073	341.43
543.5	369.51
543.928	357.81
544.356	329.72
544.784	296.96
545.211	303.98
545.639	322.7
546.067	346.11
546.494	364.83
546.922	292.27
547.349	275.89
547.776	355.47
548.204	325.04
548.631	325.04
549.058	289.93
549.485	318.02
549.912	320.36
550.339	343.77
550.766	357.81
551.193	315.68
551.62	390.58
552.047	355.47
552.474	381.21
552.9	318.02
553.327	315.68
553.754	301.64
554.18	343.77
554.607	264.19
555.033	348.45
555.459	348.45
555.886	402.28
556.312	301.64
556.738	308.66
557.164	322.7
557.59	346.11
558.016	325.04
558.442	285.25
558.868	301.64
559.294	336.74
559.72	348.45
560.145	315.68
560.571	289.93
560.997	313.34
561.422	371.85
561.848	303.98
562.273	339.09
562.699	329.72
563.124	355.47
563.549	367.17
563.974	355.47
564.4	275.89
564.825	280.57
565.25	353.13
565.675	313.34
566.1	250.14
566.525	308.66
566.95	390.58
567.374	320.36
567.799	341.43
568.224	315.68
568.648	282.91
569.073	367.17
569.497	299.3
569.922	322.7
570.346	348.45
570.771	341.43
571.195	289.93
571.619	329.72
572.043	280.57
572.467	318.02
572.891	360.15
573.315	287.59
573.739	318.02
574.163	250.14
574.587	320.36
575.011	350.79
575.435	282.91
575.858	432.71
576.282	371.85
576.705	346.11
577.129	411.64
577.552	313.34
577.976	285.25
578.399	254.83
578.822	376.53
579.245	348.45
579.669	322.7
580.092	280.57
580.515	346.11
580.938	332.06
581.361	280.57
581.784	350.79
582.206	376.53
582.629	329.72
583.052	275.89
583.474	296.96
583.897	271.21
584.32	411.64
584.742	336.74
585.165	388.24
585.587	315.68
586.009	240.78
586.431	353.13
586.854	325.04
587.276	271.21
587.698	343.77
588.12	339.09
588.542	348.45
588.964	385.9
589.386	259.51
589.807	325.04
590.229	360.15
590.651	294.61
591.073	374.19
591.494	301.64
591.916	306.32
592.337	378.87
592.759	289.93
593.18	343.77
593.601	271.21
594.022	320.36
594.444	308.66
594.865	404.62
595.286	339.09
595.707	353.13
596.128	275.89
596.549	301.64
596.97	378.87
597.39	336.74
597.811	325.04
598.232	327.38
598.652	271.21
599.073	374.19
599.494	311
599.914	296.96
600.334	348.45
600.755	339.09
601.175	362.49
601.595	299.3
602.015	334.4
602.436	369.51
602.856	467.81
603.276	399.94
603.696	292.27
604.115	343.77
604.535	369.51
604.955	329.72
605.375	301.64
605.794	360.15
606.214	296.96
606.634	327.38
607.053	355.47
607.473	392.92
607.892	313.34
608.311	311
608.731	371.85
609.15	301.64
609.569	287.59
609.988	369.51
610.407	341.43
610.826	287.59
611.245	299.3
611.664	334.4
612.083	341.43
612.501	341.43
612.92	348.45
613.339	348.45
613.757	296.96
614.176	360.15
614.594	318.02
615.013	285.25
615.431	355.47
615.85	296.96
616.268	327.38
616.686	282.91
617.104	299.3
617.522	315.68
617.94	339.09
618.358	273.55
618.776	308.66
619.194	362.49
619.612	236.1
620.03	303.98
620.447	327.38
620.865	334.4
621.282	259.51
621.7	364.83
622.117	327.38
622.535	320.36
622.952	381.21
623.369	320.36
623.787	278.23
624.204	334.4
624.621	355.47
625.038	282.91
625.455	336.74
625.872	334.4
626.289	320.36
626.706	329.72
627.123	350.79
627.539	315.68
627.956	339.09
628.373	364.83
628.789	378.87
629.206	308.66
629.622	329.72
630.038	327.38
630.455	334.4
630.871	350.79
631.287	339.09
631.703	299.3
632.12	282.91
632.536	306.32
632.952	243.12
633.368	360.15
633.783	306.32
634.199	252.49
634.615	367.17
635.031	320.36
635.446	275.89
635.862	362.49
636.277	362.49
636.693	346.11
637.108	322.7
637.524	364.83
637.939	343.77
638.354	353.13
638.77	315.68
639.185	327.38
639.6	292.27
640.015	385.9
640.43	315.68
640.845	264.19
641.259	254.83
641.674	299.3
642.089	266.53
642.504	245.46
642.918	332.06
643.333	360.15
643.747	320.36
644.162	327.38
644.576	336.74
644.991	364.83
645.405	308.66
645.819	336.74
646.233	353.13
646.647	348.45
647.061	282.91
647.475	296.96
647.889	282.91
648.303	348.45
648.717	336.74
649.131	308.66
649.545	385.9
649.958	350.79
650.372	322.7
650.785	376.53
651.199	320.36
651.612	294.61
652.026	289.93
652.439	341.43
652.852	341.43
653.266	383.56
653.679	327.38
654.092	296.96
654.505	350.79
654.918	285.25
655.331	311
655.744	353.13
656.156	315.68
656.569	350.79
656.982	303.98
657.394	360.15
657.807	329.72
658.22	296.96
658.632	360.15
659.044	364.83
659.457	318.02
659.869	332.06
660.281	357.81
660.693	360.15
661.106	334.4
661.518	301.64
661.93	322.7
662.342	332.06
662.754	299.3
663.165	334.4
663.577	280.57
663.989	336.74
664.401	318.02
664.812	334.4
665.224	343.77
665.635	339.09
666.047	325.04
666.458	306.32
666.869	329.72
667.281	287.59
667.692	369.51
668.103	325.04
668.514	301.64
668.925	369.51
669.336	381.21
669.747	374.19
670.158	259.51
670.569	388.24
670.979	350.79
671.39	362.49
671.801	259.51
672.211	306.32
672.622	318.02
673.032	388.24
673.443	329.72
673.853	311
674.263	348.45
674.674	371.85
675.084	341.43
675.494	332.06
675.904	350.79
676.314	322.7
676.724	296.96
677.134	327.38
677.544	355.47
677.953	303.98
678.363	341.43
678.773	409.3
679.182	353.13
679.592	306.32
680.001	308.66
680.411	360.15
680.82	362.49
681.23	306.32
681.639	311
682.048	287.59
682.457	318.02
682.866	287.59
683.275	348.45
683.684	308.66
684.093	329.72
684.502	329.72
684.911	278.23
685.32	350.79
685.728	306.32
686.137	327.38
686.546	355.47
686.954	334.4
687.363	392.92
687.771	273.55
688.179	334.4
688.588	296.96
688.996	348.45
689.404	371.85
689.812	294.61
690.22	348.45
690.628	339.09
691.036	332.06
691.444	357.81
691.852	355.47
692.26	327.38
692.667	322.7
693.075	318.02
693.483	285.25
693.89	376.53
694.298	329.72
694.705	346.11
695.112	329.72
695.52	392.92
695.927	275.89
696.334	294.61
696.741	268.87
697.148	322.7
697.555	282.91
697.962	266.53
698.369	275.89
698.776	315.68
699.183	313.34
699.59	327.38
699.996	313.34
700.403	341.43
700.81	381.21
701.216	318.02
701.623	357.81
702.029	360.15
702.435	318.02
702.842	329.72
703.248	325.04
703.654	289.93
704.06	275.89
704.466	409.3
704.872	336.74
705.278	282.91
705.684	311
706.09	303.98
706.496	320.36
706.901	381.21
707.307	332.06
707.712	280.57
708.118	303.98
708.523	308.66
708.929	390.58
709.334	341.43
709.74	432.71
710.145	336.74
710.55	320.36
710.955	381.21
711.36	322.7
711.765	350.79
712.17	325.04
712.575	341.43
712.98	797.83
713.385	378.87
713.789	275.89
714.194	339.09
714.599	336.74
715.003	299.3
715.408	275.89
715.812	299.3
716.217	322.7
716.621	287.59
717.025	381.21
717.429	224.4
717.833	348.45
718.238	285.25
718.642	325.04
719.046	273.55
719.449	254.83
719.853	364.83
720.257	327.38
720.661	339.09
721.065	303.98
721.468	313.34
721.872	292.27
722.275	343.77
722.679	341.43
723.082	294.61
723.485	289.93
723.889	308.66
724.292	301.64
724.695	303.98
725.098	318.02
725.501	325.04
725.904	311
726.307	327.38
726.71	346.11
727.113	296.96
727.516	348.45
727.918	332.06
728.321	273.55
728.724	301.64
729.126	334.4
729.529	285.25
729.931	327.38
730.333	346.11
730.736	313.34
731.138	353.13
731.54	285.25
731.942	348.45
732.344	320.36
732.746	374.19
733.148	282.91
733.55	374.19
733.952	341.43
734.354	327.38
734.756	311
735.157	285.25
735.559	329.72
735.96	261.85
736.362	334.4
736.763	392.92
737.165	346.11
737.566	294.61
737.967	231.42
738.368	301.64
738.77	381.21
739.171	311
739.572	341.43
739.973	357.81
740.374	289.93
740.774	254.83
741.175	299.3
741.576	318.02
741.977	332.06
742.377	334.4
742.778	289.93
743.178	315.68
743.579	296.96
743.979	350.79
744.379	287.59
744.78	353.13
745.18	343.77
745.58	306.32
745.98	332.06
746.38	306.32
746.78	329.72
747.18	315.68
747.58	287.59
747.98	318.02
748.38	376.53
748.779	280.57
749.179	334.4
749.578	282.91
749.978	343.77
750.377	360.15
750.777	292.27
751.176	311
751.575	332.06
751.975	287.59
752.374	322.7
752.773	402.28
753.172	350.79
753.571	341.43
753.97	250.14
754.369	229.08
754.768	268.87
755.166	369.51
755.565	318.02
755.964	296.96
756.362	350.79
756.761	296.96
757.159	336.74
757.558	348.45
757.956	339.09
758.354	332.06
758.753	385.9
759.151	296.96
759.549	257.17
759.947	336.74
760.345	397.6
760.743	308.66
761.141	329.72
761.539	308.66
761.936	334.4
762.334	303.98
762.732	339.09
763.129	303.98
763.527	287.59
763.924	325.04
764.322	346.11
764.719	294.61
765.117	313.34
765.514	385.9
765.911	273.55
766.308	339.09
766.705	299.3
767.102	318.02
