Data from Al_FLMS009871__743__15-15-02-226.txt Node

Date: Fri Mar 08 15:15:02 CST 2024
User: pe5414po
Spectrometer: FLMS00987
Trigger mode: 0
Integration Time (sec): 1.000000E-1
Scans to average: 1
Electric dark correction enabled: true
Nonlinearity correction enabled: false
Boxcar width: 0
XAxis mode: Wavelengths
Number of Pixels in Spectrum: 2048
>>>>>Begin Spectral Data<<<<<
188.938	-34.52
189.409	-34.52
189.879	-34.52
190.349	-83.67
190.819	-32.18
191.29	-83.67
191.76	-88.36
192.23	-100.06
192.7	-78.99
193.17	-86.01
193.64	-41.54
194.109	-39.2
194.579	5.27
195.049	7.61
195.519	-6.44
195.988	35.69
196.458	31.01
196.927	77.82
197.397	101.23
197.866	178.47
198.336	87.18
198.805	169.1
199.274	187.83
199.744	176.13
200.213	244
200.682	183.15
201.151	215.91
201.62	262.73
202.089	255.7
202.558	290.81
203.027	265.07
203.495	332.94
203.964	262.73
204.433	286.13
204.902	342.3
205.37	258.04
205.839	293.15
206.307	276.77
206.776	321.24
207.244	335.28
207.712	288.47
208.181	295.49
208.649	307.2
209.117	309.54
209.585	344.64
210.053	339.96
210.521	344.64
210.989	321.24
211.457	337.62
211.925	260.38
212.393	328.26
212.861	335.28
213.328	276.77
213.796	300.17
214.264	335.28
214.731	262.73
215.199	297.83
215.666	246.34
216.133	253.36
216.601	260.38
217.068	234.64
217.535	274.43
218.003	314.22
218.47	272.09
218.937	279.11
219.404	300.17
219.871	258.04
220.338	190.17
220.805	272.09
221.271	339.96
221.738	248.68
222.205	269.75
222.671	314.22
223.138	328.26
223.605	229.96
224.071	279.11
224.538	288.47
225.004	236.98
225.47	262.73
225.937	255.7
226.403	288.47
226.869	307.2
227.335	342.3
227.801	351.67
228.267	276.77
228.733	288.47
229.199	218.25
229.665	293.15
230.131	302.51
230.597	349.32
231.062	307.2
231.528	281.45
231.994	309.54
232.459	318.9
232.925	328.26
233.39	293.15
233.856	267.41
234.321	229.96
234.786	272.09
235.252	272.09
235.717	346.98
236.182	283.79
236.647	302.51
237.112	328.26
237.577	309.54
238.042	332.94
238.507	276.77
238.972	295.49
239.436	253.36
239.901	328.26
240.366	321.24
240.83	213.57
241.295	302.51
241.76	342.3
242.224	286.13
242.688	253.36
243.153	344.64
243.617	304.85
244.081	330.6
244.545	321.24
245.01	295.49
245.474	302.51
245.938	293.15
246.402	304.85
246.866	239.32
247.33	251.02
247.793	314.22
248.257	281.45
248.721	358.69
249.185	246.34
249.648	274.43
250.112	218.25
250.575	262.73
251.039	318.9
251.502	389.11
251.965	300.17
252.429	342.3
252.892	304.85
253.355	314.22
253.818	297.83
254.281	314.22
254.744	321.24
255.207	260.38
255.67	297.83
256.133	297.83
256.596	251.02
257.059	365.71
257.522	311.88
257.984	288.47
258.447	302.51
258.909	358.69
259.372	262.73
259.834	342.3
260.297	288.47
260.759	351.67
261.221	323.58
261.684	356.35
262.146	316.56
262.608	255.7
263.07	307.2
263.532	293.15
263.994	342.3
264.456	297.83
264.918	300.17
265.38	354.01
265.842	323.58
266.303	302.51
266.765	316.56
267.227	337.62
267.688	293.15
268.15	297.83
268.611	332.94
269.072	297.83
269.534	318.9
269.995	346.98
270.456	358.69
270.918	311.88
271.379	269.75
271.84	328.26
272.301	248.68
272.762	318.9
273.223	309.54
273.684	246.34
274.144	300.17
274.605	335.28
275.066	304.85
275.527	314.22
275.987	239.32
276.448	295.49
276.908	344.64
277.369	330.6
277.829	335.28
278.289	269.75
278.75	293.15
279.21	283.79
279.67	346.98
280.13	293.15
280.59	311.88
281.05	370.39
281.51	309.54
281.97	361.03
282.43	318.9
282.89	328.26
283.35	297.83
283.809	272.09
284.269	335.28
284.729	300.17
285.188	393.8
285.648	255.7
286.107	314.22
286.567	335.28
287.026	304.85
287.485	281.45
287.944	295.49
288.404	297.83
288.863	279.11
289.322	265.07
289.781	356.35
290.24	307.2
290.699	297.83
291.158	321.24
291.616	323.58
292.075	384.43
292.534	330.6
292.992	316.56
293.451	332.94
293.91	288.47
294.368	375.07
294.827	262.73
295.285	279.11
295.743	293.15
296.202	293.15
296.66	309.54
297.118	309.54
297.576	358.69
298.034	258.04
298.492	342.3
298.95	300.17
299.408	337.62
299.866	300.17
300.324	325.92
300.781	311.88
301.239	332.94
301.697	342.3
302.154	337.62
302.612	288.47
303.069	295.49
303.527	274.43
303.984	349.32
304.441	309.54
304.899	311.88
305.356	325.92
305.813	276.77
306.27	248.68
306.727	300.17
307.184	276.77
307.641	279.11
308.098	311.88
308.555	274.43
309.012	342.3
309.468	330.6
309.925	349.32
310.382	328.26
310.838	332.94
311.295	368.05
311.751	351.67
312.208	295.49
312.664	351.67
313.12	279.11
313.577	295.49
314.033	349.32
314.489	330.6
314.945	288.47
315.401	339.96
315.857	339.96
316.313	290.81
316.769	318.9
317.225	335.28
317.681	267.41
318.136	332.94
318.592	234.64
319.048	276.77
319.503	335.28
319.959	325.92
320.414	339.96
320.869	337.62
321.325	307.2
321.78	321.24
322.235	354.01
322.691	300.17
323.146	323.58
323.601	316.56
324.056	281.45
324.511	293.15
324.966	276.77
325.421	335.28
325.875	307.2
326.33	272.09
326.785	276.77
327.24	283.79
327.694	311.88
328.149	302.51
328.603	309.54
329.058	325.92
329.512	351.67
329.966	281.45
330.421	262.73
330.875	309.54
331.329	316.56
331.783	288.47
332.237	346.98
332.691	309.54
333.145	356.35
333.599	354.01
334.053	344.64
334.507	309.54
334.96	370.39
335.414	375.07
335.868	396.14
336.321	386.77
336.775	314.22
337.228	349.32
337.682	314.22
338.135	318.9
338.588	304.85
339.042	330.6
339.495	328.26
339.948	354.01
340.401	365.71
340.854	377.41
341.307	393.8
341.76	375.07
342.213	419.54
342.666	300.17
343.119	328.26
343.571	365.71
344.024	290.81
344.477	316.56
344.929	314.22
345.382	328.26
345.834	342.3
346.287	318.9
346.739	339.96
347.191	251.02
347.644	375.07
348.096	283.79
348.548	290.81
349	281.45
349.452	288.47
349.904	379.75
350.356	248.68
350.808	332.94
351.26	290.81
351.711	344.64
352.163	302.51
352.615	335.28
353.066	232.3
353.518	300.17
353.969	288.47
354.421	375.07
354.872	358.69
355.324	344.64
355.775	351.67
356.226	349.32
356.677	276.77
357.128	351.67
357.579	269.75
358.03	279.11
358.481	309.54
358.932	363.37
359.383	330.6
359.834	283.79
360.285	358.69
360.735	248.68
361.186	349.32
361.637	342.3
362.087	281.45
362.538	290.81
362.988	354.01
363.438	370.39
363.889	354.01
364.339	300.17
364.789	351.67
365.239	316.56
365.689	321.24
366.139	391.45
366.589	323.58
367.039	307.2
367.489	349.32
367.939	342.3
368.389	358.69
368.839	391.45
369.288	339.96
369.738	286.13
370.187	339.96
370.637	290.81
371.086	325.92
371.536	337.62
371.985	321.24
372.434	286.13
372.884	295.49
373.333	283.79
373.782	365.71
374.231	328.26
374.68	335.28
375.129	335.28
375.578	332.94
376.027	295.49
376.475	342.3
376.924	396.14
377.373	311.88
377.822	307.2
378.27	339.96
378.719	339.96
379.167	375.07
379.616	318.9
380.064	311.88
380.512	286.13
380.961	323.58
381.409	323.58
381.857	361.03
382.305	370.39
382.753	396.14
383.201	288.47
383.649	330.6
384.097	349.32
384.545	349.32
384.992	365.71
385.44	283.79
385.888	361.03
386.335	379.75
386.783	365.71
387.231	318.9
387.678	342.3
388.125	363.37
388.573	335.28
389.02	337.62
389.467	361.03
389.914	288.47
390.362	358.69
390.809	302.51
391.256	328.26
391.703	344.64
392.15	325.92
392.596	337.62
393.043	304.85
393.49	309.54
393.937	316.56
394.383	311.88
394.83	323.58
395.276	316.56
395.723	346.98
396.169	302.51
396.616	332.94
397.062	283.79
397.508	307.2
397.954	346.98
398.401	365.71
398.847	330.6
399.293	295.49
399.739	344.64
400.185	342.3
400.631	356.35
401.076	356.35
401.522	377.41
401.968	283.79
402.414	288.47
402.859	304.85
403.305	337.62
403.75	290.81
404.196	309.54
404.641	302.51
405.086	316.56
405.532	342.3
405.977	337.62
406.422	323.58
406.867	389.11
407.312	386.77
407.757	293.15
408.202	361.03
408.647	265.07
409.092	302.51
409.537	290.81
409.982	328.26
410.426	396.14
410.871	393.8
411.316	375.07
411.76	332.94
412.205	346.98
412.649	356.35
413.093	248.68
413.538	365.71
413.982	339.96
414.426	229.96
414.87	384.43
415.314	339.96
415.758	342.3
416.202	314.22
416.646	325.92
417.09	304.85
417.534	356.35
417.978	316.56
418.421	325.92
418.865	372.73
419.309	321.24
419.752	417.2
420.196	344.64
420.639	354.01
421.083	354.01
421.526	365.71
421.969	316.56
422.412	316.56
422.856	269.75
423.299	325.92
423.742	389.11
424.185	297.83
424.628	372.73
425.071	344.64
425.513	325.92
425.956	339.96
426.399	302.51
426.842	316.56
427.284	414.86
427.727	372.73
428.169	276.77
428.612	272.09
429.054	368.05
429.497	304.85
429.939	354.01
430.381	311.88
430.823	351.67
431.265	375.07
431.707	382.09
432.149	391.45
432.591	346.98
433.033	325.92
433.475	332.94
433.917	316.56
434.359	354.01
434.8	332.94
435.242	325.92
435.684	302.51
436.125	302.51
436.567	382.09
437.008	354.01
437.449	283.79
437.891	239.32
438.332	304.85
438.773	321.24
439.214	344.64
439.656	272.09
440.097	316.56
440.538	344.64
440.978	346.98
441.419	293.15
441.86	332.94
442.301	316.56
442.742	307.2
443.182	342.3
443.623	300.17
444.063	354.01
444.504	335.28
444.944	325.92
445.385	339.96
445.825	318.9
446.265	344.64
446.706	339.96
447.146	382.09
447.586	361.03
448.026	370.39
448.466	316.56
448.906	342.3
449.346	330.6
449.786	330.6
450.225	372.73
450.665	419.54
451.105	330.6
451.544	351.67
451.984	318.9
452.424	311.88
452.863	297.83
453.302	375.07
453.742	297.83
454.181	258.04
454.62	234.64
455.059	368.05
455.499	225.28
455.938	410.18
456.377	363.37
456.816	309.54
457.254	389.11
457.693	375.07
458.132	307.2
458.571	325.92
459.01	365.71
459.448	283.79
459.887	332.94
460.325	321.24
460.764	372.73
461.202	417.2
461.641	300.17
462.079	316.56
462.517	295.49
462.955	372.73
463.393	349.32
463.832	314.22
464.27	363.37
464.708	358.69
465.145	293.15
465.583	365.71
466.021	358.69
466.459	363.37
466.897	332.94
467.334	365.71
467.772	365.71
468.209	370.39
468.647	279.11
469.084	283.79
469.522	361.03
469.959	379.75
470.396	302.51
470.833	344.64
471.271	276.77
471.708	269.75
472.145	354.01
472.582	337.62
473.019	321.24
473.456	382.09
473.892	363.37
474.329	344.64
474.766	328.26
475.202	309.54
475.639	335.28
476.076	377.41
476.512	302.51
476.949	342.3
477.385	337.62
477.821	288.47
478.258	375.07
478.694	379.75
479.13	335.28
479.566	332.94
480.002	279.11
480.438	286.13
480.874	354.01
481.31	349.32
481.746	297.83
482.181	349.32
482.617	330.6
483.053	316.56
483.488	328.26
483.924	265.07
484.36	328.26
484.795	328.26
485.23	316.56
485.666	239.32
486.101	389.11
486.536	351.67
486.971	342.3
487.407	321.24
487.842	330.6
488.277	349.32
488.712	382.09
489.146	349.32
489.581	351.67
490.016	351.67
490.451	379.75
490.885	321.24
491.32	351.67
491.755	330.6
492.189	400.82
492.624	354.01
493.058	389.11
493.492	316.56
493.927	309.54
494.361	400.82
494.795	321.24
495.229	330.6
495.663	339.96
496.097	332.94
496.531	335.28
496.965	337.62
497.399	318.9
497.833	290.81
498.266	274.43
498.7	335.28
499.134	365.71
499.567	370.39
500.001	384.43
500.434	318.9
500.868	335.28
501.301	337.62
501.734	349.32
502.168	417.2
502.601	290.81
503.034	279.11
503.467	365.71
503.9	351.67
504.333	349.32
504.766	276.77
505.199	396.14
505.632	281.45
506.064	311.88
506.497	379.75
506.93	339.96
507.362	375.07
507.795	370.39
508.227	253.36
508.66	372.73
509.092	375.07
509.524	356.35
509.956	382.09
510.389	370.39
510.821	288.47
511.253	342.3
511.685	389.11
512.117	325.92
512.549	377.41
512.981	377.41
513.412	283.79
513.844	255.7
514.276	377.41
514.707	403.16
515.139	314.22
515.571	337.62
516.002	356.35
516.433	342.3
516.865	286.13
517.296	382.09
517.727	314.22
518.159	290.81
518.59	321.24
519.021	335.28
519.452	297.83
519.883	339.96
520.314	337.62
520.744	286.13
521.175	354.01
521.606	297.83
522.037	328.26
522.467	337.62
522.898	358.69
523.328	307.2
523.759	382.09
524.189	332.94
524.62	337.62
525.05	379.75
525.48	335.28
525.91	391.45
526.341	358.69
526.771	365.71
527.201	325.92
527.631	321.24
528.061	321.24
528.49	295.49
528.92	309.54
529.35	372.73
529.78	384.43
530.209	314.22
530.639	405.5
531.068	290.81
531.498	302.51
531.927	272.09
532.357	283.79
532.786	346.98
533.215	337.62
533.644	346.98
534.074	309.54
534.503	323.58
534.932	351.67
535.361	356.35
535.79	403.16
536.218	290.81
536.647	316.56
537.076	307.2
537.505	295.49
537.933	323.58
538.362	323.58
538.79	311.88
539.219	368.05
539.647	302.51
540.076	330.6
540.504	279.11
540.932	272.09
541.36	332.94
541.788	323.58
542.217	342.3
542.645	363.37
543.073	304.85
543.5	335.28
543.928	321.24
544.356	339.96
544.784	297.83
545.211	349.32
545.639	293.15
546.067	346.98
546.494	384.43
546.922	311.88
547.349	351.67
547.776	323.58
548.204	393.8
548.631	337.62
549.058	281.45
549.485	288.47
549.912	330.6
550.339	314.22
550.766	328.26
551.193	351.67
551.62	368.05
552.047	370.39
552.474	410.18
552.9	351.67
553.327	339.96
553.754	375.07
554.18	344.64
554.607	372.73
555.033	325.92
555.459	281.45
555.886	304.85
556.312	325.92
556.738	349.32
557.164	311.88
557.59	361.03
558.016	349.32
558.442	311.88
558.868	346.98
559.294	351.67
559.72	330.6
560.145	309.54
560.571	375.07
560.997	384.43
561.422	311.88
561.848	342.3
562.273	328.26
562.699	337.62
563.124	337.62
563.549	314.22
563.974	321.24
564.4	328.26
564.825	300.17
565.25	314.22
565.675	344.64
566.1	379.75
566.525	309.54
566.95	304.85
567.374	335.28
567.799	288.47
568.224	349.32
568.648	328.26
569.073	344.64
569.497	363.37
569.922	321.24
570.346	286.13
570.771	304.85
571.195	349.32
571.619	297.83
572.043	304.85
572.467	283.79
572.891	302.51
573.315	314.22
573.739	354.01
574.163	330.6
574.587	281.45
575.011	318.9
575.435	321.24
575.858	339.96
576.282	361.03
576.705	304.85
577.129	356.35
577.552	384.43
577.976	318.9
578.399	316.56
578.822	302.51
579.245	370.39
579.669	304.85
580.092	351.67
580.515	325.92
580.938	323.58
581.361	297.83
581.784	354.01
582.206	330.6
582.629	307.2
583.052	321.24
583.474	307.2
583.897	386.77
584.32	365.71
584.742	288.47
585.165	286.13
585.587	265.07
586.009	234.64
586.431	295.49
586.854	339.96
587.276	358.69
587.698	328.26
588.12	323.58
588.542	386.77
588.964	239.32
589.386	449.97
589.807	370.39
590.229	325.92
590.651	295.49
591.073	325.92
591.494	290.81
591.916	344.64
592.337	293.15
592.759	330.6
593.18	265.07
593.601	314.22
594.022	307.2
594.444	300.17
594.865	267.41
595.286	328.26
595.707	307.2
596.128	307.2
596.549	286.13
596.97	339.96
597.39	412.52
597.811	391.45
598.232	339.96
598.652	377.41
599.073	337.62
599.494	192.51
599.914	321.24
600.334	323.58
600.755	365.71
601.175	323.58
601.595	330.6
602.015	295.49
602.436	274.43
602.856	459.33
603.276	339.96
603.696	295.49
604.115	335.28
604.535	290.81
604.955	384.43
605.375	314.22
605.794	330.6
606.214	330.6
606.634	356.35
607.053	323.58
607.473	354.01
607.892	295.49
608.311	384.43
608.731	365.71
609.15	279.11
609.569	349.32
609.988	368.05
610.407	365.71
610.826	318.9
611.245	424.22
611.664	318.9
612.083	295.49
612.501	375.07
612.92	384.43
613.339	309.54
613.757	323.58
614.176	321.24
614.594	314.22
615.013	295.49
615.431	314.22
615.85	302.51
616.268	328.26
616.686	377.41
617.104	349.32
617.522	349.32
617.94	337.62
618.358	398.48
618.776	332.94
619.194	332.94
619.612	290.81
620.03	286.13
620.447	335.28
620.865	354.01
621.282	283.79
621.7	332.94
622.117	344.64
622.535	302.51
622.952	377.41
623.369	351.67
623.787	386.77
624.204	372.73
624.621	328.26
625.038	300.17
625.455	368.05
625.872	318.9
626.289	269.75
626.706	332.94
627.123	398.48
627.539	346.98
627.956	281.45
628.373	311.88
628.789	283.79
629.206	335.28
629.622	314.22
630.038	318.9
630.455	309.54
630.871	398.48
631.287	344.64
631.703	335.28
632.12	318.9
632.536	295.49
632.952	335.28
633.368	358.69
633.783	339.96
634.199	342.3
634.615	349.32
635.031	297.83
635.446	300.17
635.862	272.09
636.277	433.58
636.693	337.62
637.108	274.43
637.524	328.26
637.939	370.39
638.354	318.9
638.77	384.43
639.185	304.85
639.6	328.26
640.015	372.73
640.43	365.71
640.845	328.26
641.259	330.6
641.674	351.67
642.089	372.73
642.504	370.39
642.918	337.62
643.333	332.94
643.747	316.56
644.162	349.32
644.576	218.25
644.991	323.58
645.405	339.96
645.819	297.83
646.233	342.3
646.647	304.85
647.061	358.69
647.475	267.41
647.889	335.28
648.303	363.37
648.717	325.92
649.131	393.8
649.545	358.69
649.958	316.56
650.372	330.6
650.785	330.6
651.199	328.26
651.612	365.71
652.026	302.51
652.439	304.85
652.852	351.67
653.266	323.58
653.679	281.45
654.092	286.13
654.505	307.2
654.918	302.51
655.331	288.47
655.744	356.35
656.156	293.15
656.569	279.11
656.982	342.3
657.394	302.51
657.807	323.58
658.22	253.36
658.632	283.79
659.044	325.92
659.457	314.22
659.869	344.64
660.281	337.62
660.693	342.3
661.106	363.37
661.518	339.96
661.93	311.88
662.342	262.73
662.754	377.41
663.165	316.56
663.577	267.41
663.989	314.22
664.401	361.03
664.812	328.26
665.224	288.47
665.635	372.73
666.047	339.96
666.458	363.37
666.869	295.49
667.281	321.24
667.692	316.56
668.103	342.3
668.514	255.7
668.925	293.15
669.336	356.35
669.747	354.01
670.158	307.2
670.569	314.22
670.979	328.26
671.39	262.73
671.801	344.64
672.211	377.41
672.622	414.86
673.032	337.62
673.443	332.94
673.853	330.6
674.263	332.94
674.674	351.67
675.084	361.03
675.494	297.83
675.904	276.77
676.314	354.01
676.724	307.2
677.134	344.64
677.544	363.37
677.953	274.43
678.363	358.69
678.773	377.41
679.182	330.6
679.592	377.41
680.001	290.81
680.411	290.81
680.82	342.3
681.23	361.03
681.639	314.22
682.048	318.9
682.457	365.71
682.866	354.01
683.275	302.51
683.684	335.28
684.093	356.35
684.502	314.22
684.911	344.64
685.32	323.58
685.728	391.45
686.137	314.22
686.546	307.2
686.954	377.41
687.363	433.58
687.771	330.6
688.179	325.92
688.588	354.01
688.996	361.03
689.404	389.11
689.812	346.98
690.22	321.24
690.628	321.24
691.036	330.6
691.444	274.43
691.852	314.22
692.26	286.13
692.667	356.35
693.075	337.62
693.483	365.71
693.89	325.92
694.298	349.32
694.705	332.94
695.112	379.75
695.52	323.58
695.927	321.24
696.334	234.64
696.741	349.32
697.148	330.6
697.555	293.15
697.962	318.9
698.369	323.58
698.776	337.62
699.183	290.81
699.59	318.9
699.996	267.41
700.403	316.56
700.81	290.81
701.216	337.62
701.623	314.22
702.029	368.05
702.435	321.24
702.842	318.9
703.248	323.58
703.654	349.32
704.06	379.75
704.466	337.62
704.872	365.71
705.278	339.96
705.684	356.35
706.09	382.09
706.496	361.03
706.901	314.22
707.307	356.35
707.712	295.49
708.118	269.75
708.523	339.96
708.929	302.51
709.334	328.26
709.74	391.45
710.145	302.51
710.55	332.94
710.955	286.13
711.36	332.94
711.765	302.51
712.17	384.43
712.575	354.01
712.98	789.35
713.385	274.43
713.789	276.77
714.194	356.35
714.599	325.92
715.003	375.07
715.408	337.62
715.812	339.96
716.217	328.26
716.621	344.64
717.025	361.03
717.429	295.49
717.833	412.52
718.238	346.98
718.642	283.79
719.046	316.56
719.449	368.05
719.853	323.58
720.257	375.07
720.661	328.26
721.065	246.34
721.468	361.03
721.872	269.75
722.275	332.94
722.679	295.49
723.082	295.49
723.485	311.88
723.889	302.51
724.292	316.56
724.695	265.07
725.098	391.45
725.501	318.9
725.904	318.9
726.307	302.51
726.71	337.62
727.113	293.15
727.516	328.26
727.918	346.98
728.321	323.58
728.724	375.07
729.126	346.98
729.529	332.94
729.931	337.62
730.333	293.15
730.736	272.09
731.138	300.17
731.54	316.56
731.942	332.94
732.344	375.07
732.746	375.07
733.148	379.75
733.55	325.92
733.952	349.32
734.354	356.35
734.756	342.3
735.157	283.79
735.559	363.37
735.96	351.67
736.362	361.03
736.763	325.92
737.165	272.09
737.566	307.2
737.967	335.28
738.368	325.92
738.77	354.01
739.171	342.3
739.572	339.96
739.973	363.37
740.374	293.15
740.774	330.6
741.175	344.64
741.576	365.71
741.977	316.56
742.377	346.98
742.778	314.22
743.178	311.88
743.579	361.03
743.979	354.01
744.379	337.62
744.78	316.56
745.18	328.26
745.58	354.01
745.98	274.43
746.38	323.58
746.78	307.2
747.18	403.16
747.58	279.11
747.98	286.13
748.38	377.41
748.779	335.28
749.179	281.45
749.578	363.37
749.978	279.11
750.377	351.67
750.777	396.14
751.176	328.26
751.575	330.6
751.975	368.05
752.374	302.51
752.773	304.85
753.172	361.03
753.571	295.49
753.97	375.07
754.369	346.98
754.768	321.24
755.166	302.51
755.565	288.47
755.964	323.58
756.362	361.03
756.761	407.84
757.159	351.67
757.558	307.2
757.956	349.32
758.354	293.15
758.753	288.47
759.151	349.32
759.549	311.88
759.947	337.62
760.345	300.17
760.743	344.64
761.141	267.41
761.539	365.71
761.936	253.36
762.334	281.45
762.732	293.15
763.129	424.22
763.527	309.54
763.924	304.85
764.322	328.26
764.719	309.54
765.117	337.62
765.514	304.85
