Data from Al_FLMS009871__748__15-15-02-726.txt Node

Date: Fri Mar 08 15:15:02 CST 2024
User: pe5414po
Spectrometer: FLMS00987
Trigger mode: 0
Integration Time (sec): 1.000000E-1
Scans to average: 1
Electric dark correction enabled: true
Nonlinearity correction enabled: false
Boxcar width: 0
XAxis mode: Wavelengths
Number of Pixels in Spectrum: 2048
>>>>>Begin Spectral Data<<<<<
188.938	-84.99
189.409	-84.99
189.879	-84.99
190.349	-73.29
190.819	-82.65
191.29	-120.1
191.76	-77.97
192.23	-99.03
192.7	-68.61
193.17	-101.37
193.64	-77.97
194.109	3.95
194.579	-38.18
195.049	55.44
195.519	10.97
195.988	32.04
196.458	41.4
196.927	81.19
197.397	109.27
197.866	95.23
198.336	153.74
198.805	223.96
199.274	186.51
199.744	149.06
200.213	184.17
200.682	195.87
201.151	207.58
201.62	277.79
202.089	305.88
202.558	294.18
203.027	277.79
203.495	305.88
203.964	270.77
204.433	186.51
204.902	317.58
205.37	303.54
205.839	284.81
206.307	324.6
206.776	333.97
207.244	315.24
207.712	270.77
208.181	294.18
208.649	289.5
209.117	275.45
209.585	336.31
210.053	333.97
210.521	369.07
210.989	282.47
211.457	289.5
211.925	291.84
212.393	238
212.861	294.18
213.328	310.56
213.796	301.2
214.264	277.79
214.731	275.45
215.199	331.62
215.666	287.15
216.133	296.52
216.601	331.62
217.068	280.13
217.535	308.22
218.003	256.73
218.47	280.13
218.937	247.37
219.404	268.43
219.871	305.88
220.338	284.81
220.805	282.47
221.271	252.05
221.738	209.92
222.205	256.73
222.671	219.28
223.138	287.15
223.605	207.58
224.071	191.19
224.538	252.05
225.004	256.73
225.47	247.37
225.937	263.75
226.403	261.41
226.869	207.58
227.335	191.19
227.801	266.09
228.267	273.11
228.733	235.66
229.199	240.34
229.665	317.58
230.131	284.81
230.597	263.75
231.062	259.07
231.528	303.54
231.994	198.21
232.459	247.37
232.925	268.43
233.39	223.96
233.856	219.28
234.321	348.01
234.786	284.81
235.252	303.54
235.717	254.39
236.182	289.5
236.647	305.88
237.112	256.73
237.577	219.28
238.042	268.43
238.507	235.66
238.972	322.26
239.436	326.94
239.901	336.31
240.366	303.54
240.83	315.24
241.295	294.18
241.76	291.84
242.224	301.2
242.688	252.05
243.153	289.5
243.617	326.94
244.081	226.3
244.545	249.71
245.01	240.34
245.474	301.2
245.938	273.11
246.402	296.52
246.866	317.58
247.33	219.28
247.793	305.88
248.257	310.56
248.721	294.18
249.185	329.28
249.648	369.07
250.112	326.94
250.575	216.94
251.039	275.45
251.502	296.52
251.965	275.45
252.429	268.43
252.892	324.6
253.355	280.13
253.818	223.96
254.281	214.6
254.744	284.81
255.207	256.73
255.67	291.84
256.133	259.07
256.596	291.84
257.059	289.5
257.522	219.28
257.984	301.2
258.447	308.22
258.909	282.47
259.372	333.97
259.834	312.9
260.297	268.43
260.759	273.11
261.221	235.66
261.684	294.18
262.146	266.09
262.608	308.22
263.07	329.28
263.532	277.79
263.994	312.9
264.456	256.73
264.918	202.9
265.38	202.9
265.842	336.31
266.303	298.86
266.765	238
267.227	289.5
267.688	280.13
268.15	301.2
268.611	282.47
269.072	331.62
269.534	352.69
269.995	249.71
270.456	305.88
270.918	268.43
271.379	275.45
271.84	336.31
272.301	275.45
272.762	345.67
273.223	350.35
273.684	252.05
274.144	259.07
274.605	256.73
275.066	273.11
275.527	242.68
275.987	315.24
276.448	303.54
276.908	280.13
277.369	291.84
277.829	310.56
278.289	369.07
278.75	326.94
279.21	333.97
279.67	324.6
280.13	305.88
280.59	308.22
281.05	348.01
281.51	308.22
281.97	322.26
282.43	261.41
282.89	240.34
283.35	259.07
283.809	315.24
284.269	284.81
284.729	291.84
285.188	280.13
285.648	284.81
286.107	355.03
286.567	340.99
287.026	357.37
287.485	343.33
287.944	303.54
288.404	305.88
288.863	270.77
289.322	268.43
289.781	289.5
290.24	238
290.699	350.35
291.158	324.6
291.616	359.71
292.075	287.15
292.534	280.13
292.992	303.54
293.451	289.5
293.91	303.54
294.368	289.5
294.827	343.33
295.285	275.45
295.743	329.28
296.202	298.86
296.66	324.6
297.118	256.73
297.576	266.09
298.034	319.92
298.492	333.97
298.95	359.71
299.408	336.31
299.866	266.09
300.324	343.33
300.781	308.22
301.239	312.9
301.697	376.09
302.154	233.32
302.612	322.26
303.069	301.2
303.527	294.18
303.984	305.88
304.441	324.6
304.899	256.73
305.356	348.01
305.813	270.77
306.27	312.9
306.727	289.5
307.184	312.9
307.641	268.43
308.098	333.97
308.555	298.86
309.012	394.82
309.468	308.22
309.925	298.86
310.382	298.86
310.838	282.47
311.295	310.56
311.751	315.24
312.208	310.56
312.664	291.84
313.12	301.2
313.577	296.52
314.033	317.58
314.489	305.88
314.945	282.47
315.401	287.15
315.857	284.81
316.313	310.56
316.769	242.68
317.225	343.33
317.681	336.31
318.136	331.62
318.592	362.05
319.048	296.52
319.503	387.8
319.959	254.39
320.414	280.13
320.869	261.41
321.325	280.13
321.78	247.37
322.235	301.2
322.691	310.56
323.146	296.52
323.601	343.33
324.056	308.22
324.511	371.41
324.966	343.33
325.421	284.81
325.875	308.22
326.33	282.47
326.785	322.26
327.24	289.5
327.694	298.86
328.149	362.05
328.603	254.39
329.058	209.92
329.512	319.92
329.966	259.07
330.421	294.18
330.875	287.15
331.329	242.68
331.783	380.78
332.237	326.94
332.691	242.68
333.145	364.39
333.599	268.43
334.053	336.31
334.507	245.02
334.96	329.28
335.414	287.15
335.868	294.18
336.321	305.88
336.775	319.92
337.228	357.37
337.682	326.94
338.135	355.03
338.588	373.75
339.042	399.5
339.495	333.97
339.948	230.98
340.401	301.2
340.854	315.24
341.307	331.62
341.76	289.5
342.213	275.45
342.666	263.75
343.119	331.62
343.571	275.45
344.024	338.65
344.477	326.94
344.929	259.07
345.382	303.54
345.834	256.73
346.287	343.33
346.739	287.15
347.191	369.07
347.644	340.99
348.096	364.39
348.548	242.68
349	303.54
349.452	322.26
349.904	303.54
350.356	277.79
350.808	329.28
351.26	345.67
351.711	364.39
352.163	326.94
352.615	275.45
353.066	315.24
353.518	282.47
353.969	245.02
354.421	362.05
354.872	326.94
355.324	350.35
355.775	277.79
356.226	301.2
356.677	336.31
357.128	310.56
357.579	317.58
358.03	331.62
358.481	296.52
358.932	245.02
359.383	296.52
359.834	352.69
360.285	317.58
360.735	312.9
361.186	277.79
361.637	331.62
362.087	280.13
362.538	305.88
362.988	350.35
363.438	298.86
363.889	378.44
364.339	310.56
364.789	336.31
365.239	350.35
365.689	329.28
366.139	289.5
366.589	362.05
367.039	305.88
367.489	317.58
367.939	352.69
368.389	315.24
368.839	317.58
369.288	355.03
369.738	254.39
370.187	326.94
370.637	326.94
371.086	357.37
371.536	352.69
371.985	343.33
372.434	310.56
372.884	301.2
373.333	310.56
373.782	336.31
374.231	294.18
374.68	357.37
375.129	338.65
375.578	357.37
376.027	291.84
376.475	383.12
376.924	352.69
377.373	394.82
377.822	301.2
378.27	329.28
378.719	385.46
379.167	303.54
379.616	343.33
380.064	376.09
380.512	291.84
380.961	348.01
381.409	331.62
381.857	406.52
382.305	301.2
382.753	362.05
383.201	259.07
383.649	317.58
384.097	322.26
384.545	394.82
384.992	280.13
385.44	359.71
385.888	338.65
386.335	364.39
386.783	287.15
387.231	273.11
387.678	373.75
388.125	343.33
388.573	329.28
389.02	340.99
389.467	315.24
389.914	301.2
390.362	331.62
390.809	380.78
391.256	294.18
391.703	340.99
392.15	291.84
392.596	364.39
393.043	317.58
393.49	270.77
393.937	308.22
394.383	371.41
394.83	357.37
395.276	338.65
395.723	357.37
396.169	357.37
396.616	364.39
397.062	319.92
397.508	329.28
397.954	291.84
398.401	282.47
398.847	324.6
399.293	310.56
399.739	319.92
400.185	376.09
400.631	263.75
401.076	312.9
401.522	319.92
401.968	333.97
402.414	249.71
402.859	333.97
403.305	383.12
403.75	273.11
404.196	369.07
404.641	345.67
405.086	317.58
405.532	287.15
405.977	366.73
406.422	336.31
406.867	348.01
407.312	254.39
407.757	317.58
408.202	319.92
408.647	305.88
409.092	319.92
409.537	245.02
409.982	315.24
410.426	376.09
410.871	303.54
411.316	338.65
411.76	324.6
412.205	270.77
412.649	305.88
413.093	303.54
413.538	362.05
413.982	270.77
414.426	329.28
414.87	270.77
415.314	355.03
415.758	383.12
416.202	348.01
416.646	259.07
417.09	338.65
417.534	319.92
417.978	319.92
418.421	249.71
418.865	270.77
419.309	348.01
419.752	338.65
420.196	338.65
420.639	312.9
421.083	305.88
421.526	352.69
421.969	333.97
422.412	315.24
422.856	317.58
423.299	275.45
423.742	322.26
424.185	331.62
424.628	294.18
425.071	329.28
425.513	317.58
425.956	336.31
426.399	340.99
426.842	355.03
427.284	357.37
427.727	287.15
428.169	315.24
428.612	280.13
429.054	319.92
429.497	371.41
429.939	298.86
430.381	340.99
430.823	371.41
431.265	343.33
431.707	326.94
432.149	273.11
432.591	322.26
433.033	308.22
433.475	308.22
433.917	343.33
434.359	282.47
434.8	369.07
435.242	343.33
435.684	343.33
436.125	312.9
436.567	301.2
437.008	336.31
437.449	355.03
437.891	340.99
438.332	298.86
438.773	324.6
439.214	385.46
439.656	282.47
440.097	322.26
440.538	348.01
440.978	340.99
441.419	343.33
441.86	343.33
442.301	392.48
442.742	273.11
443.182	308.22
443.623	252.05
444.063	289.5
444.504	305.88
444.944	319.92
445.385	296.52
445.825	348.01
446.265	343.33
446.706	284.81
447.146	324.6
447.586	369.07
448.026	376.09
448.466	331.62
448.906	340.99
449.346	280.13
449.786	289.5
450.225	338.65
450.665	331.62
451.105	280.13
451.544	287.15
451.984	268.43
452.424	259.07
452.863	378.44
453.302	263.75
453.742	345.67
454.181	397.16
454.62	289.5
455.059	331.62
455.499	371.41
455.938	277.79
456.377	355.03
456.816	277.79
457.254	317.58
457.693	322.26
458.132	364.39
458.571	329.28
459.01	345.67
459.448	305.88
459.887	294.18
460.325	343.33
460.764	329.28
461.202	305.88
461.641	298.86
462.079	322.26
462.517	280.13
462.955	315.24
463.393	312.9
463.832	319.92
464.27	289.5
464.708	343.33
465.145	364.39
465.583	284.81
466.021	371.41
466.459	301.2
466.897	415.88
467.334	333.97
467.772	340.99
468.209	355.03
468.647	259.07
469.084	303.54
469.522	378.44
469.959	340.99
470.396	343.33
470.833	308.22
471.271	322.26
471.708	284.81
472.145	303.54
472.582	266.09
473.019	301.2
473.456	289.5
473.892	275.45
474.329	317.58
474.766	355.03
475.202	296.52
475.639	319.92
476.076	289.5
476.512	254.39
476.949	357.37
477.385	275.45
477.821	296.52
478.258	319.92
478.694	291.84
479.13	240.34
479.566	298.86
480.002	364.39
480.438	287.15
480.874	319.92
481.31	252.05
481.746	305.88
482.181	366.73
482.617	331.62
483.053	362.05
483.488	282.47
483.924	336.31
484.36	366.73
484.795	345.67
485.23	326.94
485.666	291.84
486.101	333.97
486.536	385.46
486.971	315.24
487.407	343.33
487.842	319.92
488.277	303.54
488.712	310.56
489.146	326.94
489.581	317.58
490.016	310.56
490.451	345.67
490.885	357.37
491.32	366.73
491.755	310.56
492.189	259.07
492.624	329.28
493.058	329.28
493.492	343.33
493.927	277.79
494.361	364.39
494.795	273.11
495.229	348.01
495.663	284.81
496.097	317.58
496.531	296.52
496.965	338.65
497.399	282.47
497.833	383.12
498.266	362.05
498.7	280.13
499.134	315.24
499.567	291.84
500.001	282.47
500.434	336.31
500.868	348.01
501.301	308.22
501.734	305.88
502.168	310.56
502.601	291.84
503.034	291.84
503.467	240.34
503.9	289.5
504.333	305.88
504.766	315.24
505.199	305.88
505.632	270.77
506.064	268.43
506.497	340.99
506.93	336.31
507.362	312.9
507.795	315.24
508.227	345.67
508.66	303.54
509.092	305.88
509.524	326.94
509.956	331.62
510.389	263.75
510.821	345.67
511.253	340.99
511.685	273.11
512.117	298.86
512.549	305.88
512.981	324.6
513.412	270.77
513.844	287.15
514.276	366.73
514.707	322.26
515.139	303.54
515.571	310.56
516.002	317.58
516.433	282.47
516.865	336.31
517.296	298.86
517.727	348.01
518.159	301.2
518.59	348.01
519.021	329.28
519.452	273.11
519.883	287.15
520.314	348.01
520.744	310.56
521.175	338.65
521.606	273.11
522.037	355.03
522.467	333.97
522.898	301.2
523.328	310.56
523.759	315.24
524.189	362.05
524.62	326.94
525.05	310.56
525.48	296.52
525.91	312.9
526.341	364.39
526.771	291.84
527.201	338.65
527.631	308.22
528.061	280.13
528.49	282.47
528.92	329.28
529.35	296.52
529.78	319.92
530.209	338.65
530.639	343.33
531.068	310.56
531.498	280.13
531.927	305.88
532.357	329.28
532.786	355.03
533.215	282.47
533.644	324.6
534.074	326.94
534.503	277.79
534.932	329.28
535.361	296.52
535.79	317.58
536.218	390.14
536.647	387.8
537.076	254.39
537.505	326.94
537.933	273.11
538.362	289.5
538.79	331.62
539.219	357.37
539.647	404.18
540.076	301.2
540.504	348.01
540.932	280.13
541.36	282.47
541.788	319.92
542.217	348.01
542.645	343.33
543.073	333.97
543.5	319.92
543.928	399.5
544.356	315.24
544.784	284.81
545.211	350.35
545.639	277.79
546.067	261.41
546.494	308.22
546.922	369.07
547.349	415.88
547.776	345.67
548.204	315.24
548.631	329.28
549.058	326.94
549.485	294.18
549.912	357.37
550.339	326.94
550.766	319.92
551.193	310.56
551.62	270.77
552.047	343.33
552.474	287.15
552.9	282.47
553.327	273.11
553.754	366.73
554.18	284.81
554.607	298.86
555.033	319.92
555.459	296.52
555.886	296.52
556.312	289.5
556.738	296.52
557.164	263.75
557.59	326.94
558.016	369.07
558.442	348.01
558.868	355.03
559.294	376.09
559.72	291.84
560.145	359.71
560.571	319.92
560.997	366.73
561.422	380.78
561.848	343.33
562.273	280.13
562.699	362.05
563.124	324.6
563.549	350.35
563.974	308.22
564.4	310.56
564.825	336.31
565.25	340.99
565.675	270.77
566.1	348.01
566.525	315.24
566.95	329.28
567.374	326.94
567.799	254.39
568.224	319.92
568.648	275.45
569.073	310.56
569.497	305.88
569.922	338.65
570.346	301.2
570.771	261.41
571.195	315.24
571.619	355.03
572.043	348.01
572.467	310.56
572.891	315.24
573.315	322.26
573.739	371.41
574.163	343.33
574.587	277.79
575.011	280.13
575.435	355.03
575.858	326.94
576.282	252.05
576.705	364.39
577.129	333.97
577.552	282.47
577.976	352.69
578.399	329.28
578.822	315.24
579.245	275.45
579.669	357.37
580.092	312.9
580.515	296.52
580.938	326.94
581.361	336.31
581.784	324.6
582.206	238
582.629	331.62
583.052	333.97
583.474	301.2
583.897	317.58
584.32	294.18
584.742	359.71
585.165	275.45
585.587	245.02
586.009	329.28
586.431	312.9
586.854	317.58
587.276	312.9
587.698	277.79
588.12	268.43
588.542	326.94
588.964	366.73
589.386	298.86
589.807	373.75
590.229	355.03
590.651	343.33
591.073	301.2
591.494	333.97
591.916	343.33
592.337	376.09
592.759	275.45
593.18	315.24
593.601	326.94
594.022	331.62
594.444	315.24
594.865	350.35
595.286	303.54
595.707	366.73
596.128	326.94
596.549	331.62
596.97	317.58
597.39	294.18
597.811	380.78
598.232	352.69
598.652	322.26
599.073	357.37
599.494	298.86
599.914	322.26
600.334	345.67
600.755	322.26
601.175	348.01
601.595	319.92
602.015	289.5
602.436	301.2
602.856	401.84
603.276	291.84
603.696	291.84
604.115	287.15
604.535	291.84
604.955	277.79
605.375	287.15
605.794	366.73
606.214	261.41
606.634	315.24
607.053	336.31
607.473	359.71
607.892	301.2
608.311	352.69
608.731	359.71
609.15	301.2
609.569	317.58
609.988	296.52
610.407	312.9
610.826	289.5
611.245	380.78
611.664	263.75
612.083	317.58
612.501	336.31
612.92	291.84
613.339	322.26
613.757	273.11
614.176	371.41
614.594	310.56
615.013	348.01
615.431	359.71
615.85	432.27
616.268	308.22
616.686	362.05
617.104	352.69
617.522	350.35
617.94	301.2
618.358	235.66
618.776	284.81
619.194	289.5
619.612	340.99
620.03	273.11
620.447	385.46
620.865	312.9
621.282	310.56
621.7	322.26
622.117	301.2
622.535	324.6
622.952	317.58
623.369	315.24
623.787	312.9
624.204	310.56
624.621	326.94
625.038	338.65
625.455	289.5
625.872	355.03
626.289	324.6
626.706	277.79
627.123	230.98
627.539	333.97
627.956	282.47
628.373	401.84
628.789	331.62
629.206	284.81
629.622	308.22
630.038	282.47
630.455	376.09
630.871	359.71
631.287	284.81
631.703	305.88
632.12	333.97
632.536	296.52
632.952	317.58
633.368	308.22
633.783	312.9
634.199	322.26
634.615	298.86
635.031	291.84
635.446	352.69
635.862	312.9
636.277	359.71
636.693	273.11
637.108	315.24
637.524	322.26
637.939	326.94
638.354	303.54
638.77	254.39
639.185	350.35
639.6	284.81
640.015	333.97
640.43	312.9
640.845	343.33
641.259	261.41
641.674	308.22
642.089	312.9
642.504	275.45
642.918	326.94
643.333	380.78
643.747	329.28
644.162	350.35
644.576	317.58
644.991	315.24
645.405	322.26
645.819	296.52
646.233	261.41
646.647	366.73
647.061	345.67
647.475	326.94
647.889	331.62
648.303	305.88
648.717	338.65
649.131	240.34
649.545	357.37
649.958	308.22
650.372	331.62
650.785	268.43
651.199	317.58
651.612	324.6
652.026	301.2
652.439	364.39
652.852	303.54
653.266	296.52
653.679	322.26
654.092	315.24
654.505	301.2
654.918	284.81
655.331	340.99
655.744	312.9
656.156	303.54
656.569	338.65
656.982	331.62
657.394	322.26
657.807	317.58
658.22	345.67
658.632	315.24
659.044	298.86
659.457	298.86
659.869	277.79
660.281	338.65
660.693	308.22
661.106	305.88
661.518	301.2
661.93	355.03
662.342	268.43
662.754	333.97
663.165	317.58
663.577	249.71
663.989	385.46
664.401	317.58
664.812	303.54
665.224	329.28
665.635	284.81
666.047	366.73
666.458	273.11
666.869	233.32
667.281	305.88
667.692	280.13
668.103	376.09
668.514	291.84
668.925	329.28
669.336	345.67
669.747	263.75
670.158	357.37
670.569	310.56
670.979	329.28
671.39	273.11
671.801	362.05
672.211	329.28
672.622	338.65
673.032	305.88
673.443	319.92
673.853	326.94
674.263	413.54
674.674	315.24
675.084	303.54
675.494	348.01
675.904	315.24
676.314	362.05
676.724	280.13
677.134	298.86
677.544	287.15
677.953	364.39
678.363	298.86
678.773	376.09
679.182	319.92
679.592	355.03
680.001	348.01
680.411	291.84
680.82	277.79
681.23	329.28
681.639	301.2
682.048	310.56
682.457	329.28
682.866	355.03
683.275	249.71
683.684	333.97
684.093	315.24
684.502	310.56
684.911	291.84
685.32	383.12
685.728	336.31
686.137	340.99
686.546	338.65
686.954	338.65
687.363	291.84
687.771	305.88
688.179	345.67
688.588	357.37
688.996	338.65
689.404	282.47
689.812	350.35
690.22	310.56
690.628	338.65
691.036	333.97
691.444	301.2
691.852	317.58
692.26	333.97
692.667	352.69
693.075	303.54
693.483	371.41
693.89	324.6
694.298	322.26
694.705	336.31
695.112	312.9
695.52	317.58
695.927	383.12
696.334	331.62
696.741	277.79
697.148	345.67
697.555	348.01
697.962	352.69
698.369	355.03
698.776	284.81
699.183	329.28
699.59	329.28
699.996	345.67
700.403	357.37
700.81	364.39
701.216	310.56
701.623	259.07
702.029	277.79
702.435	348.01
702.842	357.37
703.248	301.2
703.654	284.81
704.06	298.86
704.466	315.24
704.872	282.47
705.278	338.65
705.684	322.26
706.09	282.47
706.496	378.44
706.901	329.28
707.307	291.84
707.712	331.62
708.118	333.97
708.523	364.39
708.929	324.6
709.334	366.73
709.74	270.77
710.145	355.03
710.55	315.24
710.955	256.73
711.36	301.2
711.765	259.07
712.17	315.24
712.575	256.73
712.98	766.96
713.385	362.05
713.789	322.26
714.194	317.58
714.599	317.58
715.003	338.65
715.408	275.45
715.812	387.8
716.217	319.92
716.621	329.28
717.025	324.6
717.429	326.94
717.833	317.58
718.238	333.97
718.642	366.73
719.046	340.99
719.449	324.6
719.853	343.33
720.257	298.86
720.661	422.91
721.065	336.31
721.468	322.26
721.872	331.62
722.275	301.2
722.679	301.2
723.082	357.37
723.485	369.07
723.889	340.99
724.292	333.97
724.695	352.69
725.098	291.84
725.501	312.9
725.904	345.67
726.307	364.39
726.71	298.86
727.113	348.01
727.516	326.94
727.918	268.43
728.321	282.47
728.724	362.05
729.126	333.97
729.529	277.79
729.931	312.9
730.333	287.15
730.736	284.81
731.138	280.13
731.54	322.26
731.942	284.81
732.344	322.26
732.746	303.54
733.148	305.88
733.55	308.22
733.952	303.54
734.354	336.31
734.756	294.18
735.157	308.22
735.559	212.26
735.96	270.77
736.362	338.65
736.763	284.81
737.165	263.75
737.566	209.92
737.967	301.2
738.368	230.98
738.77	345.67
739.171	338.65
739.572	289.5
739.973	287.15
740.374	308.22
740.774	338.65
741.175	333.97
741.576	301.2
741.977	345.67
742.377	352.69
742.778	273.11
743.178	387.8
743.579	249.71
743.979	324.6
744.379	294.18
744.78	268.43
745.18	364.39
745.58	326.94
745.98	298.86
746.38	350.35
746.78	322.26
747.18	259.07
747.58	333.97
747.98	319.92
748.38	331.62
748.779	294.18
749.179	326.94
749.578	308.22
749.978	329.28
750.377	383.12
750.777	298.86
751.176	338.65
751.575	310.56
751.975	352.69
752.374	329.28
752.773	259.07
753.172	291.84
753.571	282.47
753.97	322.26
754.369	333.97
754.768	303.54
755.166	259.07
755.565	287.15
755.964	340.99
756.362	280.13
756.761	322.26
757.159	326.94
757.558	336.31
757.956	280.13
758.354	343.33
758.753	247.37
759.151	301.2
759.549	282.47
759.947	291.84
760.345	345.67
760.743	266.09
761.141	319.92
761.539	380.78
761.936	333.97
762.334	235.66
762.732	298.86
763.129	324.6
763.527	275.45
763.924	326.94
764.322	319.92
764.719	357.37
765.117	340.99
