Data from Al_FLMS009871__740__15-15-01-926.txt Node

Date: Fri Mar 08 15:15:01 CST 2024
User: pe5414po
Spectrometer: FLMS00987
Trigger mode: 0
Integration Time (sec): 1.000000E-1
Scans to average: 1
Electric dark correction enabled: true
Nonlinearity correction enabled: false
Boxcar width: 0
XAxis mode: Wavelengths
Number of Pixels in Spectrum: 2048
>>>>>Begin Spectral Data<<<<<
188.938	-54.86
189.409	-54.86
189.879	-54.86
190.349	-96.99
190.819	-122.73
191.29	-50.18
191.76	-111.03
192.23	-50.18
192.7	-85.28
193.17	-92.3
193.64	-85.28
194.109	-40.81
194.579	-52.52
195.049	-17.41
195.519	6
195.988	62.17
196.458	64.51
196.927	78.55
197.397	118.34
197.866	116
198.336	139.41
198.805	132.39
199.274	167.49
199.744	130.05
200.213	284.52
200.682	268.14
201.151	179.2
201.62	249.41
202.089	258.78
202.558	312.61
203.027	228.35
203.495	272.82
203.964	265.8
204.433	293.88
204.902	293.88
205.37	298.56
205.839	375.8
206.307	307.93
206.776	279.84
207.244	298.56
207.712	310.27
208.181	314.95
208.649	258.78
209.117	371.12
209.585	333.67
210.053	291.54
210.521	275.16
210.989	331.33
211.457	251.75
211.925	345.38
212.393	300.91
212.861	247.07
213.328	364.1
213.796	268.14
214.264	226.01
214.731	254.09
215.199	350.06
215.666	305.59
216.133	284.52
216.601	324.31
217.068	319.63
217.535	242.39
218.003	270.48
218.47	256.43
218.937	228.35
219.404	268.14
219.871	291.54
220.338	305.59
220.805	317.29
221.271	279.84
221.738	270.48
222.205	371.12
222.671	321.97
223.138	333.67
223.605	300.91
224.071	240.05
224.538	265.8
225.004	298.56
225.47	298.56
225.937	211.96
226.403	256.43
226.869	251.75
227.335	249.41
227.801	211.96
228.267	284.52
228.733	321.97
229.199	333.67
229.665	303.25
230.131	293.88
230.597	261.12
231.062	312.61
231.528	289.2
231.994	237.71
232.459	265.8
232.925	371.12
233.39	303.25
233.856	286.86
234.321	289.2
234.786	298.56
235.252	289.2
235.717	340.69
236.182	204.94
236.647	286.86
237.112	319.63
237.577	291.54
238.042	307.93
238.507	230.69
238.972	242.39
239.436	291.54
239.901	272.82
240.366	319.63
240.83	265.8
241.295	291.54
241.76	286.86
242.224	211.96
242.688	347.72
243.153	331.33
243.617	244.73
244.081	279.84
244.545	228.35
245.01	258.78
245.474	275.16
245.938	249.41
246.402	282.18
246.866	293.88
247.33	293.88
247.793	289.2
248.257	275.16
248.721	268.14
249.185	317.29
249.648	261.12
250.112	296.22
250.575	307.93
251.039	303.25
251.502	282.18
251.965	324.31
252.429	223.67
252.892	207.28
253.355	289.2
253.818	305.59
254.281	336.01
254.744	310.27
255.207	296.22
255.67	286.86
256.133	261.12
256.596	268.14
257.059	338.35
257.522	298.56
257.984	289.2
258.447	310.27
258.909	364.1
259.372	282.18
259.834	296.22
260.297	244.73
260.759	300.91
261.221	286.86
261.684	268.14
262.146	321.97
262.608	305.59
263.07	328.99
263.532	293.88
263.994	303.25
264.456	382.82
264.918	317.29
265.38	310.27
265.842	359.42
266.303	307.93
266.765	328.99
267.227	286.86
267.688	300.91
268.15	312.61
268.611	272.82
269.072	244.73
269.534	326.65
269.995	240.05
270.456	270.48
270.918	300.91
271.379	291.54
271.84	268.14
272.301	293.88
272.762	226.01
273.223	277.5
273.684	310.27
274.144	307.93
274.605	270.48
275.066	296.22
275.527	265.8
275.987	277.5
276.448	300.91
276.908	366.44
277.369	392.19
277.829	289.2
278.289	247.07
278.75	305.59
279.21	291.54
279.67	305.59
280.13	277.5
280.59	289.2
281.05	326.65
281.51	352.4
281.97	321.97
282.43	303.25
282.89	254.09
283.35	254.09
283.809	284.52
284.269	429.63
284.729	340.69
285.188	389.85
285.648	380.48
286.107	340.69
286.567	324.31
287.026	237.71
287.485	247.07
287.944	345.38
288.404	312.61
288.863	331.33
289.322	345.38
289.781	326.65
290.24	375.8
290.699	289.2
291.158	350.06
291.616	328.99
292.075	361.76
292.534	371.12
292.992	296.22
293.451	303.25
293.91	328.99
294.368	307.93
294.827	303.25
295.285	336.01
295.743	275.16
296.202	385.16
296.66	328.99
297.118	289.2
297.576	366.44
298.034	256.43
298.492	254.09
298.95	319.63
299.408	310.27
299.866	249.41
300.324	331.33
300.781	328.99
301.239	305.59
301.697	328.99
302.154	265.8
302.612	289.2
303.069	380.48
303.527	298.56
303.984	333.67
304.441	340.69
304.899	310.27
305.356	336.01
305.813	314.95
306.27	331.33
306.727	307.93
307.184	324.31
307.641	319.63
308.098	237.71
308.555	242.39
309.012	300.91
309.468	340.69
309.925	258.78
310.382	312.61
310.838	319.63
311.295	310.27
311.751	284.52
312.208	312.61
312.664	303.25
313.12	305.59
313.577	286.86
314.033	321.97
314.489	279.84
314.945	298.56
315.401	312.61
315.857	326.65
316.313	303.25
316.769	357.08
317.225	272.82
317.681	331.33
318.136	352.4
318.592	378.14
319.048	300.91
319.503	272.82
319.959	350.06
320.414	293.88
320.869	321.97
321.325	286.86
321.78	375.8
322.235	293.88
322.691	312.61
323.146	364.1
323.601	326.65
324.056	226.01
324.511	340.69
324.966	340.69
325.421	282.18
325.875	366.44
326.33	333.67
326.785	303.25
327.24	270.48
327.694	310.27
328.149	380.48
328.603	293.88
329.058	321.97
329.512	296.22
329.966	375.8
330.421	350.06
330.875	331.33
331.329	354.74
331.783	331.33
332.237	328.99
332.691	242.39
333.145	364.1
333.599	324.31
334.053	350.06
334.507	296.22
334.96	314.95
335.414	272.82
335.868	312.61
336.321	279.84
336.775	312.61
337.228	354.74
337.682	314.95
338.135	345.38
338.588	361.76
339.042	350.06
339.495	328.99
339.948	359.42
340.401	244.73
340.854	373.46
341.307	354.74
341.76	263.46
342.213	312.61
342.666	328.99
343.119	314.95
343.571	408.57
344.024	324.31
344.477	378.14
344.929	319.63
345.382	350.06
345.834	289.2
346.287	359.42
346.739	331.33
347.191	314.95
347.644	340.69
348.096	314.95
348.548	350.06
349	307.93
349.452	382.82
349.904	354.74
350.356	331.33
350.808	307.93
351.26	314.95
351.711	357.08
352.163	333.67
352.615	345.38
353.066	371.12
353.518	270.48
353.969	314.95
354.421	289.2
354.872	333.67
355.324	364.1
355.775	343.03
356.226	368.78
356.677	272.82
357.128	368.78
357.579	385.16
358.03	382.82
358.481	289.2
358.932	296.22
359.383	321.97
359.834	305.59
360.285	361.76
360.735	310.27
361.186	331.33
361.637	312.61
362.087	368.78
362.538	340.69
362.988	314.95
363.438	256.43
363.889	359.42
364.339	340.69
364.789	303.25
365.239	293.88
365.689	350.06
366.139	326.65
366.589	354.74
367.039	345.38
367.489	293.88
367.939	326.65
368.389	361.76
368.839	343.03
369.288	343.03
369.738	237.71
370.187	319.63
370.637	340.69
371.086	298.56
371.536	317.29
371.985	340.69
372.434	319.63
372.884	439
373.333	300.91
373.782	366.44
374.231	317.29
374.68	366.44
375.129	319.63
375.578	338.35
376.027	305.59
376.475	314.95
376.924	305.59
377.373	343.03
377.822	366.44
378.27	275.16
378.719	326.65
379.167	284.52
379.616	364.1
380.064	305.59
380.512	242.39
380.961	361.76
381.409	345.38
381.857	375.8
382.305	345.38
382.753	291.54
383.201	312.61
383.649	244.73
384.097	310.27
384.545	357.08
384.992	394.53
385.44	307.93
385.888	324.31
386.335	314.95
386.783	268.14
387.231	328.99
387.678	333.67
388.125	336.01
388.573	340.69
389.02	359.42
389.467	361.76
389.914	378.14
390.362	343.03
390.809	284.52
391.256	293.88
391.703	345.38
392.15	350.06
392.596	289.2
393.043	340.69
393.49	345.38
393.937	272.82
394.383	312.61
394.83	366.44
395.276	401.55
395.723	399.21
396.169	314.95
396.616	406.23
397.062	314.95
397.508	319.63
397.954	368.78
398.401	321.97
398.847	317.29
399.293	303.25
399.739	375.8
400.185	401.55
400.631	317.29
401.076	347.72
401.522	378.14
401.968	300.91
402.414	296.22
402.859	296.22
403.305	343.03
403.75	354.74
404.196	282.18
404.641	345.38
405.086	326.65
405.532	279.84
405.977	296.22
406.422	268.14
406.867	235.37
407.312	324.31
407.757	347.72
408.202	354.74
408.647	354.74
409.092	319.63
409.537	331.33
409.982	347.72
410.426	343.03
410.871	328.99
411.316	361.76
411.76	326.65
412.205	230.69
412.649	382.82
413.093	314.95
413.538	265.8
413.982	286.86
414.426	396.87
414.87	300.91
415.314	307.93
415.758	331.33
416.202	350.06
416.646	317.29
417.09	357.08
417.534	324.31
417.978	373.46
418.421	303.25
418.865	347.72
419.309	343.03
419.752	326.65
420.196	314.95
420.639	359.42
421.083	333.67
421.526	387.5
421.969	286.86
422.412	293.88
422.856	321.97
423.299	298.56
423.742	378.14
424.185	307.93
424.628	331.33
425.071	340.69
425.513	319.63
425.956	312.61
426.399	319.63
426.842	359.42
427.284	345.38
427.727	357.08
428.169	321.97
428.612	286.86
429.054	359.42
429.497	399.21
429.939	371.12
430.381	307.93
430.823	265.8
431.265	345.38
431.707	373.46
432.149	326.65
432.591	422.61
433.033	321.97
433.475	385.16
433.917	352.4
434.359	305.59
434.8	366.44
435.242	392.19
435.684	319.63
436.125	368.78
436.567	312.61
437.008	296.22
437.449	366.44
437.891	300.91
438.332	331.33
438.773	293.88
439.214	261.12
439.656	328.99
440.097	296.22
440.538	382.82
440.978	368.78
441.419	291.54
441.86	371.12
442.301	345.38
442.742	296.22
443.182	345.38
443.623	333.67
444.063	307.93
444.504	319.63
444.944	340.69
445.385	314.95
445.825	415.59
446.265	324.31
446.706	352.4
447.146	350.06
447.586	293.88
448.026	289.2
448.466	359.42
448.906	289.2
449.346	275.16
449.786	364.1
450.225	385.16
450.665	359.42
451.105	324.31
451.544	415.59
451.984	343.03
452.424	380.48
452.863	256.43
453.302	312.61
453.742	312.61
454.181	289.2
454.62	392.19
455.059	303.25
455.499	350.06
455.938	326.65
456.377	357.08
456.816	394.53
457.254	336.01
457.693	350.06
458.132	394.53
458.571	333.67
459.01	305.59
459.448	361.76
459.887	307.93
460.325	319.63
460.764	387.5
461.202	368.78
461.641	392.19
462.079	338.35
462.517	338.35
462.955	326.65
463.393	298.56
463.832	371.12
464.27	371.12
464.708	310.27
465.145	286.86
465.583	338.35
466.021	359.42
466.459	256.43
466.897	310.27
467.334	331.33
467.772	366.44
468.209	359.42
468.647	364.1
469.084	324.31
469.522	368.78
469.959	361.76
470.396	251.75
470.833	343.03
471.271	289.2
471.708	284.52
472.145	350.06
472.582	347.72
473.019	326.65
473.456	305.59
473.892	359.42
474.329	326.65
474.766	357.08
475.202	324.31
475.639	265.8
476.076	326.65
476.512	328.99
476.949	357.08
477.385	340.69
477.821	368.78
478.258	361.76
478.694	324.31
479.13	272.82
479.566	350.06
480.002	303.25
480.438	364.1
480.874	350.06
481.31	286.86
481.746	336.01
482.181	289.2
482.617	352.4
483.053	307.93
483.488	284.52
483.924	300.91
484.36	314.95
484.795	336.01
485.23	343.03
485.666	289.2
486.101	371.12
486.536	312.61
486.971	343.03
487.407	387.5
487.842	333.67
488.277	317.29
488.712	321.97
489.146	326.65
489.581	317.29
490.016	317.29
490.451	347.72
490.885	382.82
491.32	300.91
491.755	230.69
492.189	347.72
492.624	300.91
493.058	399.21
493.492	371.12
493.927	387.5
494.361	314.95
494.795	277.5
495.229	275.16
495.663	359.42
496.097	270.48
496.531	293.88
496.965	336.01
497.399	326.65
497.833	396.87
498.266	328.99
498.7	293.88
499.134	338.35
499.567	324.31
500.001	382.82
500.434	328.99
500.868	345.38
501.301	333.67
501.734	307.93
502.168	357.08
502.601	291.54
503.034	258.78
503.467	378.14
503.9	300.91
504.333	319.63
504.766	366.44
505.199	354.74
505.632	359.42
506.064	366.44
506.497	408.57
506.93	310.27
507.362	328.99
507.795	345.38
508.227	352.4
508.66	387.5
509.092	333.67
509.524	333.67
509.956	338.35
510.389	359.42
510.821	359.42
511.253	279.84
511.685	326.65
512.117	361.76
512.549	378.14
512.981	340.69
513.412	310.27
513.844	389.85
514.276	340.69
514.707	354.74
515.139	321.97
515.571	300.91
516.002	321.97
516.433	331.33
516.865	347.72
517.296	321.97
517.727	305.59
518.159	368.78
518.59	331.33
519.021	282.18
519.452	284.52
519.883	373.46
520.314	345.38
520.744	261.12
521.175	305.59
521.606	373.46
522.037	333.67
522.467	389.85
522.898	314.95
523.328	373.46
523.759	300.91
524.189	317.29
524.62	307.93
525.05	275.16
525.48	333.67
525.91	347.72
526.341	357.08
526.771	413.25
527.201	307.93
527.631	312.61
528.061	338.35
528.49	305.59
528.92	263.46
529.35	343.03
529.78	354.74
530.209	268.14
530.639	331.33
531.068	357.08
531.498	293.88
531.927	338.35
532.357	312.61
532.786	303.25
533.215	230.69
533.644	350.06
534.074	310.27
534.503	331.33
534.932	387.5
535.361	382.82
535.79	340.69
536.218	258.78
536.647	298.56
537.076	350.06
537.505	328.99
537.933	312.61
538.362	321.97
538.79	333.67
539.219	368.78
539.647	380.48
540.076	364.1
540.504	364.1
540.932	382.82
541.36	284.52
541.788	321.97
542.217	366.44
542.645	371.12
543.073	319.63
543.5	368.78
543.928	354.74
544.356	328.99
544.784	336.01
545.211	366.44
545.639	354.74
546.067	291.54
546.494	310.27
546.922	314.95
547.349	314.95
547.776	319.63
548.204	296.22
548.631	310.27
549.058	298.56
549.485	275.16
549.912	305.59
550.339	340.69
550.766	286.86
551.193	296.22
551.62	364.1
552.047	336.01
552.474	247.07
552.9	284.52
553.327	293.88
553.754	310.27
554.18	286.86
554.607	251.75
555.033	317.29
555.459	336.01
555.886	300.91
556.312	331.33
556.738	296.22
557.164	328.99
557.59	310.27
558.016	343.03
558.442	345.38
558.868	326.65
559.294	333.67
559.72	314.95
560.145	317.29
560.571	338.35
560.997	286.86
561.422	293.88
561.848	242.39
562.273	352.4
562.699	296.22
563.124	340.69
563.549	373.46
563.974	371.12
564.4	336.01
564.825	340.69
565.25	401.55
565.675	343.03
566.1	359.42
566.525	338.35
566.95	396.87
567.374	375.8
567.799	307.93
568.224	364.1
568.648	366.44
569.073	303.25
569.497	338.35
569.922	324.31
570.346	328.99
570.771	361.76
571.195	364.1
571.619	385.16
572.043	345.38
572.467	324.31
572.891	340.69
573.315	366.44
573.739	333.67
574.163	324.31
574.587	350.06
575.011	321.97
575.435	310.27
575.858	307.93
576.282	354.74
576.705	293.88
577.129	326.65
577.552	305.59
577.976	375.8
578.399	333.67
578.822	317.29
579.245	314.95
579.669	340.69
580.092	343.03
580.515	396.87
580.938	338.35
581.361	368.78
581.784	350.06
582.206	293.88
582.629	242.39
583.052	338.35
583.474	345.38
583.897	350.06
584.32	251.75
584.742	324.31
585.165	333.67
585.587	314.95
586.009	256.43
586.431	328.99
586.854	293.88
587.276	284.52
587.698	368.78
588.12	350.06
588.542	371.12
588.964	317.29
589.386	368.78
589.807	307.93
590.229	378.14
590.651	317.29
591.073	385.16
591.494	350.06
591.916	352.4
592.337	378.14
592.759	343.03
593.18	380.48
593.601	317.29
594.022	350.06
594.444	317.29
594.865	340.69
595.286	289.2
595.707	408.57
596.128	364.1
596.549	394.53
596.97	359.42
597.39	347.72
597.811	317.29
598.232	324.31
598.652	357.08
599.073	312.61
599.494	361.76
599.914	305.59
600.334	336.01
600.755	347.72
601.175	350.06
601.595	359.42
602.015	336.01
602.436	347.72
602.856	417.93
603.276	364.1
603.696	331.33
604.115	286.86
604.535	305.59
604.955	359.42
605.375	361.76
605.794	317.29
606.214	364.1
606.634	317.29
607.053	289.2
607.473	326.65
607.892	254.09
608.311	324.31
608.731	300.91
609.15	314.95
609.569	268.14
609.988	333.67
610.407	373.46
610.826	371.12
611.245	392.19
611.664	396.87
612.083	307.93
612.501	347.72
612.92	312.61
613.339	254.09
613.757	275.16
614.176	300.91
614.594	338.35
615.013	312.61
615.431	258.78
615.85	293.88
616.268	347.72
616.686	366.44
617.104	270.48
617.522	303.25
617.94	373.46
618.358	333.67
618.776	366.44
619.194	333.67
619.612	359.42
620.03	319.63
620.447	331.33
620.865	343.03
621.282	312.61
621.7	326.65
622.117	338.35
622.535	326.65
622.952	312.61
623.369	331.33
623.787	366.44
624.204	328.99
624.621	352.4
625.038	303.25
625.455	350.06
625.872	361.76
626.289	305.59
626.706	378.14
627.123	242.39
627.539	331.33
627.956	321.97
628.373	387.5
628.789	382.82
629.206	357.08
629.622	279.84
630.038	270.48
630.455	359.42
630.871	268.14
631.287	249.41
631.703	352.4
632.12	361.76
632.536	303.25
632.952	336.01
633.368	303.25
633.783	382.82
634.199	312.61
634.615	359.42
635.031	319.63
635.446	307.93
635.862	282.18
636.277	331.33
636.693	307.93
637.108	310.27
637.524	333.67
637.939	305.59
638.354	331.33
638.77	324.31
639.185	347.72
639.6	359.42
640.015	312.61
640.43	284.52
640.845	345.38
641.259	328.99
641.674	298.56
642.089	275.16
642.504	307.93
642.918	249.41
643.333	361.76
643.747	244.73
644.162	326.65
644.576	371.12
644.991	284.52
645.405	303.25
645.819	338.35
646.233	366.44
646.647	364.1
647.061	378.14
647.475	340.69
647.889	291.54
648.303	314.95
648.717	347.72
649.131	298.56
649.545	378.14
649.958	380.48
650.372	359.42
650.785	380.48
651.199	352.4
651.612	439
652.026	350.06
652.439	298.56
652.852	270.48
653.266	331.33
653.679	357.08
654.092	406.23
654.505	286.86
654.918	305.59
655.331	321.97
655.744	314.95
656.156	284.52
656.569	387.5
656.982	392.19
657.394	307.93
657.807	284.52
658.22	392.19
658.632	317.29
659.044	333.67
659.457	258.78
659.869	364.1
660.281	328.99
660.693	305.59
661.106	326.65
661.518	275.16
661.93	366.44
662.342	310.27
662.754	336.01
663.165	324.31
663.577	382.82
663.989	352.4
664.401	347.72
664.812	310.27
665.224	336.01
665.635	254.09
666.047	237.71
666.458	399.21
666.869	403.89
667.281	347.72
667.692	300.91
668.103	289.2
668.514	368.78
668.925	300.91
669.336	371.12
669.747	375.8
670.158	375.8
670.569	387.5
670.979	324.31
671.39	289.2
671.801	314.95
672.211	305.59
672.622	345.38
673.032	312.61
673.443	296.22
673.853	448.36
674.263	368.78
674.674	403.89
675.084	340.69
675.494	331.33
675.904	263.46
676.314	387.5
676.724	296.22
677.134	336.01
677.544	340.69
677.953	272.82
678.363	284.52
678.773	406.23
679.182	310.27
679.592	289.2
680.001	399.21
680.411	373.46
680.82	345.38
681.23	338.35
681.639	347.72
682.048	345.38
682.457	300.91
682.866	328.99
683.275	347.72
683.684	230.69
684.093	305.59
684.502	394.53
684.911	338.35
685.32	244.73
685.728	307.93
686.137	298.56
686.546	328.99
686.954	305.59
687.363	324.31
687.771	338.35
688.179	375.8
688.588	324.31
688.996	298.56
689.404	382.82
689.812	310.27
690.22	343.03
690.628	289.2
691.036	403.89
691.444	328.99
691.852	385.16
692.26	345.38
692.667	352.4
693.075	352.4
693.483	366.44
693.89	371.12
694.298	343.03
694.705	307.93
695.112	392.19
695.52	310.27
695.927	312.61
696.334	321.97
696.741	338.35
697.148	314.95
697.555	319.63
697.962	364.1
698.369	382.82
698.776	305.59
699.183	293.88
699.59	254.09
699.996	254.09
700.403	352.4
700.81	364.1
701.216	364.1
701.623	324.31
702.029	352.4
702.435	373.46
702.842	347.72
703.248	328.99
703.654	317.29
704.06	293.88
704.466	343.03
704.872	268.14
705.278	333.67
705.684	366.44
706.09	307.93
706.496	350.06
706.901	354.74
707.307	387.5
707.712	305.59
708.118	361.76
708.523	382.82
708.929	343.03
709.334	326.65
709.74	373.46
710.145	354.74
710.55	403.89
710.955	368.78
711.36	328.99
711.765	352.4
712.17	305.59
712.575	263.46
712.98	771.35
713.385	361.76
713.789	359.42
714.194	345.38
714.599	361.76
715.003	378.14
715.408	261.12
715.812	317.29
716.217	389.85
716.621	270.48
717.025	424.95
717.429	361.76
717.833	375.8
718.238	284.52
718.642	357.08
719.046	312.61
719.449	307.93
719.853	333.67
720.257	251.75
720.661	296.22
721.065	373.46
721.468	357.08
721.872	326.65
722.275	282.18
722.679	293.88
723.082	361.76
723.485	328.99
723.889	328.99
724.292	347.72
724.695	331.33
725.098	354.74
725.501	347.72
725.904	324.31
726.307	347.72
726.71	279.84
727.113	375.8
727.516	314.95
727.918	321.97
728.321	324.31
728.724	361.76
729.126	352.4
729.529	312.61
729.931	340.69
730.333	326.65
730.736	321.97
731.138	382.82
731.54	303.25
731.942	359.42
732.344	338.35
732.746	359.42
733.148	333.67
733.55	284.52
733.952	261.12
734.354	244.73
734.756	298.56
735.157	354.74
735.559	336.01
735.96	371.12
736.362	352.4
736.763	324.31
737.165	343.03
737.566	338.35
737.967	336.01
738.368	279.84
738.77	354.74
739.171	368.78
739.572	319.63
739.973	361.76
740.374	305.59
740.774	300.91
741.175	289.2
741.576	254.09
741.977	317.29
742.377	265.8
742.778	305.59
743.178	277.5
743.579	380.48
743.979	310.27
744.379	289.2
744.78	331.33
745.18	359.42
745.58	331.33
745.98	328.99
746.38	324.31
746.78	284.52
747.18	331.33
747.58	373.46
747.98	296.22
748.38	326.65
748.779	350.06
749.179	317.29
749.578	328.99
749.978	275.16
750.377	361.76
750.777	326.65
751.176	305.59
751.575	268.14
751.975	275.16
752.374	251.75
752.773	333.67
753.172	350.06
753.571	317.29
753.97	275.16
754.369	352.4
754.768	265.8
755.166	279.84
755.565	347.72
755.964	350.06
756.362	396.87
756.761	298.56
757.159	314.95
757.558	361.76
757.956	378.14
758.354	307.93
758.753	319.63
759.151	321.97
759.549	326.65
759.947	307.93
760.345	366.44
760.743	333.67
761.141	340.69
761.539	319.63
761.936	300.91
762.334	263.46
762.732	345.38
763.129	307.93
763.527	314.95
763.924	305.59
764.322	352.4
764.719	385.16
