Data from Al_FLMS009871__751__15-15-03-026.txt Node

Date: Fri Mar 08 15:15:03 CST 2024
User: pe5414po
Spectrometer: FLMS00987
Trigger mode: 0
Integration Time (sec): 1.000000E-1
Scans to average: 1
Electric dark correction enabled: true
Nonlinearity correction enabled: false
Boxcar width: 0
XAxis mode: Wavelengths
Number of Pixels in Spectrum: 2048
>>>>>Begin Spectral Data<<<<<
188.938	-55.59
189.409	-55.59
189.879	-55.59
190.349	-130.48
190.819	-32.18
191.29	-71.97
191.76	-153.89
192.23	-71.97
192.7	-62.61
193.17	-55.59
193.64	-36.86
194.109	-8.78
194.579	-13.46
195.049	-8.78
195.519	40.37
195.988	7.61
196.458	59.1
196.927	84.84
197.397	77.82
197.866	126.97
198.336	87.18
198.805	192.51
199.274	208.89
199.744	183.15
200.213	225.28
200.682	248.68
201.151	192.51
201.62	215.91
202.089	234.64
202.558	208.89
203.027	295.49
203.495	300.17
203.964	335.28
204.433	269.75
204.902	281.45
205.37	314.22
205.839	325.92
206.307	354.01
206.776	325.92
207.244	288.47
207.712	244
208.181	339.96
208.649	269.75
209.117	311.88
209.585	274.43
210.053	321.24
210.521	272.09
210.989	236.98
211.457	314.22
211.925	314.22
212.393	187.83
212.861	227.62
213.328	328.26
213.796	276.77
214.264	290.81
214.731	288.47
215.199	286.13
215.666	269.75
216.133	258.04
216.601	246.34
217.068	269.75
217.535	258.04
218.003	236.98
218.47	290.81
218.937	248.68
219.404	269.75
219.871	286.13
220.338	234.64
220.805	307.2
221.271	239.32
221.738	255.7
222.205	281.45
222.671	251.02
223.138	265.07
223.605	272.09
224.071	253.36
224.538	269.75
225.004	283.79
225.47	276.77
225.937	218.25
226.403	288.47
226.869	227.62
227.335	323.58
227.801	314.22
228.267	248.68
228.733	302.51
229.199	295.49
229.665	346.98
230.131	225.28
230.597	262.73
231.062	229.96
231.528	192.51
231.994	251.02
232.459	236.98
232.925	279.11
233.39	229.96
233.856	267.41
234.321	283.79
234.786	300.17
235.252	297.83
235.717	290.81
236.182	262.73
236.647	328.26
237.112	255.7
237.577	293.15
238.042	241.66
238.507	293.15
238.972	246.34
239.436	276.77
239.901	262.73
240.366	251.02
240.83	337.62
241.295	244
241.76	337.62
242.224	208.89
242.688	283.79
243.153	241.66
243.617	241.66
244.081	302.51
244.545	290.81
245.01	290.81
245.474	251.02
245.938	316.56
246.402	258.04
246.866	255.7
247.33	279.11
247.793	213.57
248.257	293.15
248.721	201.87
249.185	276.77
249.648	279.11
250.112	241.66
250.575	215.91
251.039	253.36
251.502	248.68
251.965	255.7
252.429	288.47
252.892	354.01
253.355	358.69
253.818	281.45
254.281	229.96
254.744	349.32
255.207	311.88
255.67	234.64
256.133	265.07
256.596	253.36
257.059	328.26
257.522	342.3
257.984	260.38
258.447	248.68
258.909	316.56
259.372	241.66
259.834	272.09
260.297	316.56
260.759	309.54
261.221	293.15
261.684	269.75
262.146	335.28
262.608	311.88
263.07	269.75
263.532	248.68
263.994	302.51
264.456	288.47
264.918	342.3
265.38	260.38
265.842	309.54
266.303	276.77
266.765	269.75
267.227	314.22
267.688	265.07
268.15	265.07
268.611	244
269.072	297.83
269.534	314.22
269.995	244
270.456	267.41
270.918	293.15
271.379	269.75
271.84	342.3
272.301	283.79
272.762	258.04
273.223	211.23
273.684	335.28
274.144	304.85
274.605	258.04
275.066	314.22
275.527	253.36
275.987	302.51
276.448	332.94
276.908	295.49
277.369	365.71
277.829	265.07
278.289	281.45
278.75	262.73
279.21	281.45
279.67	339.96
280.13	286.13
280.59	288.47
281.05	293.15
281.51	339.96
281.97	295.49
282.43	295.49
282.89	279.11
283.35	248.68
283.809	262.73
284.269	314.22
284.729	286.13
285.188	325.92
285.648	384.43
286.107	274.43
286.567	342.3
287.026	309.54
287.485	325.92
287.944	321.24
288.404	365.71
288.863	276.77
289.322	260.38
289.781	279.11
290.24	272.09
290.699	293.15
291.158	314.22
291.616	330.6
292.075	307.2
292.534	283.79
292.992	337.62
293.451	267.41
293.91	318.9
294.368	251.02
294.827	286.13
295.285	302.51
295.743	262.73
296.202	302.51
296.66	335.28
297.118	286.13
297.576	300.17
298.034	265.07
298.492	229.96
298.95	307.2
299.408	328.26
299.866	321.24
300.324	300.17
300.781	309.54
301.239	297.83
301.697	232.3
302.154	244
302.612	349.32
303.069	307.2
303.527	288.47
303.984	269.75
304.441	311.88
304.899	276.77
305.356	260.38
305.813	302.51
306.27	246.34
306.727	281.45
307.184	262.73
307.641	307.2
308.098	337.62
308.555	323.58
309.012	293.15
309.468	269.75
309.925	283.79
310.382	283.79
310.838	361.03
311.295	244
311.751	236.98
312.208	342.3
312.664	215.91
313.12	286.13
313.577	330.6
314.033	290.81
314.489	281.45
314.945	232.3
315.401	295.49
315.857	295.49
316.313	302.51
316.769	349.32
317.225	307.2
317.681	328.26
318.136	304.85
318.592	272.09
319.048	253.36
319.503	321.24
319.959	311.88
320.414	286.13
320.869	232.3
321.325	269.75
321.78	304.85
322.235	286.13
322.691	267.41
323.146	293.15
323.601	283.79
324.056	304.85
324.511	309.54
324.966	262.73
325.421	337.62
325.875	337.62
326.33	309.54
326.785	302.51
327.24	297.83
327.694	316.56
328.149	302.51
328.603	283.79
329.058	314.22
329.512	302.51
329.966	307.2
330.421	272.09
330.875	272.09
331.329	300.17
331.783	342.3
332.237	307.2
332.691	288.47
333.145	368.05
333.599	321.24
334.053	314.22
334.507	325.92
334.96	251.02
335.414	300.17
335.868	351.67
336.321	267.41
336.775	335.28
337.228	311.88
337.682	302.51
338.135	314.22
338.588	290.81
339.042	307.2
339.495	314.22
339.948	375.07
340.401	300.17
340.854	279.11
341.307	311.88
341.76	356.35
342.213	321.24
342.666	274.43
343.119	246.34
343.571	290.81
344.024	316.56
344.477	244
344.929	281.45
345.382	300.17
345.834	307.2
346.287	307.2
346.739	246.34
347.191	330.6
347.644	302.51
348.096	344.64
348.548	297.83
349	290.81
349.452	361.03
349.904	286.13
350.356	293.15
350.808	335.28
351.26	279.11
351.711	267.41
352.163	309.54
352.615	304.85
353.066	288.47
353.518	382.09
353.969	375.07
354.421	241.66
354.872	314.22
355.324	246.34
355.775	321.24
356.226	274.43
356.677	288.47
357.128	346.98
357.579	281.45
358.03	346.98
358.481	318.9
358.932	316.56
359.383	269.75
359.834	288.47
360.285	325.92
360.735	354.01
361.186	316.56
361.637	274.43
362.087	339.96
362.538	241.66
362.988	325.92
363.438	227.62
363.889	272.09
364.339	276.77
364.789	279.11
365.239	297.83
365.689	337.62
366.139	293.15
366.589	309.54
367.039	288.47
367.489	344.64
367.939	339.96
368.389	361.03
368.839	358.69
369.288	311.88
369.738	293.15
370.187	248.68
370.637	295.49
371.086	379.75
371.536	300.17
371.985	337.62
372.434	323.58
372.884	337.62
373.333	323.58
373.782	339.96
374.231	297.83
374.68	300.17
375.129	358.69
375.578	309.54
376.027	309.54
376.475	377.41
376.924	321.24
377.373	365.71
377.822	307.2
378.27	344.64
378.719	300.17
379.167	304.85
379.616	302.51
380.064	321.24
380.512	330.6
380.961	302.51
381.409	300.17
381.857	281.45
382.305	314.22
382.753	258.04
383.201	290.81
383.649	274.43
384.097	283.79
384.545	262.73
384.992	304.85
385.44	293.15
385.888	286.13
386.335	314.22
386.783	288.47
387.231	304.85
387.678	309.54
388.125	346.98
388.573	332.94
389.02	316.56
389.467	300.17
389.914	288.47
390.362	311.88
390.809	323.58
391.256	288.47
391.703	269.75
392.15	283.79
392.596	337.62
393.043	267.41
393.49	274.43
393.937	302.51
394.383	286.13
394.83	293.15
395.276	314.22
395.723	262.73
396.169	304.85
396.616	300.17
397.062	211.23
397.508	244
397.954	330.6
398.401	361.03
398.847	321.24
399.293	258.04
399.739	335.28
400.185	318.9
400.631	328.26
401.076	286.13
401.522	356.35
401.968	349.32
402.414	311.88
402.859	325.92
403.305	351.67
403.75	325.92
404.196	314.22
404.641	342.3
405.086	339.96
405.532	244
405.977	330.6
406.422	290.81
406.867	346.98
407.312	328.26
407.757	297.83
408.202	295.49
408.647	316.56
409.092	293.15
409.537	307.2
409.982	288.47
410.426	272.09
410.871	325.92
411.316	295.49
411.76	297.83
412.205	265.07
412.649	330.6
413.093	311.88
413.538	318.9
413.982	307.2
414.426	304.85
414.87	272.09
415.314	346.98
415.758	293.15
416.202	400.82
416.646	332.94
417.09	307.2
417.534	339.96
417.978	328.26
418.421	293.15
418.865	272.09
419.309	335.28
419.752	267.41
420.196	316.56
420.639	332.94
421.083	260.38
421.526	302.51
421.969	346.98
422.412	302.51
422.856	328.26
423.299	288.47
423.742	309.54
424.185	302.51
424.628	323.58
425.071	283.79
425.513	368.05
425.956	321.24
426.399	365.71
426.842	346.98
427.284	337.62
427.727	318.9
428.169	318.9
428.612	307.2
429.054	293.15
429.497	330.6
429.939	339.96
430.381	269.75
430.823	251.02
431.265	300.17
431.707	309.54
432.149	290.81
432.591	325.92
433.033	368.05
433.475	316.56
433.917	335.28
434.359	297.83
434.8	335.28
435.242	239.32
435.684	321.24
436.125	307.2
436.567	344.64
437.008	316.56
437.449	351.67
437.891	295.49
438.332	368.05
438.773	307.2
439.214	297.83
439.656	337.62
440.097	281.45
440.538	346.98
440.978	288.47
441.419	330.6
441.86	311.88
442.301	293.15
442.742	344.64
443.182	311.88
443.623	342.3
444.063	290.81
444.504	267.41
444.944	316.56
445.385	337.62
445.825	295.49
446.265	344.64
446.706	318.9
447.146	288.47
447.586	269.75
448.026	346.98
448.466	335.28
448.906	307.2
449.346	269.75
449.786	274.43
450.225	227.62
450.665	330.6
451.105	269.75
451.544	316.56
451.984	337.62
452.424	290.81
452.863	323.58
453.302	330.6
453.742	321.24
454.181	311.88
454.62	316.56
455.059	332.94
455.499	314.22
455.938	267.41
456.377	314.22
456.816	316.56
457.254	332.94
457.693	332.94
458.132	332.94
458.571	286.13
459.01	368.05
459.448	337.62
459.887	318.9
460.325	318.9
460.764	337.62
461.202	309.54
461.641	344.64
462.079	274.43
462.517	316.56
462.955	354.01
463.393	307.2
463.832	339.96
464.27	281.45
464.708	358.69
465.145	293.15
465.583	354.01
466.021	304.85
466.459	288.47
466.897	286.13
467.334	323.58
467.772	316.56
468.209	314.22
468.647	321.24
469.084	337.62
469.522	309.54
469.959	307.2
470.396	276.77
470.833	332.94
471.271	368.05
471.708	297.83
472.145	414.86
472.582	332.94
473.019	328.26
473.456	281.45
473.892	330.6
474.329	328.26
474.766	286.13
475.202	283.79
475.639	302.51
476.076	300.17
476.512	344.64
476.949	323.58
477.385	314.22
477.821	332.94
478.258	246.34
478.694	293.15
479.13	346.98
479.566	346.98
480.002	253.36
480.438	272.09
480.874	300.17
481.31	288.47
481.746	330.6
482.181	311.88
482.617	396.14
483.053	297.83
483.488	311.88
483.924	342.3
484.36	346.98
484.795	361.03
485.23	307.2
485.666	384.43
486.101	290.81
486.536	311.88
486.971	309.54
487.407	363.37
487.842	283.79
488.277	293.15
488.712	318.9
489.146	325.92
489.581	279.11
490.016	332.94
490.451	295.49
490.885	321.24
491.32	382.09
491.755	354.01
492.189	309.54
492.624	290.81
493.058	295.49
493.492	330.6
493.927	330.6
494.361	339.96
494.795	297.83
495.229	323.58
495.663	356.35
496.097	234.64
496.531	351.67
496.965	274.43
497.399	304.85
497.833	325.92
498.266	311.88
498.7	337.62
499.134	375.07
499.567	346.98
500.001	297.83
500.434	337.62
500.868	316.56
501.301	279.11
501.734	297.83
502.168	311.88
502.601	344.64
503.034	269.75
503.467	391.45
503.9	311.88
504.333	346.98
504.766	330.6
505.199	354.01
505.632	265.07
506.064	323.58
506.497	316.56
506.93	309.54
507.362	344.64
507.795	211.23
508.227	290.81
508.66	368.05
509.092	335.28
509.524	283.79
509.956	267.41
510.389	330.6
510.821	314.22
511.253	368.05
511.685	328.26
512.117	286.13
512.549	295.49
512.981	318.9
513.412	328.26
513.844	311.88
514.276	375.07
514.707	328.26
515.139	279.11
515.571	302.51
516.002	267.41
516.433	316.56
516.865	260.38
517.296	269.75
517.727	229.96
518.159	384.43
518.59	325.92
519.021	316.56
519.452	311.88
519.883	281.45
520.314	339.96
520.744	349.32
521.175	288.47
521.606	332.94
522.037	265.07
522.467	342.3
522.898	290.81
523.328	274.43
523.759	314.22
524.189	379.75
524.62	272.09
525.05	316.56
525.48	375.07
525.91	267.41
526.341	309.54
526.771	354.01
527.201	288.47
527.631	311.88
528.061	276.77
528.49	316.56
528.92	260.38
529.35	349.32
529.78	365.71
530.209	323.58
530.639	330.6
531.068	330.6
531.498	351.67
531.927	307.2
532.357	262.73
532.786	286.13
533.215	361.03
533.644	384.43
534.074	363.37
534.503	316.56
534.932	309.54
535.361	318.9
535.79	358.69
536.218	321.24
536.647	354.01
537.076	251.02
537.505	363.37
537.933	295.49
538.362	337.62
538.79	349.32
539.219	302.51
539.647	288.47
540.076	267.41
540.504	335.28
540.932	332.94
541.36	290.81
541.788	335.28
542.217	323.58
542.645	363.37
543.073	304.85
543.5	279.11
543.928	297.83
544.356	314.22
544.784	283.79
545.211	309.54
545.639	325.92
546.067	274.43
546.494	346.98
546.922	300.17
547.349	372.73
547.776	274.43
548.204	309.54
548.631	339.96
549.058	311.88
549.485	283.79
549.912	365.71
550.339	307.2
550.766	356.35
551.193	295.49
551.62	286.13
552.047	274.43
552.474	325.92
552.9	269.75
553.327	276.77
553.754	342.3
554.18	328.26
554.607	377.41
555.033	335.28
555.459	295.49
555.886	426.56
556.312	321.24
556.738	272.09
557.164	279.11
557.59	370.39
558.016	318.9
558.442	332.94
558.868	335.28
559.294	325.92
559.72	262.73
560.145	372.73
560.571	337.62
560.997	307.2
561.422	279.11
561.848	325.92
562.273	279.11
562.699	321.24
563.124	297.83
563.549	274.43
563.974	358.69
564.4	297.83
564.825	328.26
565.25	339.96
565.675	375.07
566.1	365.71
566.525	307.2
566.95	377.41
567.374	361.03
567.799	372.73
568.224	335.28
568.648	293.15
569.073	309.54
569.497	276.77
569.922	293.15
570.346	302.51
570.771	276.77
571.195	311.88
571.619	351.67
572.043	272.09
572.467	351.67
572.891	309.54
573.315	295.49
573.739	286.13
574.163	363.37
574.587	314.22
575.011	302.51
575.435	342.3
575.858	328.26
576.282	325.92
576.705	309.54
577.129	276.77
577.552	244
577.976	321.24
578.399	302.51
578.822	335.28
579.245	304.85
579.669	297.83
580.092	286.13
580.515	286.13
580.938	339.96
581.361	262.73
581.784	349.32
582.206	337.62
582.629	300.17
583.052	323.58
583.474	358.69
583.897	314.22
584.32	293.15
584.742	297.83
585.165	318.9
585.587	309.54
586.009	375.07
586.431	337.62
586.854	321.24
587.276	260.38
587.698	339.96
588.12	321.24
588.542	349.32
588.964	300.17
589.386	288.47
589.807	286.13
590.229	253.36
590.651	337.62
591.073	358.69
591.494	288.47
591.916	295.49
592.337	339.96
592.759	372.73
593.18	262.73
593.601	321.24
594.022	225.28
594.444	328.26
594.865	279.11
595.286	339.96
595.707	295.49
596.128	297.83
596.549	330.6
596.97	335.28
597.39	342.3
597.811	300.17
598.232	288.47
598.652	272.09
599.073	330.6
599.494	323.58
599.914	349.32
600.334	330.6
600.755	255.7
601.175	337.62
601.595	351.67
602.015	351.67
602.436	318.9
602.856	417.2
603.276	293.15
603.696	286.13
604.115	309.54
604.535	297.83
604.955	375.07
605.375	295.49
605.794	286.13
606.214	251.02
606.634	260.38
607.053	354.01
607.473	332.94
607.892	309.54
608.311	279.11
608.731	325.92
609.15	316.56
609.569	342.3
609.988	330.6
610.407	344.64
610.826	368.05
611.245	311.88
611.664	295.49
612.083	361.03
612.501	293.15
612.92	328.26
613.339	272.09
613.757	290.81
614.176	262.73
614.594	309.54
615.013	335.28
615.431	349.32
615.85	269.75
616.268	354.01
616.686	363.37
617.104	321.24
617.522	332.94
617.94	363.37
618.358	339.96
618.776	335.28
619.194	290.81
619.612	304.85
620.03	311.88
620.447	323.58
620.865	325.92
621.282	283.79
621.7	304.85
622.117	318.9
622.535	290.81
622.952	297.83
623.369	229.96
623.787	361.03
624.204	311.88
624.621	241.66
625.038	274.43
625.455	314.22
625.872	337.62
626.289	309.54
626.706	344.64
627.123	351.67
627.539	332.94
627.956	297.83
628.373	302.51
628.789	293.15
629.206	309.54
629.622	346.98
630.038	363.37
630.455	304.85
630.871	286.13
631.287	283.79
631.703	297.83
632.12	354.01
632.536	272.09
632.952	318.9
633.368	309.54
633.783	307.2
634.199	283.79
634.615	274.43
635.031	321.24
635.446	354.01
635.862	288.47
636.277	262.73
636.693	328.26
637.108	267.41
637.524	311.88
637.939	368.05
638.354	377.41
638.77	307.2
639.185	318.9
639.6	318.9
640.015	328.26
640.43	365.71
640.845	316.56
641.259	288.47
641.674	269.75
642.089	311.88
642.504	293.15
642.918	274.43
643.333	335.28
643.747	288.47
644.162	300.17
644.576	309.54
644.991	356.35
645.405	335.28
645.819	302.51
646.233	288.47
646.647	288.47
647.061	363.37
647.475	339.96
647.889	318.9
648.303	297.83
648.717	260.38
649.131	349.32
649.545	295.49
649.958	330.6
650.372	321.24
650.785	377.41
651.199	281.45
651.612	262.73
652.026	272.09
652.439	337.62
652.852	318.9
653.266	279.11
653.679	377.41
654.092	368.05
654.505	339.96
654.918	260.38
655.331	302.51
655.744	332.94
656.156	393.8
656.569	290.81
656.982	208.89
657.394	258.04
657.807	328.26
658.22	354.01
658.632	251.02
659.044	384.43
659.457	295.49
659.869	349.32
660.281	344.64
660.693	307.2
661.106	307.2
661.518	323.58
661.93	304.85
662.342	339.96
662.754	288.47
663.165	382.09
663.577	272.09
663.989	318.9
664.401	295.49
664.812	208.89
665.224	265.07
665.635	325.92
666.047	349.32
666.458	328.26
666.869	314.22
667.281	281.45
667.692	325.92
668.103	351.67
668.514	354.01
668.925	346.98
669.336	311.88
669.747	372.73
670.158	328.26
670.569	325.92
670.979	316.56
671.39	337.62
671.801	325.92
672.211	279.11
672.622	288.47
673.032	293.15
673.443	297.83
673.853	344.64
674.263	363.37
674.674	260.38
675.084	276.77
675.494	335.28
675.904	279.11
676.314	325.92
676.724	293.15
677.134	295.49
677.544	311.88
677.953	293.15
678.363	339.96
678.773	361.03
679.182	323.58
679.592	309.54
680.001	304.85
680.411	286.13
680.82	286.13
681.23	295.49
681.639	321.24
682.048	300.17
682.457	276.77
682.866	332.94
683.275	328.26
683.684	267.41
684.093	316.56
684.502	323.58
684.911	286.13
685.32	288.47
685.728	346.98
686.137	297.83
686.546	346.98
686.954	323.58
687.363	311.88
687.771	283.79
688.179	302.51
688.588	363.37
688.996	267.41
689.404	323.58
689.812	281.45
690.22	304.85
690.628	283.79
691.036	262.73
691.444	248.68
691.852	246.34
692.26	417.2
692.667	323.58
693.075	241.66
693.483	318.9
693.89	323.58
694.298	267.41
694.705	365.71
695.112	297.83
695.52	377.41
695.927	309.54
696.334	281.45
696.741	316.56
697.148	396.14
697.555	318.9
697.962	368.05
698.369	368.05
698.776	293.15
699.183	295.49
699.59	311.88
699.996	267.41
700.403	342.3
700.81	314.22
701.216	272.09
701.623	295.49
702.029	346.98
702.435	253.36
702.842	323.58
703.248	316.56
703.654	323.58
704.06	307.2
704.466	349.32
704.872	304.85
705.278	339.96
705.684	356.35
706.09	344.64
706.496	286.13
706.901	253.36
707.307	286.13
707.712	279.11
708.118	330.6
708.523	267.41
708.929	311.88
709.334	229.96
709.74	255.7
710.145	309.54
710.55	361.03
710.955	300.17
711.36	267.41
711.765	295.49
712.17	330.6
712.575	281.45
712.98	831.48
713.385	337.62
713.789	332.94
714.194	337.62
714.599	232.3
715.003	307.2
715.408	330.6
715.812	314.22
716.217	297.83
716.621	288.47
717.025	335.28
717.429	304.85
717.833	318.9
718.238	302.51
718.642	330.6
719.046	354.01
719.449	342.3
719.853	269.75
720.257	328.26
720.661	304.85
721.065	307.2
721.468	337.62
721.872	288.47
722.275	316.56
722.679	281.45
723.082	274.43
723.485	302.51
723.889	363.37
724.292	251.02
724.695	307.2
725.098	342.3
725.501	318.9
725.904	297.83
726.307	307.2
726.71	302.51
727.113	290.81
727.516	321.24
727.918	302.51
728.321	396.14
728.724	337.62
729.126	339.96
729.529	332.94
729.931	295.49
730.333	351.67
730.736	251.02
731.138	304.85
731.54	304.85
731.942	290.81
732.344	281.45
732.746	293.15
733.148	375.07
733.55	309.54
733.952	344.64
734.354	274.43
734.756	323.58
735.157	307.2
735.559	316.56
735.96	358.69
736.362	337.62
736.763	295.49
737.165	391.45
737.566	325.92
737.967	379.75
738.368	274.43
738.77	300.17
739.171	321.24
739.572	307.2
739.973	351.67
740.374	342.3
740.774	293.15
741.175	318.9
741.576	283.79
741.977	351.67
742.377	314.22
742.778	337.62
743.178	279.11
743.579	318.9
743.979	286.13
744.379	337.62
744.78	321.24
745.18	339.96
745.58	307.2
745.98	375.07
746.38	321.24
746.78	314.22
747.18	384.43
747.58	330.6
747.98	265.07
748.38	328.26
748.779	215.91
749.179	358.69
749.578	300.17
749.978	300.17
750.377	311.88
750.777	311.88
751.176	309.54
751.575	279.11
751.975	232.3
752.374	300.17
752.773	328.26
753.172	293.15
753.571	344.64
753.97	283.79
754.369	283.79
754.768	354.01
755.166	361.03
755.565	400.82
755.964	323.58
756.362	398.48
756.761	246.34
757.159	286.13
757.558	297.83
757.956	267.41
758.354	295.49
758.753	304.85
759.151	304.85
759.549	297.83
759.947	267.41
760.345	300.17
760.743	300.17
761.141	295.49
761.539	330.6
761.936	318.9
762.334	339.96
762.732	297.83
763.129	267.41
763.527	276.77
763.924	321.24
764.322	281.45
764.719	316.56
765.117	342.3
765.514	318.9
765.911	342.3
