Data from Al_FLMS009871__756__15-15-03-526.txt Node

Date: Fri Mar 08 15:15:03 CST 2024
User: pe5414po
Spectrometer: FLMS00987
Trigger mode: 0
Integration Time (sec): 1.000000E-1
Scans to average: 1
Electric dark correction enabled: true
Nonlinearity correction enabled: false
Boxcar width: 0
XAxis mode: Wavelengths
Number of Pixels in Spectrum: 2048
>>>>>Begin Spectral Data<<<<<
188.938	-82.21
189.409	-82.21
189.879	-82.21
190.349	-164.13
190.819	-150.09
191.29	-131.36
191.76	-75.19
192.23	-82.21
192.7	-49.44
193.17	-65.83
193.64	-28.38
194.109	-47.1
194.579	32.47
195.049	-12
195.519	-9.65
195.988	32.47
196.458	13.75
196.927	86.31
197.397	86.31
197.866	60.56
198.336	189.29
198.805	170.57
199.274	107.37
199.744	144.82
200.213	236.1
200.682	224.4
201.151	238.44
201.62	198.65
202.089	189.29
202.558	229.08
203.027	280.57
203.495	259.51
203.964	238.44
204.433	289.93
204.902	236.1
205.37	224.4
205.839	343.77
206.307	315.68
206.776	322.7
207.244	257.17
207.712	252.49
208.181	296.96
208.649	278.23
209.117	287.59
209.585	250.14
210.053	261.85
210.521	343.77
210.989	273.55
211.457	296.96
211.925	315.68
212.393	229.08
212.861	259.51
213.328	266.53
213.796	311
214.264	259.51
214.731	259.51
215.199	292.27
215.666	282.91
216.133	318.02
216.601	273.55
217.068	348.45
217.535	229.08
218.003	261.85
218.47	238.44
218.937	247.8
219.404	308.66
219.871	203.33
220.338	205.67
220.805	296.96
221.271	282.91
221.738	252.49
222.205	231.42
222.671	243.12
223.138	250.14
223.605	219.72
224.071	271.21
224.538	268.87
225.004	322.7
225.47	222.06
225.937	264.19
226.403	318.02
226.869	278.23
227.335	278.23
227.801	320.36
228.267	257.17
228.733	233.76
229.199	231.42
229.665	325.04
230.131	275.89
230.597	245.46
231.062	243.12
231.528	292.27
231.994	287.59
232.459	287.59
232.925	238.44
233.39	261.85
233.856	219.72
234.321	325.04
234.786	240.78
235.252	231.42
235.717	280.57
236.182	301.64
236.647	292.27
237.112	296.96
237.577	254.83
238.042	257.17
238.507	285.25
238.972	261.85
239.436	245.46
239.901	266.53
240.366	292.27
240.83	254.83
241.295	327.38
241.76	280.57
242.224	245.46
242.688	261.85
243.153	261.85
243.617	243.12
244.081	294.61
244.545	294.61
245.01	289.93
245.474	285.25
245.938	243.12
246.402	292.27
246.866	264.19
247.33	355.47
247.793	259.51
248.257	318.02
248.721	303.98
249.185	275.89
249.648	224.4
250.112	325.04
250.575	275.89
251.039	250.14
251.502	292.27
251.965	303.98
252.429	212.7
252.892	306.32
253.355	296.96
253.818	341.43
254.281	311
254.744	292.27
255.207	250.14
255.67	296.96
256.133	292.27
256.596	294.61
257.059	327.38
257.522	250.14
257.984	264.19
258.447	285.25
258.909	311
259.372	238.44
259.834	250.14
260.297	322.7
260.759	268.87
261.221	327.38
261.684	311
262.146	259.51
262.608	296.96
263.07	254.83
263.532	322.7
263.994	285.25
264.456	320.36
264.918	329.72
265.38	303.98
265.842	282.91
266.303	287.59
266.765	322.7
267.227	318.02
267.688	273.55
268.15	355.47
268.611	320.36
269.072	226.74
269.534	233.76
269.995	341.43
270.456	271.21
270.918	313.34
271.379	261.85
271.84	289.93
272.301	287.59
272.762	308.66
273.223	306.32
273.684	322.7
274.144	247.8
274.605	240.78
275.066	271.21
275.527	325.04
275.987	278.23
276.448	292.27
276.908	381.21
277.369	257.17
277.829	320.36
278.289	301.64
278.75	257.17
279.21	259.51
279.67	325.04
280.13	280.57
280.59	247.8
281.05	273.55
281.51	273.55
281.97	287.59
282.43	257.17
282.89	278.23
283.35	252.49
283.809	210.36
284.269	282.91
284.729	287.59
285.188	292.27
285.648	313.34
286.107	259.51
286.567	257.17
287.026	259.51
287.485	294.61
287.944	268.87
288.404	292.27
288.863	315.68
289.322	254.83
289.781	320.36
290.24	311
290.699	322.7
291.158	329.72
291.616	303.98
292.075	285.25
292.534	299.3
292.992	339.09
293.451	233.76
293.91	315.68
294.368	320.36
294.827	243.12
295.285	243.12
295.743	261.85
296.202	268.87
296.66	346.11
297.118	341.43
297.576	341.43
298.034	350.79
298.492	292.27
298.95	229.08
299.408	329.72
299.866	296.96
300.324	264.19
300.781	318.02
301.239	296.96
301.697	280.57
302.154	296.96
302.612	257.17
303.069	336.74
303.527	357.81
303.984	280.57
304.441	343.77
304.899	315.68
305.356	280.57
305.813	313.34
306.27	374.19
306.727	306.32
307.184	292.27
307.641	275.89
308.098	282.91
308.555	318.02
309.012	325.04
309.468	289.93
309.925	357.81
310.382	308.66
310.838	257.17
311.295	353.13
311.751	285.25
312.208	299.3
312.664	397.6
313.12	278.23
313.577	301.64
314.033	329.72
314.489	336.74
314.945	292.27
315.401	278.23
315.857	285.25
316.313	327.38
316.769	336.74
317.225	308.66
317.681	292.27
318.136	301.64
318.592	229.08
319.048	285.25
319.503	303.98
319.959	341.43
320.414	233.76
320.869	311
321.325	301.64
321.78	311
322.235	292.27
322.691	332.06
323.146	257.17
323.601	238.44
324.056	318.02
324.511	271.21
324.966	296.96
325.421	311
325.875	329.72
326.33	303.98
326.785	308.66
327.24	301.64
327.694	275.89
328.149	303.98
328.603	339.09
329.058	271.21
329.512	308.66
329.966	296.96
330.421	282.91
330.875	308.66
331.329	346.11
331.783	275.89
332.237	315.68
332.691	346.11
333.145	346.11
333.599	261.85
334.053	311
334.507	273.55
334.96	341.43
335.414	332.06
335.868	294.61
336.321	285.25
336.775	322.7
337.228	325.04
337.682	334.4
338.135	301.64
338.588	325.04
339.042	273.55
339.495	376.53
339.948	264.19
340.401	294.61
340.854	268.87
341.307	421
341.76	327.38
342.213	289.93
342.666	278.23
343.119	311
343.571	364.83
344.024	266.53
344.477	285.25
344.929	311
345.382	336.74
345.834	346.11
346.287	278.23
346.739	296.96
347.191	332.06
347.644	341.43
348.096	280.57
348.548	353.13
349	273.55
349.452	287.59
349.904	292.27
350.356	346.11
350.808	329.72
351.26	369.51
351.711	329.72
352.163	252.49
352.615	280.57
353.066	313.34
353.518	278.23
353.969	369.51
354.421	299.3
354.872	313.34
355.324	339.09
355.775	320.36
356.226	320.36
356.677	346.11
357.128	320.36
357.579	229.08
358.03	318.02
358.481	313.34
358.932	299.3
359.383	289.93
359.834	292.27
360.285	350.79
360.735	311
361.186	289.93
361.637	294.61
362.087	350.79
362.538	282.91
362.988	346.11
363.438	318.02
363.889	282.91
364.339	320.36
364.789	275.89
365.239	289.93
365.689	294.61
366.139	271.21
366.589	303.98
367.039	278.23
367.489	280.57
367.939	287.59
368.389	336.74
368.839	348.45
369.288	362.49
369.738	364.83
370.187	292.27
370.637	313.34
371.086	332.06
371.536	296.96
371.985	308.66
372.434	332.06
372.884	339.09
373.333	282.91
373.782	325.04
374.231	229.08
374.68	282.91
375.129	322.7
375.578	327.38
376.027	264.19
376.475	339.09
376.924	369.51
377.373	343.77
377.822	360.15
378.27	318.02
378.719	313.34
379.167	334.4
379.616	296.96
380.064	287.59
380.512	332.06
380.961	292.27
381.409	236.1
381.857	245.46
382.305	278.23
382.753	339.09
383.201	332.06
383.649	303.98
384.097	402.28
384.545	325.04
384.992	257.17
385.44	367.17
385.888	325.04
386.335	280.57
386.783	320.36
387.231	273.55
387.678	299.3
388.125	273.55
388.573	313.34
389.02	313.34
389.467	355.47
389.914	294.61
390.362	322.7
390.809	311
391.256	311
391.703	346.11
392.15	367.17
392.596	334.4
393.043	271.21
393.49	303.98
393.937	322.7
394.383	303.98
394.83	315.68
395.276	341.43
395.723	296.96
396.169	348.45
396.616	306.32
397.062	339.09
397.508	334.4
397.954	343.77
398.401	327.38
398.847	301.64
399.293	275.89
399.739	334.4
400.185	325.04
400.631	313.34
401.076	327.38
401.522	320.36
401.968	296.96
402.414	348.45
402.859	296.96
403.305	252.49
403.75	360.15
404.196	367.17
404.641	266.53
405.086	287.59
405.532	341.43
405.977	367.17
406.422	285.25
406.867	282.91
407.312	236.1
407.757	315.68
408.202	332.06
408.647	339.09
409.092	360.15
409.537	308.66
409.982	292.27
410.426	315.68
410.871	364.83
411.316	292.27
411.76	266.53
412.205	378.87
412.649	311
413.093	318.02
413.538	318.02
413.982	357.81
414.426	311
414.87	341.43
415.314	411.64
415.758	318.02
416.202	285.25
416.646	346.11
417.09	287.59
417.534	303.98
417.978	308.66
418.421	334.4
418.865	294.61
419.309	301.64
419.752	306.32
420.196	332.06
420.639	296.96
421.083	325.04
421.526	247.8
421.969	320.36
422.412	334.4
422.856	301.64
423.299	320.36
423.742	287.59
424.185	322.7
424.628	311
425.071	294.61
425.513	341.43
425.956	334.4
426.399	306.32
426.842	299.3
427.284	343.77
427.727	296.96
428.169	315.68
428.612	315.68
429.054	275.89
429.497	287.59
429.939	334.4
430.381	292.27
430.823	296.96
431.265	306.32
431.707	329.72
432.149	287.59
432.591	243.12
433.033	353.13
433.475	334.4
433.917	336.74
434.359	296.96
434.8	275.89
435.242	278.23
435.684	339.09
436.125	322.7
436.567	292.27
437.008	306.32
437.449	306.32
437.891	271.21
438.332	334.4
438.773	303.98
439.214	353.13
439.656	325.04
440.097	318.02
440.538	334.4
440.978	296.96
441.419	381.21
441.86	287.59
442.301	280.57
442.742	292.27
443.182	306.32
443.623	325.04
444.063	296.96
444.504	294.61
444.944	383.56
445.385	311
445.825	287.59
446.265	329.72
446.706	329.72
447.146	257.17
447.586	303.98
448.026	325.04
448.466	285.25
448.906	289.93
449.346	250.14
449.786	301.64
450.225	343.77
450.665	343.77
451.105	355.47
451.544	371.85
451.984	327.38
452.424	273.55
452.863	381.21
453.302	243.12
453.742	339.09
454.181	285.25
454.62	336.74
455.059	357.81
455.499	332.06
455.938	294.61
456.377	231.42
456.816	341.43
457.254	355.47
457.693	301.64
458.132	296.96
458.571	339.09
459.01	353.13
459.448	327.38
459.887	355.47
460.325	268.87
460.764	322.7
461.202	353.13
461.641	346.11
462.079	341.43
462.517	343.77
462.955	315.68
463.393	278.23
463.832	332.06
464.27	296.96
464.708	334.4
465.145	343.77
465.583	301.64
466.021	329.72
466.459	306.32
466.897	339.09
467.334	301.64
467.772	275.89
468.209	247.8
468.647	282.91
469.084	327.38
469.522	369.51
469.959	250.14
470.396	273.55
470.833	308.66
471.271	299.3
471.708	315.68
472.145	334.4
472.582	280.57
473.019	303.98
473.456	332.06
473.892	268.87
474.329	296.96
474.766	275.89
475.202	282.91
475.639	339.09
476.076	287.59
476.512	362.49
476.949	399.94
477.385	294.61
477.821	336.74
478.258	259.51
478.694	329.72
479.13	334.4
479.566	329.72
480.002	378.87
480.438	301.64
480.874	327.38
481.31	282.91
481.746	364.83
482.181	343.77
482.617	341.43
483.053	313.34
483.488	392.92
483.924	266.53
484.36	296.96
484.795	395.26
485.23	385.9
485.666	275.89
486.101	301.64
486.536	348.45
486.971	388.24
487.407	299.3
487.842	325.04
488.277	280.57
488.712	271.21
489.146	311
489.581	271.21
490.016	301.64
490.451	313.34
490.885	327.38
491.32	313.34
491.755	355.47
492.189	318.02
492.624	320.36
493.058	318.02
493.492	296.96
493.927	294.61
494.361	257.17
494.795	346.11
495.229	303.98
495.663	315.68
496.097	343.77
496.531	362.49
496.965	313.34
497.399	320.36
497.833	329.72
498.266	334.4
498.7	329.72
499.134	325.04
499.567	332.06
500.001	299.3
500.434	278.23
500.868	299.3
501.301	311
501.734	315.68
502.168	308.66
502.601	315.68
503.034	318.02
503.467	318.02
503.9	385.9
504.333	299.3
504.766	287.59
505.199	303.98
505.632	327.38
506.064	294.61
506.497	350.79
506.93	320.36
507.362	273.55
507.795	332.06
508.227	296.96
508.66	348.45
509.092	313.34
509.524	285.25
509.956	278.23
510.389	292.27
510.821	275.89
511.253	325.04
511.685	334.4
512.117	301.64
512.549	346.11
512.981	296.96
513.412	348.45
513.844	334.4
514.276	308.66
514.707	336.74
515.139	315.68
515.571	350.79
516.002	334.4
516.433	303.98
516.865	299.3
517.296	325.04
517.727	329.72
518.159	334.4
518.59	287.59
519.021	322.7
519.452	329.72
519.883	299.3
520.314	325.04
520.744	362.49
521.175	311
521.606	336.74
522.037	374.19
522.467	296.96
522.898	287.59
523.328	289.93
523.759	271.21
524.189	322.7
524.62	296.96
525.05	273.55
525.48	252.49
525.91	313.34
526.341	301.64
526.771	325.04
527.201	364.83
527.631	336.74
528.061	315.68
528.49	327.38
528.92	357.81
529.35	374.19
529.78	275.89
530.209	301.64
530.639	266.53
531.068	374.19
531.498	299.3
531.927	273.55
532.357	308.66
532.786	371.85
533.215	299.3
533.644	238.44
534.074	299.3
534.503	313.34
534.932	320.36
535.361	303.98
535.79	343.77
536.218	308.66
536.647	311
537.076	285.25
537.505	278.23
537.933	315.68
538.362	322.7
538.79	289.93
539.219	320.36
539.647	306.32
540.076	329.72
540.504	329.72
540.932	294.61
541.36	299.3
541.788	362.49
542.217	308.66
542.645	313.34
543.073	348.45
543.5	318.02
543.928	320.36
544.356	336.74
544.784	357.81
545.211	332.06
545.639	294.61
546.067	252.49
546.494	275.89
546.922	280.57
547.349	357.81
547.776	390.58
548.204	355.47
548.631	348.45
549.058	378.87
549.485	275.89
549.912	325.04
550.339	322.7
550.766	360.15
551.193	339.09
551.62	320.36
552.047	348.45
552.474	282.91
552.9	296.96
553.327	318.02
553.754	332.06
554.18	322.7
554.607	308.66
555.033	339.09
555.459	257.17
555.886	296.96
556.312	385.9
556.738	369.51
557.164	266.53
557.59	296.96
558.016	259.51
558.442	313.34
558.868	301.64
559.294	348.45
559.72	315.68
560.145	278.23
560.571	292.27
560.997	261.85
561.422	327.38
561.848	315.68
562.273	301.64
562.699	322.7
563.124	308.66
563.549	341.43
563.974	325.04
564.4	280.57
564.825	315.68
565.25	336.74
565.675	390.58
566.1	250.14
566.525	313.34
566.95	367.17
567.374	266.53
567.799	296.96
568.224	329.72
568.648	357.81
569.073	294.61
569.497	301.64
569.922	278.23
570.346	355.47
570.771	355.47
571.195	301.64
571.619	303.98
572.043	311
572.467	392.92
572.891	364.83
573.315	322.7
573.739	334.4
574.163	332.06
574.587	355.47
575.011	336.74
575.435	278.23
575.858	292.27
576.282	311
576.705	350.79
577.129	303.98
577.552	315.68
577.976	252.49
578.399	322.7
578.822	362.49
579.245	357.81
579.669	292.27
580.092	397.6
580.515	348.45
580.938	339.09
581.361	285.25
581.784	303.98
582.206	348.45
582.629	289.93
583.052	289.93
583.474	357.81
583.897	320.36
584.32	327.38
584.742	303.98
585.165	257.17
585.587	266.53
586.009	369.51
586.431	280.57
586.854	236.1
587.276	376.53
587.698	287.59
588.12	306.32
588.542	350.79
588.964	243.12
589.386	322.7
589.807	325.04
590.229	343.77
590.651	334.4
591.073	308.66
591.494	296.96
591.916	301.64
592.337	329.72
592.759	268.87
593.18	303.98
593.601	353.13
594.022	364.83
594.444	289.93
594.865	292.27
595.286	343.77
595.707	292.27
596.128	336.74
596.549	327.38
596.97	346.11
597.39	311
597.811	299.3
598.232	318.02
598.652	332.06
599.073	341.43
599.494	318.02
599.914	341.43
600.334	308.66
600.755	268.87
601.175	339.09
601.595	332.06
602.015	268.87
602.436	289.93
602.856	395.26
603.276	402.28
603.696	273.55
604.115	367.17
604.535	280.57
604.955	294.61
605.375	369.51
605.794	327.38
606.214	275.89
606.634	285.25
607.053	334.4
607.473	315.68
607.892	224.4
608.311	254.83
608.731	325.04
609.15	259.51
609.569	301.64
609.988	318.02
610.407	318.02
610.826	339.09
611.245	353.13
611.664	332.06
612.083	308.66
612.501	318.02
612.92	332.06
613.339	343.77
613.757	325.04
614.176	289.93
614.594	336.74
615.013	306.32
615.431	287.59
615.85	315.68
616.268	318.02
616.686	313.34
617.104	311
617.522	339.09
617.94	259.51
618.358	327.38
618.776	287.59
619.194	280.57
619.612	318.02
620.03	315.68
620.447	299.3
620.865	273.55
621.282	285.25
621.7	383.56
622.117	315.68
622.535	318.02
622.952	271.21
623.369	301.64
623.787	299.3
624.204	343.77
624.621	318.02
625.038	383.56
625.455	383.56
625.872	332.06
626.289	348.45
626.706	341.43
627.123	294.61
627.539	322.7
627.956	301.64
628.373	346.11
628.789	259.51
629.206	268.87
629.622	296.96
630.038	266.53
630.455	303.98
630.871	250.14
631.287	311
631.703	311
632.12	278.23
632.536	311
632.952	362.49
633.368	299.3
633.783	275.89
634.199	250.14
634.615	374.19
635.031	339.09
635.446	285.25
635.862	245.46
636.277	362.49
636.693	318.02
637.108	355.47
637.524	339.09
637.939	285.25
638.354	348.45
638.77	308.66
639.185	275.89
639.6	257.17
640.015	306.32
640.43	327.38
640.845	364.83
641.259	296.96
641.674	278.23
642.089	301.64
642.504	271.21
642.918	308.66
643.333	287.59
643.747	315.68
644.162	336.74
644.576	322.7
644.991	332.06
645.405	292.27
645.819	320.36
646.233	257.17
646.647	385.9
647.061	311
647.475	266.53
647.889	238.44
648.303	287.59
648.717	271.21
649.131	289.93
649.545	264.19
649.958	282.91
650.372	343.77
650.785	271.21
651.199	313.34
651.612	308.66
652.026	252.49
652.439	311
652.852	289.93
653.266	306.32
653.679	332.06
654.092	322.7
654.505	303.98
654.918	355.47
655.331	296.96
655.744	296.96
656.156	371.85
656.569	362.49
656.982	299.3
657.394	311
657.807	245.46
658.22	329.72
658.632	301.64
659.044	285.25
659.457	327.38
659.869	322.7
660.281	299.3
660.693	289.93
661.106	362.49
661.518	280.57
661.93	306.32
662.342	252.49
662.754	336.74
663.165	301.64
663.577	360.15
663.989	348.45
664.401	275.89
664.812	313.34
665.224	336.74
665.635	371.85
666.047	308.66
666.458	264.19
666.869	273.55
667.281	285.25
667.692	325.04
668.103	280.57
668.514	341.43
668.925	299.3
669.336	320.36
669.747	296.96
670.158	313.34
670.569	325.04
670.979	327.38
671.39	280.57
671.801	381.21
672.211	357.81
672.622	282.91
673.032	350.79
673.443	327.38
673.853	287.59
674.263	285.25
674.674	332.06
675.084	329.72
675.494	229.08
675.904	329.72
676.314	320.36
676.724	301.64
677.134	266.53
677.544	315.68
677.953	233.76
678.363	360.15
678.773	369.51
679.182	292.27
679.592	301.64
680.001	318.02
680.411	329.72
680.82	287.59
681.23	388.24
681.639	341.43
682.048	294.61
682.457	322.7
682.866	339.09
683.275	325.04
683.684	311
684.093	329.72
684.502	371.85
684.911	318.02
685.32	343.77
685.728	318.02
686.137	308.66
686.546	282.91
686.954	388.24
687.363	334.4
687.771	313.34
688.179	294.61
688.588	308.66
688.996	292.27
689.404	231.42
689.812	329.72
690.22	348.45
690.628	336.74
691.036	313.34
691.444	240.78
691.852	336.74
692.26	275.89
692.667	318.02
693.075	306.32
693.483	325.04
693.89	313.34
694.298	348.45
694.705	308.66
695.112	278.23
695.52	311
695.927	292.27
696.334	336.74
696.741	392.92
697.148	325.04
697.555	355.47
697.962	289.93
698.369	313.34
698.776	303.98
699.183	296.96
699.59	327.38
699.996	289.93
700.403	320.36
700.81	250.14
701.216	296.96
701.623	308.66
702.029	318.02
702.435	294.61
702.842	367.17
703.248	348.45
703.654	327.38
704.06	332.06
704.466	371.85
704.872	332.06
705.278	355.47
705.684	313.34
706.09	320.36
706.496	353.13
706.901	334.4
707.307	313.34
707.712	301.64
708.118	318.02
708.523	311
708.929	254.83
709.334	357.81
709.74	308.66
710.145	336.74
710.55	360.15
710.955	355.47
711.36	313.34
711.765	303.98
712.17	294.61
712.575	282.91
712.98	739.32
713.385	329.72
713.789	348.45
714.194	357.81
714.599	303.98
715.003	280.57
715.408	252.49
715.812	313.34
716.217	289.93
716.621	301.64
717.025	346.11
717.429	327.38
717.833	306.32
718.238	313.34
718.642	294.61
719.046	303.98
719.449	327.38
719.853	259.51
720.257	301.64
720.661	250.14
721.065	292.27
721.468	280.57
721.872	339.09
722.275	299.3
722.679	296.96
723.082	350.79
723.485	327.38
723.889	341.43
724.292	294.61
724.695	306.32
725.098	353.13
725.501	303.98
725.904	339.09
726.307	343.77
726.71	329.72
727.113	282.91
727.516	329.72
727.918	332.06
728.321	273.55
728.724	303.98
729.126	289.93
729.529	308.66
729.931	311
730.333	303.98
730.736	282.91
731.138	378.87
731.54	327.38
731.942	261.85
732.344	287.59
732.746	322.7
733.148	315.68
733.55	318.02
733.952	257.17
734.354	296.96
734.756	320.36
735.157	343.77
735.559	327.38
735.96	325.04
736.362	329.72
736.763	336.74
737.165	315.68
737.566	289.93
737.967	292.27
738.368	322.7
738.77	280.57
739.171	292.27
739.572	285.25
739.973	336.74
740.374	311
740.774	285.25
741.175	266.53
741.576	339.09
741.977	327.38
742.377	299.3
742.778	353.13
743.178	296.96
743.579	303.98
743.979	350.79
744.379	289.93
744.78	282.91
745.18	311
745.58	296.96
745.98	268.87
746.38	332.06
746.78	332.06
747.18	322.7
747.58	343.77
747.98	315.68
748.38	268.87
748.779	259.51
749.179	306.32
749.578	362.49
749.978	329.72
750.377	250.14
750.777	254.83
751.176	329.72
751.575	301.64
751.975	289.93
752.374	311
752.773	303.98
753.172	336.74
753.571	280.57
753.97	355.47
754.369	346.11
754.768	376.53
755.166	355.47
755.565	322.7
755.964	341.43
756.362	322.7
756.761	313.34
757.159	341.43
757.558	306.32
757.956	315.68
758.354	334.4
758.753	292.27
759.151	231.42
759.549	348.45
759.947	278.23
760.345	282.91
760.743	266.53
761.141	296.96
761.539	327.38
761.936	315.68
762.334	275.89
762.732	311
763.129	296.96
763.527	341.43
763.924	343.77
764.322	226.74
764.719	336.74
765.117	339.09
765.514	278.23
765.911	325.04
766.308	247.8
766.705	257.17
767.102	313.34
767.499	320.36
767.896	268.87
