Data from Al_FLMS009871__694__15-07-14-137.txt Node

Date: Fri Mar 08 15:07:14 CST 2024
User: pe5414po
Spectrometer: FLMS00987
Trigger mode: 0
Integration Time (sec): 1.000000E-1
Scans to average: 1
Electric dark correction enabled: true
Nonlinearity correction enabled: false
Boxcar width: 0
XAxis mode: Wavelengths
Number of Pixels in Spectrum: 2048
>>>>>Begin Spectral Data<<<<<
188.938	-82.07
189.409	-82.07
189.879	-82.07
190.349	-114.83
190.819	-70.36
191.29	-210.79
191.76	-72.7
192.23	-58.66
192.7	-96.11
193.17	-18.87
193.64	-28.23
194.109	-42.28
194.579	16.24
195.049	-58.66
195.519	-7.17
195.988	20.92
196.458	74.75
196.927	86.45
197.397	128.58
197.866	121.56
198.336	144.97
198.805	123.9
199.274	140.29
199.744	180.07
200.213	203.48
200.682	205.82
201.151	168.37
201.62	287.74
202.089	168.37
202.558	278.38
203.027	250.29
203.495	240.93
203.964	264.33
204.433	259.65
204.902	301.78
205.37	311.14
205.839	357.96
206.307	299.44
206.776	311.14
207.244	294.76
207.712	290.08
208.181	350.93
208.649	329.87
209.117	290.08
209.585	304.12
210.053	283.06
210.521	261.99
210.989	276.04
211.457	278.38
211.925	247.95
212.393	238.59
212.861	254.97
213.328	285.4
213.796	292.42
214.264	233.91
214.731	247.95
215.199	336.89
215.666	276.04
216.133	261.99
216.601	250.29
217.068	266.67
217.535	217.52
218.003	257.31
218.47	292.42
218.937	208.16
219.404	276.04
219.871	257.31
220.338	285.4
220.805	247.95
221.271	201.14
221.738	252.63
222.205	261.99
222.671	257.31
223.138	233.91
223.605	210.5
224.071	283.06
224.538	194.12
225.004	304.12
225.47	156.67
225.937	290.08
226.403	280.72
226.869	254.97
227.335	238.59
227.801	278.38
228.267	269.02
228.733	264.33
229.199	332.21
229.665	247.95
230.131	217.52
230.597	292.42
231.062	219.86
231.528	257.31
231.994	271.36
232.459	327.53
232.925	294.76
233.39	294.76
233.856	327.53
234.321	292.42
234.786	273.7
235.252	210.5
235.717	327.53
236.182	264.33
236.647	336.89
237.112	224.55
237.577	243.27
238.042	236.25
238.507	308.8
238.972	236.25
239.436	259.65
239.901	269.02
240.366	276.04
240.83	236.25
241.295	247.95
241.76	236.25
242.224	306.46
242.688	280.72
243.153	313.49
243.617	215.18
244.081	266.67
244.545	283.06
245.01	311.14
245.474	252.63
245.938	259.65
246.402	341.57
246.866	299.44
247.33	276.04
247.793	222.2
248.257	306.46
248.721	276.04
249.185	362.64
249.648	280.72
250.112	217.52
250.575	236.25
251.039	271.36
251.502	269.02
251.965	217.52
252.429	318.17
252.892	252.63
253.355	273.7
253.818	273.7
254.281	271.36
254.744	273.7
255.207	278.38
255.67	233.91
256.133	243.27
256.596	301.78
257.059	247.95
257.522	287.74
257.984	334.55
258.447	264.33
258.909	304.12
259.372	304.12
259.834	273.7
260.297	245.61
260.759	224.55
261.221	238.59
261.684	252.63
262.146	304.12
262.608	266.67
263.07	273.7
263.532	276.04
263.994	315.83
264.456	266.67
264.918	294.76
265.38	271.36
265.842	341.57
266.303	287.74
266.765	327.53
267.227	308.8
267.688	311.14
268.15	308.8
268.611	329.87
269.072	240.93
269.534	250.29
269.995	266.67
270.456	301.78
270.918	215.18
271.379	283.06
271.84	287.74
272.301	336.89
272.762	294.76
273.223	231.57
273.684	285.4
274.144	250.29
274.605	311.14
275.066	304.12
275.527	254.97
275.987	341.57
276.448	269.02
276.908	332.21
277.369	271.36
277.829	290.08
278.289	350.93
278.75	259.65
279.21	215.18
279.67	311.14
280.13	264.33
280.59	327.53
281.05	292.42
281.51	245.61
281.97	318.17
282.43	313.49
282.89	339.23
283.35	313.49
283.809	243.27
284.269	343.91
284.729	308.8
285.188	266.67
285.648	252.63
286.107	142.63
286.567	250.29
287.026	329.87
287.485	280.72
287.944	339.23
288.404	304.12
288.863	292.42
289.322	313.49
289.781	273.7
290.24	261.99
290.699	266.67
291.158	304.12
291.616	341.57
292.075	304.12
292.534	301.78
292.992	266.67
293.451	280.72
293.91	327.53
294.368	261.99
294.827	299.44
295.285	261.99
295.743	329.87
296.202	306.46
296.66	278.38
297.118	315.83
297.576	250.29
298.034	252.63
298.492	254.97
298.95	297.1
299.408	245.61
299.866	292.42
300.324	259.65
300.781	322.85
301.239	348.59
301.697	243.27
302.154	322.85
302.612	245.61
303.069	294.76
303.527	271.36
303.984	325.19
304.441	233.91
304.899	304.12
305.356	257.31
305.813	278.38
306.27	264.33
306.727	264.33
307.184	290.08
307.641	266.67
308.098	254.97
308.555	299.44
309.012	238.59
309.468	269.02
309.925	266.67
310.382	341.57
310.838	273.7
311.295	294.76
311.751	311.14
312.208	304.12
312.664	332.21
313.12	261.99
313.577	252.63
314.033	280.72
314.489	290.08
314.945	308.8
315.401	231.57
315.857	264.33
316.313	264.33
316.769	311.14
317.225	245.61
317.681	273.7
318.136	294.76
318.592	313.49
319.048	285.4
319.503	318.17
319.959	280.72
320.414	304.12
320.869	299.44
321.325	350.93
321.78	273.7
322.235	292.42
322.691	332.21
323.146	306.46
323.601	308.8
324.056	299.44
324.511	285.4
324.966	313.49
325.421	283.06
325.875	306.46
326.33	269.02
326.785	346.25
327.24	350.93
327.694	285.4
328.149	264.33
328.603	311.14
329.058	320.51
329.512	355.62
329.966	271.36
330.421	313.49
330.875	350.93
331.329	290.08
331.783	245.61
332.237	353.27
332.691	266.67
333.145	318.17
333.599	269.02
334.053	308.8
334.507	334.55
334.96	290.08
335.414	278.38
335.868	306.46
336.321	269.02
336.775	306.46
337.228	259.65
337.682	222.2
338.135	278.38
338.588	301.78
339.042	311.14
339.495	287.74
339.948	334.55
340.401	320.51
340.854	364.98
341.307	238.59
341.76	311.14
342.213	325.19
342.666	318.17
343.119	306.46
343.571	276.04
344.024	243.27
344.477	320.51
344.929	339.23
345.382	329.87
345.834	350.93
346.287	283.06
346.739	332.21
347.191	294.76
347.644	304.12
348.096	276.04
348.548	261.99
349	336.89
349.452	294.76
349.904	261.99
350.356	294.76
350.808	301.78
351.26	287.74
351.711	294.76
352.163	348.59
352.615	346.25
353.066	280.72
353.518	381.36
353.969	276.04
354.421	336.89
354.872	273.7
355.324	343.91
355.775	348.59
356.226	360.3
356.677	273.7
357.128	332.21
357.579	301.78
358.03	332.21
358.481	327.53
358.932	290.08
359.383	276.04
359.834	322.85
360.285	308.8
360.735	254.97
361.186	311.14
361.637	313.49
362.087	229.23
362.538	320.51
362.988	355.62
363.438	308.8
363.889	308.8
364.339	294.76
364.789	271.36
365.239	315.83
365.689	381.36
366.139	273.7
366.589	280.72
367.039	283.06
367.489	283.06
367.939	311.14
368.389	290.08
368.839	306.46
369.288	304.12
369.738	336.89
370.187	360.3
370.637	292.42
371.086	283.06
371.536	299.44
371.985	320.51
372.434	294.76
372.884	336.89
373.333	290.08
373.782	334.55
374.231	346.25
374.68	313.49
375.129	339.23
375.578	297.1
376.027	278.38
376.475	320.51
376.924	318.17
377.373	313.49
377.822	334.55
378.27	325.19
378.719	261.99
379.167	348.59
379.616	341.57
380.064	269.02
380.512	264.33
380.961	278.38
381.409	364.98
381.857	322.85
382.305	348.59
382.753	341.57
383.201	259.65
383.649	287.74
384.097	304.12
384.545	318.17
384.992	336.89
385.44	311.14
385.888	334.55
386.335	313.49
386.783	320.51
387.231	334.55
387.678	308.8
388.125	301.78
388.573	318.17
389.02	364.98
389.467	250.29
389.914	264.33
390.362	304.12
390.809	315.83
391.256	264.33
391.703	311.14
392.15	355.62
392.596	308.8
393.043	325.19
393.49	308.8
393.937	341.57
394.383	320.51
394.83	367.32
395.276	311.14
395.723	348.59
396.169	336.89
396.616	332.21
397.062	294.76
397.508	261.99
397.954	332.21
398.401	320.51
398.847	219.86
399.293	336.89
399.739	306.46
400.185	374.34
400.631	322.85
401.076	332.21
401.522	320.51
401.968	311.14
402.414	315.83
402.859	336.89
403.305	313.49
403.75	393.06
404.196	346.25
404.641	353.27
405.086	292.42
405.532	332.21
405.977	325.19
406.422	311.14
406.867	386.04
407.312	341.57
407.757	313.49
408.202	226.89
408.647	383.7
409.092	290.08
409.537	308.8
409.982	336.89
410.426	346.25
410.871	381.36
411.316	325.19
411.76	301.78
412.205	325.19
412.649	306.46
413.093	339.23
413.538	301.78
413.982	304.12
414.426	306.46
414.87	343.91
415.314	290.08
415.758	341.57
416.202	350.93
416.646	339.23
417.09	306.46
417.534	357.96
417.978	322.85
418.421	261.99
418.865	261.99
419.309	306.46
419.752	229.23
420.196	313.49
420.639	329.87
421.083	311.14
421.526	353.27
421.969	341.57
422.412	276.04
422.856	313.49
423.299	327.53
423.742	362.64
424.185	280.72
424.628	318.17
425.071	280.72
425.513	278.38
425.956	287.74
426.399	353.27
426.842	306.46
427.284	320.51
427.727	376.68
428.169	301.78
428.612	362.64
429.054	315.83
429.497	374.34
429.939	336.89
430.381	308.8
430.823	311.14
431.265	343.91
431.707	329.87
432.149	339.23
432.591	278.38
433.033	308.8
433.475	269.02
433.917	308.8
434.359	322.85
434.8	292.42
435.242	301.78
435.684	367.32
436.125	357.96
436.567	360.3
437.008	252.63
437.449	346.25
437.891	308.8
438.332	318.17
438.773	355.62
439.214	334.55
439.656	348.59
440.097	292.42
440.538	269.02
440.978	292.42
441.419	334.55
441.86	294.76
442.301	313.49
442.742	334.55
443.182	308.8
443.623	404.77
444.063	318.17
444.504	299.44
444.944	269.02
445.385	292.42
445.825	294.76
446.265	283.06
446.706	325.19
447.146	372
447.586	271.36
448.026	332.21
448.466	350.93
448.906	329.87
449.346	297.1
449.786	306.46
450.225	350.93
450.665	416.47
451.105	393.06
451.544	334.55
451.984	329.87
452.424	313.49
452.863	327.53
453.302	329.87
453.742	320.51
454.181	341.57
454.62	308.8
455.059	278.38
455.499	271.36
455.938	290.08
456.377	280.72
456.816	315.83
457.254	353.27
457.693	315.83
458.132	325.19
458.571	325.19
459.01	306.46
459.448	353.27
459.887	283.06
460.325	250.29
460.764	301.78
461.202	353.27
461.641	357.96
462.079	327.53
462.517	348.59
462.955	304.12
463.393	311.14
463.832	290.08
464.27	390.72
464.708	355.62
465.145	318.17
465.583	322.85
466.021	414.13
466.459	329.87
466.897	264.33
467.334	329.87
467.772	322.85
468.209	266.67
468.647	369.66
469.084	294.76
469.522	290.08
469.959	285.4
470.396	271.36
470.833	280.72
471.271	271.36
471.708	278.38
472.145	327.53
472.582	264.33
473.019	306.46
473.456	287.74
473.892	297.1
474.329	325.19
474.766	276.04
475.202	297.1
475.639	306.46
476.076	325.19
476.512	301.78
476.949	304.12
477.385	320.51
477.821	311.14
478.258	311.14
478.694	341.57
479.13	308.8
479.566	341.57
480.002	280.72
480.438	341.57
480.874	327.53
481.31	292.42
481.746	369.66
482.181	334.55
482.617	341.57
483.053	386.04
483.488	299.44
483.924	360.3
484.36	306.46
484.795	285.4
485.23	276.04
485.666	334.55
486.101	308.8
486.536	240.93
486.971	364.98
487.407	304.12
487.842	329.87
488.277	357.96
488.712	334.55
489.146	311.14
489.581	402.43
490.016	346.25
490.451	299.44
490.885	362.64
491.32	332.21
491.755	339.23
492.189	339.23
492.624	292.42
493.058	301.78
493.492	313.49
493.927	364.98
494.361	261.99
494.795	285.4
495.229	247.95
495.663	318.17
496.097	306.46
496.531	376.68
496.965	308.8
497.399	280.72
497.833	278.38
498.266	334.55
498.7	304.12
499.134	400.09
499.567	292.42
500.001	306.46
500.434	283.06
500.868	327.53
501.301	287.74
501.734	327.53
502.168	320.51
502.601	285.4
503.034	339.23
503.467	212.84
503.9	362.64
504.333	266.67
504.766	308.8
505.199	313.49
505.632	278.38
506.064	320.51
506.497	322.85
506.93	329.87
507.362	243.27
507.795	301.78
508.227	346.25
508.66	341.57
509.092	308.8
509.524	315.83
509.956	318.17
510.389	306.46
510.821	313.49
511.253	269.02
511.685	297.1
512.117	297.1
512.549	297.1
512.981	346.25
513.412	306.46
513.844	357.96
514.276	264.33
514.707	278.38
515.139	315.83
515.571	287.74
516.002	294.76
516.433	299.44
516.865	343.91
517.296	357.96
517.727	278.38
518.159	318.17
518.59	343.91
519.021	320.51
519.452	290.08
519.883	301.78
520.314	269.02
520.744	329.87
521.175	313.49
521.606	315.83
522.037	350.93
522.467	283.06
522.898	313.49
523.328	308.8
523.759	437.53
524.189	379.02
524.62	280.72
525.05	327.53
525.48	334.55
525.91	357.96
526.341	285.4
526.771	320.51
527.201	339.23
527.631	301.78
528.061	402.43
528.49	318.17
528.92	350.93
529.35	318.17
529.78	318.17
530.209	343.91
530.639	339.23
531.068	313.49
531.498	339.23
531.927	357.96
532.357	297.1
532.786	299.44
533.215	336.89
533.644	322.85
534.074	294.76
534.503	339.23
534.932	362.64
535.361	334.55
535.79	290.08
536.218	318.17
536.647	266.67
537.076	357.96
537.505	315.83
537.933	353.27
538.362	264.33
538.79	285.4
539.219	360.3
539.647	334.55
540.076	325.19
540.504	327.53
540.932	336.89
541.36	341.57
541.788	353.27
542.217	343.91
542.645	315.83
543.073	334.55
543.5	299.44
543.928	287.74
544.356	287.74
544.784	353.27
545.211	353.27
545.639	386.04
546.067	315.83
546.494	278.38
546.922	339.23
547.349	315.83
547.776	276.04
548.204	259.65
548.631	343.91
549.058	271.36
549.485	278.38
549.912	299.44
550.339	264.33
550.766	297.1
551.193	292.42
551.62	404.77
552.047	325.19
552.474	322.85
552.9	283.06
553.327	285.4
553.754	247.95
554.18	301.78
554.607	332.21
555.033	308.8
555.459	294.76
555.886	341.57
556.312	360.3
556.738	332.21
557.164	297.1
557.59	280.72
558.016	341.57
558.442	318.17
558.868	294.76
559.294	301.78
559.72	343.91
560.145	332.21
560.571	372
560.997	313.49
561.422	322.85
561.848	283.06
562.273	304.12
562.699	222.2
563.124	332.21
563.549	397.74
563.974	379.02
564.4	318.17
564.825	311.14
565.25	304.12
565.675	346.25
566.1	294.76
566.525	315.83
566.95	233.91
567.374	332.21
567.799	329.87
568.224	290.08
568.648	357.96
569.073	208.16
569.497	304.12
569.922	336.89
570.346	362.64
570.771	322.85
571.195	318.17
571.619	304.12
572.043	315.83
572.467	292.42
572.891	350.93
573.315	334.55
573.739	299.44
574.163	311.14
574.587	350.93
575.011	332.21
575.435	339.23
575.858	353.27
576.282	304.12
576.705	285.4
577.129	336.89
577.552	341.57
577.976	348.59
578.399	322.85
578.822	374.34
579.245	343.91
579.669	299.44
580.092	276.04
580.515	360.3
580.938	343.91
581.361	278.38
581.784	315.83
582.206	332.21
582.629	285.4
583.052	278.38
583.474	339.23
583.897	325.19
584.32	280.72
584.742	332.21
585.165	240.93
585.587	313.49
586.009	292.42
586.431	254.97
586.854	313.49
587.276	292.42
587.698	308.8
588.12	374.34
588.542	327.53
588.964	280.72
589.386	346.25
589.807	315.83
590.229	301.78
590.651	315.83
591.073	278.38
591.494	353.27
591.916	240.93
592.337	360.3
592.759	404.77
593.18	325.19
593.601	404.77
594.022	301.78
594.444	304.12
594.865	318.17
595.286	386.04
595.707	318.17
596.128	285.4
596.549	304.12
596.97	269.02
597.39	290.08
597.811	372
598.232	332.21
598.652	332.21
599.073	264.33
599.494	325.19
599.914	348.59
600.334	285.4
600.755	196.46
601.175	294.76
601.595	297.1
602.015	327.53
602.436	257.31
602.856	423.49
603.276	294.76
603.696	306.46
604.115	372
604.535	313.49
604.955	336.89
605.375	299.44
605.794	329.87
606.214	301.78
606.634	318.17
607.053	278.38
607.473	297.1
607.892	364.98
608.311	299.44
608.731	287.74
609.15	311.14
609.569	339.23
609.988	320.51
610.407	273.7
610.826	362.64
611.245	294.76
611.664	322.85
612.083	336.89
612.501	261.99
612.92	278.38
613.339	318.17
613.757	285.4
614.176	311.14
614.594	311.14
615.013	339.23
615.431	306.46
615.85	285.4
616.268	318.17
616.686	308.8
617.104	313.49
617.522	283.06
617.94	388.38
618.358	297.1
618.776	343.91
619.194	383.7
619.612	332.21
620.03	243.27
620.447	292.42
620.865	292.42
621.282	348.59
621.7	327.53
622.117	343.91
622.535	332.21
622.952	336.89
623.369	318.17
623.787	259.65
624.204	245.61
624.621	327.53
625.038	329.87
625.455	343.91
625.872	264.33
626.289	313.49
626.706	343.91
627.123	290.08
627.539	287.74
627.956	336.89
628.373	308.8
628.789	343.91
629.206	339.23
629.622	334.55
630.038	357.96
630.455	334.55
630.871	278.38
631.287	299.44
631.703	301.78
632.12	350.93
632.536	339.23
632.952	297.1
633.368	240.93
633.783	294.76
634.199	411.79
634.615	290.08
635.031	306.46
635.446	339.23
635.862	322.85
636.277	343.91
636.693	315.83
637.108	292.42
637.524	444.56
637.939	379.02
638.354	287.74
638.77	254.97
639.185	308.8
639.6	243.27
640.015	304.12
640.43	334.55
640.845	280.72
641.259	306.46
641.674	315.83
642.089	299.44
642.504	343.91
642.918	292.42
643.333	301.78
643.747	254.97
644.162	353.27
644.576	306.46
644.991	336.89
645.405	266.67
645.819	308.8
646.233	283.06
646.647	325.19
647.061	269.02
647.475	336.89
647.889	226.89
648.303	318.17
648.717	357.96
649.131	301.78
649.545	357.96
649.958	313.49
650.372	315.83
650.785	332.21
651.199	247.95
651.612	257.31
652.026	336.89
652.439	287.74
652.852	364.98
653.266	271.36
653.679	327.53
654.092	297.1
654.505	334.55
654.918	254.97
655.331	334.55
655.744	269.02
656.156	311.14
656.569	315.83
656.982	355.62
657.394	339.23
657.807	372
658.22	294.76
658.632	325.19
659.044	339.23
659.457	308.8
659.869	404.77
660.281	313.49
660.693	372
661.106	243.27
661.518	278.38
661.93	327.53
662.342	247.95
662.754	339.23
663.165	329.87
663.577	264.33
663.989	315.83
664.401	304.12
664.812	332.21
665.224	285.4
665.635	332.21
666.047	273.7
666.458	332.21
666.869	276.04
667.281	336.89
667.692	252.63
668.103	327.53
668.514	308.8
668.925	299.44
669.336	311.14
669.747	301.78
670.158	297.1
670.569	306.46
670.979	273.7
671.39	290.08
671.801	318.17
672.211	297.1
672.622	283.06
673.032	299.44
673.443	273.7
673.853	311.14
674.263	306.46
674.674	360.3
675.084	367.32
675.494	304.12
675.904	369.66
676.314	343.91
676.724	261.99
677.134	364.98
677.544	285.4
677.953	313.49
678.363	287.74
678.773	306.46
679.182	273.7
679.592	308.8
680.001	266.67
680.411	339.23
680.82	292.42
681.23	261.99
681.639	353.27
682.048	341.57
682.457	318.17
682.866	285.4
683.275	283.06
683.684	292.42
684.093	294.76
684.502	278.38
684.911	276.04
685.32	318.17
685.728	308.8
686.137	308.8
686.546	325.19
686.954	355.62
687.363	301.78
687.771	306.46
688.179	292.42
688.588	283.06
688.996	343.91
689.404	257.31
689.812	306.46
690.22	290.08
690.628	280.72
691.036	320.51
691.444	332.21
691.852	353.27
692.26	292.42
692.667	334.55
693.075	266.67
693.483	355.62
693.89	301.78
694.298	252.63
694.705	311.14
695.112	299.44
695.52	301.78
695.927	304.12
696.334	315.83
696.741	238.59
697.148	278.38
697.555	257.31
697.962	369.66
698.369	339.23
698.776	355.62
699.183	311.14
699.59	336.89
699.996	308.8
700.403	327.53
700.81	226.89
701.216	322.85
701.623	362.64
702.029	297.1
702.435	315.83
702.842	336.89
703.248	336.89
703.654	334.55
704.06	334.55
704.466	362.64
704.872	320.51
705.278	254.97
705.684	320.51
706.09	250.29
706.496	306.46
706.901	350.93
707.307	280.72
707.712	336.89
708.118	357.96
708.523	278.38
708.929	266.67
709.334	306.46
709.74	287.74
710.145	355.62
710.55	283.06
710.955	364.98
711.36	306.46
711.765	301.78
712.17	320.51
712.575	341.57
712.98	835.42
713.385	414.13
713.789	290.08
714.194	327.53
714.599	308.8
715.003	261.99
715.408	271.36
715.812	329.87
716.217	292.42
716.621	320.51
717.025	245.61
717.429	348.59
717.833	290.08
718.238	318.17
718.642	379.02
719.046	327.53
719.449	421.15
719.853	367.32
720.257	357.96
720.661	285.4
721.065	343.91
721.468	306.46
721.872	332.21
722.275	285.4
722.679	327.53
723.082	287.74
723.485	306.46
723.889	369.66
724.292	341.57
724.695	381.36
725.098	353.27
725.501	315.83
725.904	294.76
726.307	266.67
726.71	334.55
727.113	297.1
727.516	329.87
727.918	285.4
728.321	369.66
728.724	339.23
729.126	334.55
729.529	327.53
729.931	308.8
730.333	318.17
730.736	313.49
731.138	297.1
731.54	283.06
731.942	334.55
732.344	287.74
732.746	336.89
733.148	343.91
733.55	341.57
733.952	343.91
734.354	240.93
734.756	353.27
735.157	306.46
735.559	360.3
735.96	334.55
736.362	339.23
736.763	269.02
737.165	306.46
737.566	304.12
737.967	325.19
738.368	327.53
738.77	343.91
739.171	226.89
739.572	290.08
739.973	301.78
740.374	315.83
740.774	315.83
741.175	322.85
741.576	343.91
741.977	350.93
742.377	334.55
742.778	348.59
743.178	322.85
743.579	297.1
743.979	313.49
744.379	315.83
744.78	313.49
745.18	299.44
745.58	315.83
745.98	313.49
746.38	320.51
746.78	341.57
747.18	245.61
747.58	212.84
747.98	261.99
748.38	341.57
748.779	346.25
749.179	318.17
749.578	348.59
749.978	357.96
750.377	350.93
750.777	343.91
751.176	269.02
751.575	346.25
751.975	341.57
752.374	294.76
752.773	348.59
753.172	297.1
753.571	306.46
753.97	290.08
754.369	285.4
754.768	341.57
755.166	325.19
755.565	362.64
755.964	311.14
756.362	290.08
756.761	261.99
757.159	264.33
757.558	292.42
757.956	304.12
758.354	301.78
758.753	306.46
759.151	290.08
759.549	271.36
759.947	280.72
760.345	346.25
760.743	334.55
761.141	306.46
761.539	353.27
761.936	362.64
762.334	315.83
762.732	278.38
763.129	269.02
763.527	343.91
763.924	357.96
764.322	259.65
764.719	273.7
765.117	301.78
765.514	292.42
