Data from Al_FLMS009871__689__15-07-13-637.txt Node

Date: Fri Mar 08 15:07:13 CST 2024
User: pe5414po
Spectrometer: FLMS00987
Trigger mode: 0
Integration Time (sec): 1.000000E-1
Scans to average: 1
Electric dark correction enabled: true
Nonlinearity correction enabled: false
Boxcar width: 0
XAxis mode: Wavelengths
Number of Pixels in Spectrum: 2048
>>>>>Begin Spectral Data<<<<<
188.938	-43.15
189.409	-43.15
189.879	-43.15
190.349	-68.9
190.819	-99.33
191.29	-134.43
191.76	-162.52
192.23	-59.54
192.7	-40.81
193.17	-73.58
193.64	6
194.109	-40.81
194.579	-22.09
195.049	20.04
195.519	8.34
195.988	-3.36
196.458	76.21
196.927	57.49
197.397	106.64
197.866	139.41
198.336	123.02
198.805	162.81
199.274	200.26
199.744	202.6
200.213	270.48
200.682	265.8
201.151	249.41
201.62	230.69
202.089	361.76
202.558	303.25
203.027	371.12
203.495	385.16
203.964	399.21
204.433	352.4
204.902	385.16
205.37	375.8
205.839	336.01
206.307	399.21
206.776	333.67
207.244	368.78
207.712	378.14
208.181	424.95
208.649	408.57
209.117	408.57
209.585	478.79
210.053	572.41
210.521	422.61
210.989	520.92
211.457	623.9
211.925	691.77
212.393	584.11
212.861	659.01
213.328	670.71
213.796	769.01
214.264	687.09
214.731	726.88
215.199	820.5
215.666	853.27
216.133	1000.73
216.601	1040.51
217.068	1302.65
217.535	1377.55
218.003	1454.79
218.47	1454.79
218.937	1454.79
219.404	1436.06
219.871	1487.56
220.338	1583.52
220.805	1555.43
221.271	1723.95
221.738	1798.85
222.205	1698.2
222.671	1810.55
223.138	2063.33
223.605	1955.66
224.071	1890.13
224.538	1756.72
225.004	2028.22
225.47	2014.18
225.937	2105.46
226.403	2011.84
226.869	1817.57
227.335	1756.72
227.801	1707.57
228.267	1824.59
228.733	1609.26
229.199	1824.59
229.665	1972.05
230.131	2135.89
230.597	2217.8
231.062	2152.27
231.528	2035.24
231.994	1915.87
232.459	1908.85
232.925	1918.22
233.39	1890.13
233.856	2098.44
234.321	2519.73
234.786	3008.9
235.252	4127.68
235.717	5134.11
236.182	5541.36
236.647	4942.19
237.112	3647.87
237.577	2611.01
238.042	2257.59
238.507	1894.81
238.972	1862.04
239.436	1798.85
239.901	1833.96
240.366	1773.1
240.83	1728.63
241.295	1777.78
241.76	1759.06
242.224	1787.15
242.688	1831.62
243.153	1836.3
243.617	1843.32
244.081	1894.81
244.545	2091.41
245.01	1976.73
245.474	2053.97
245.938	2161.63
246.402	1939.28
246.866	1981.41
247.33	1969.71
247.793	1859.7
248.257	1688.84
248.721	1838.64
249.185	1794.17
249.648	1953.32
250.112	1929.92
250.575	1892.47
251.039	1883.11
251.502	1906.51
251.965	1986.09
252.429	2002.47
252.892	2039.92
253.355	1941.62
253.818	1990.77
254.281	2166.31
254.744	2330.15
255.207	2615.69
255.67	3217.21
256.133	3933.42
256.596	4247.05
257.059	3879.58
257.522	3427.86
257.984	2866.13
258.447	2615.69
258.909	2795.92
259.372	2777.19
259.834	2634.42
260.297	2639.1
260.759	2650.8
261.221	2791.24
261.684	3306.15
262.146	4125.34
262.608	4235.35
263.07	3968.52
263.532	3238.28
263.994	3088.48
264.456	3044.01
264.918	3044.01
265.38	3093.16
265.842	2699.95
266.303	2447.18
266.765	2110.14
267.227	2016.52
267.688	2046.94
268.15	1976.73
268.611	1953.32
269.072	2042.26
269.534	1995.45
269.995	2000.13
270.456	1946.3
270.918	1845.66
271.379	1833.96
271.84	1810.55
272.301	1864.38
272.762	1880.77
273.223	1922.9
273.684	1918.22
274.144	1948.64
274.605	1979.07
275.066	1950.98
275.527	2032.9
275.987	2180.36
276.448	2451.86
276.908	2758.47
277.369	3610.42
277.829	5855
278.289	9595.17
278.75	13681.75
279.21	14540.72
279.67	12111.25
280.13	8937.48
280.59	6969.09
281.05	6400.34
281.51	5251.14
281.97	3924.05
282.43	3048.69
282.89	2365.26
283.35	2140.57
283.809	2391
284.269	2625.06
284.729	2580.59
285.188	2426.11
285.648	2084.39
286.107	1929.92
286.567	1761.4
287.026	1733.31
287.485	1899.49
287.944	1723.95
288.404	1777.78
288.863	1782.46
289.322	1674.8
289.781	1759.06
290.24	1754.38
290.699	1702.89
291.158	1869.06
291.616	1983.75
292.075	2199.08
292.534	2524.41
292.992	2648.46
293.451	2510.37
293.91	2316.11
294.368	2044.6
294.827	1915.87
295.285	1787.15
295.743	1698.2
296.202	1658.42
296.66	1513.3
297.118	1564.79
297.576	1576.5
298.034	1616.29
298.492	1604.58
298.95	1508.62
299.408	1651.39
299.866	1728.63
300.324	1625.65
300.781	1644.37
301.239	1693.52
301.697	1808.21
302.154	1803.53
302.612	1897.15
303.069	1972.05
303.527	2156.95
303.984	2278.66
304.441	2912.94
304.899	3315.52
305.356	4008.31
305.813	3722.77
306.27	3736.81
306.727	3977.89
307.184	5148.15
307.641	7151.65
308.098	8319.58
308.555	9464.1
309.012	8780.67
309.468	7203.14
309.925	4534.93
310.382	3118.91
310.838	2465.9
311.295	2068.01
311.751	1939.28
312.208	1990.77
312.664	1721.61
313.12	1667.78
313.577	1660.76
314.033	1660.76
314.489	1667.78
314.945	1515.64
315.401	1525.01
315.857	1555.43
316.313	1503.94
316.769	1426.7
317.225	1403.3
317.681	1464.15
318.136	1459.47
318.592	1447.77
319.048	1447.77
319.503	1417.34
319.959	1499.26
320.414	1398.62
320.869	1391.59
321.325	1330.74
321.78	1372.87
322.235	1314.36
322.691	1410.32
323.146	1335.42
323.601	1576.5
324.056	1789.49
324.511	2018.86
324.966	1901.83
325.421	1761.4
325.875	1457.13
326.33	1534.37
326.785	1742.68
327.24	1885.45
327.694	1745.02
328.149	1517.98
328.603	1319.04
329.058	1276.91
329.512	1255.84
329.966	1443.09
330.421	1379.89
330.875	1248.82
331.329	1391.59
331.783	1464.15
332.237	1426.7
332.691	1480.54
333.145	1597.56
333.599	1578.84
334.053	1620.97
334.507	1635.01
334.96	1571.82
335.414	1513.3
335.868	1457.13
336.321	1557.77
336.775	1532.03
337.228	1529.69
337.682	1461.81
338.135	1503.94
338.588	1452.45
339.042	1363.51
339.495	1503.94
339.948	1417.34
340.401	1335.42
340.854	1365.85
341.307	1377.55
341.76	1326.06
342.213	1438.41
342.666	1424.36
343.119	1520.32
343.571	1473.51
344.024	1569.48
344.477	1494.58
344.929	1431.38
345.382	1489.9
345.834	1466.49
346.287	1517.98
346.739	1372.87
347.191	1473.51
347.644	1422.02
348.096	1494.58
348.548	1553.09
349	1517.98
349.452	1550.75
349.904	1543.73
350.356	1475.85
350.808	1590.54
351.26	1543.73
351.711	1569.48
352.163	1618.63
352.615	1578.84
353.066	1642.03
353.518	1604.58
353.969	1826.93
354.421	1848
354.872	1995.45
355.324	2051.63
355.775	2393.34
356.226	2596.97
356.677	3072.1
357.128	3729.79
357.579	4666
358.03	5913.51
358.481	6545.45
358.932	6454.17
359.383	5351.78
359.834	4415.57
360.285	3839.8
360.735	3575.31
361.186	3170.4
361.637	2955.07
362.087	2402.71
362.538	2358.24
362.988	2025.88
363.438	1911.19
363.889	1892.47
364.339	1719.27
364.789	1627.99
365.239	1644.37
365.689	1548.41
366.139	1515.64
366.589	1560.11
367.039	1473.51
367.489	1588.2
367.939	1517.98
368.389	1534.37
368.839	1475.85
369.288	1522.66
369.738	1574.16
370.187	1534.37
370.637	1525.01
371.086	1597.56
371.536	1499.26
371.985	1571.82
372.434	1571.82
372.884	1529.69
373.333	1527.35
373.782	1585.86
374.231	1454.79
374.68	1473.51
375.129	1517.98
375.578	1492.24
376.027	1438.41
376.475	1419.68
376.924	1363.51
377.373	1384.57
377.822	1433.72
378.27	1433.72
378.719	1307.34
379.167	1424.36
379.616	1426.7
380.064	1365.85
380.512	1459.47
380.961	1489.9
381.409	1623.31
381.857	1681.82
382.305	1759.06
382.753	1965.03
383.201	2278.66
383.649	2407.39
384.097	2112.48
384.545	1815.23
384.992	1571.82
385.44	1569.48
385.888	1576.5
386.335	1461.81
386.783	1407.98
387.231	1468.83
387.678	1536.71
388.125	1555.43
388.573	1534.37
389.02	1494.58
389.467	1431.38
389.914	1553.09
390.362	1539.05
390.809	1571.82
391.256	1517.98
391.703	1674.8
392.15	1660.76
392.596	1723.95
393.043	2016.52
393.49	2578.25
393.937	3790.64
394.383	5693.5
394.83	6669.5
395.276	5866.7
395.723	5880.74
396.169	7577.63
396.616	8139.36
397.062	5880.74
397.508	3376.37
397.954	2508.03
398.401	2159.29
398.847	2004.82
399.293	1960.34
399.739	1915.87
400.185	1904.17
400.631	1747.36
401.076	1660.76
401.522	1733.31
401.968	1667.78
402.414	1709.91
402.859	1733.31
403.305	1887.79
403.75	1857.36
404.196	1702.89
404.641	1728.63
405.086	1637.35
405.532	1672.46
405.977	1532.03
406.422	1679.48
406.867	1644.37
407.312	1576.5
407.757	1649.05
408.202	1611.61
408.647	1649.05
409.092	1611.61
409.537	1578.84
409.982	1656.08
410.426	1501.6
410.871	1567.13
411.316	1581.18
411.76	1536.71
412.205	1473.51
412.649	1503.94
413.093	1433.72
413.538	1426.7
413.982	1520.32
414.426	1457.13
414.87	1433.72
415.314	1534.37
415.758	1494.58
416.202	1452.45
416.646	1503.94
417.09	1539.05
417.534	1478.19
417.978	1471.17
418.421	1459.47
418.865	1475.85
419.309	1349.47
419.752	1510.96
420.196	1412.66
420.639	1510.96
421.083	1494.58
421.526	1412.66
421.969	1503.94
422.412	1450.11
422.856	1466.49
423.299	1363.51
423.742	1464.15
424.185	1536.71
424.628	1365.85
425.071	1499.26
425.513	1419.68
425.956	1391.59
426.399	1496.92
426.842	1351.81
427.284	1379.89
427.727	1424.36
428.169	1396.28
428.612	1337.76
429.054	1344.78
429.497	1227.76
429.939	1328.4
430.381	1244.14
430.823	1286.27
431.265	1316.7
431.707	1276.91
432.149	1337.76
432.591	1290.95
433.033	1279.25
433.475	1415
433.917	1415
434.359	1234.78
434.8	1281.59
435.242	1471.17
435.684	1328.4
436.125	1286.27
436.567	1361.17
437.008	1389.25
437.449	1351.81
437.891	1262.87
438.332	1246.48
438.773	1265.21
439.214	1344.78
439.656	1391.59
440.097	1328.4
440.538	1422.02
440.978	1365.85
441.419	1452.45
441.86	1340.1
442.301	1365.85
442.742	1407.98
443.182	1529.69
443.623	1567.13
444.063	1553.09
444.504	1604.58
444.944	1653.73
445.385	1635.01
445.825	1574.16
446.265	1590.54
446.706	1658.42
447.146	1653.73
447.586	1686.5
448.026	1749.7
448.466	1637.35
448.906	1777.78
449.346	1639.69
449.786	1726.29
450.225	1684.16
450.665	1637.35
451.105	1716.93
451.544	1838.64
451.984	1784.8
452.424	1787.15
452.863	1824.59
453.302	1826.93
453.742	1808.21
454.181	1719.27
454.62	1754.38
455.059	1777.78
455.499	1496.92
455.938	1487.56
456.377	1630.33
456.816	1508.62
457.254	1379.89
457.693	1510.96
458.132	1384.57
458.571	1379.89
459.01	1436.06
459.448	1424.36
459.887	1344.78
460.325	1407.98
460.764	1466.49
461.202	1546.07
461.641	1534.37
462.079	1546.07
462.517	1489.9
462.955	1471.17
463.393	1613.95
463.832	1637.35
464.27	1646.71
464.708	1623.31
465.145	1515.64
465.583	1630.33
466.021	1716.93
466.459	1773.1
466.897	2004.82
467.334	1983.75
467.772	1866.72
468.209	1672.46
468.647	1532.03
469.084	1464.15
469.522	1454.79
469.959	1457.13
470.396	1443.09
470.833	1386.91
471.271	1386.91
471.708	1312.02
472.145	1410.32
472.582	1473.51
473.019	1422.02
473.456	1351.81
473.892	1276.91
474.329	1279.25
474.766	1354.15
475.202	1304.99
475.639	1400.96
476.076	1330.74
476.512	1410.32
476.949	1405.64
477.385	1354.15
477.821	1433.72
478.258	1403.3
478.694	1466.49
479.13	1473.51
479.566	1541.39
480.002	1478.19
480.438	1459.47
480.874	1592.88
481.31	1438.41
481.746	1471.17
482.181	1487.56
482.617	1492.24
483.053	1454.79
483.488	1447.77
483.924	1515.64
484.36	1482.88
484.795	1438.41
485.23	1522.66
485.666	1620.97
486.101	1548.41
486.536	1620.97
486.971	1611.61
487.407	1508.62
487.842	1632.67
488.277	1447.77
488.712	1487.56
489.146	1487.56
489.581	1543.73
490.016	1517.98
490.451	1508.62
490.885	1571.82
491.32	1492.24
491.755	1501.6
492.189	1389.25
492.624	1375.21
493.058	1440.75
493.492	1386.91
493.927	1569.48
494.361	1447.77
494.795	1478.19
495.229	1525.01
495.663	1492.24
496.097	1452.45
496.531	1485.22
496.965	1534.37
497.399	1478.19
497.833	1527.35
498.266	1539.05
498.7	1649.05
499.134	1712.25
499.567	1885.45
500.001	1913.53
500.434	2112.48
500.868	2199.08
501.301	2386.32
501.734	2145.25
502.168	2004.82
502.601	1845.66
503.034	1646.71
503.467	1702.89
503.9	1665.44
504.333	1651.39
504.766	1674.8
505.199	1894.81
505.632	1941.62
506.064	1740.33
506.497	1611.61
506.93	1688.84
507.362	1770.76
507.795	1686.5
508.227	1539.05
508.66	1492.24
509.092	1466.49
509.524	1487.56
509.956	1393.94
510.389	1508.62
510.821	1499.26
511.253	1667.78
511.685	1557.77
512.117	1576.5
512.549	1529.69
512.981	1342.44
513.412	1520.32
513.844	1564.79
514.276	1513.3
514.707	1499.26
515.139	1644.37
515.571	1672.46
516.002	1712.25
516.433	1653.73
516.865	1838.64
517.296	1915.87
517.727	2000.13
518.159	2030.56
518.59	2126.52
519.021	2145.25
519.452	2023.54
519.883	1817.57
520.314	1894.81
520.744	1801.19
521.175	1852.68
521.606	1880.77
522.037	1927.58
522.467	1962.69
522.898	2037.58
523.328	2002.47
523.759	1969.71
524.189	1993.11
524.62	2051.63
525.05	2159.29
525.48	2269.3
525.91	2496.33
526.341	2550.16
526.771	2657.82
527.201	2880.18
527.631	3231.26
528.061	3558.93
528.49	4092.57
528.92	4694.09
529.35	6316.08
529.78	12853.2
530.209	56686.75
530.639	63055.35
531.068	63055.35
531.498	63055.35
531.927	63055.35
532.357	63055.35
532.786	63055.35
533.215	63055.35
533.644	63055.35
534.074	63055.35
534.503	33754.18
534.932	15430.13
535.361	9110.68
535.79	6482.26
536.218	5113.05
536.647	4406.2
537.076	3697.02
537.505	3168.06
537.933	2791.24
538.362	2405.05
538.79	2126.52
539.219	2025.88
539.647	1798.85
540.076	1716.93
540.504	1548.41
540.932	1501.6
541.36	1592.88
541.788	1585.86
542.217	1536.71
542.645	1471.17
543.073	1466.49
543.5	1417.34
543.928	1382.23
544.356	1445.43
544.784	1403.3
545.211	1354.15
545.639	1382.23
546.067	1283.93
546.494	1274.57
546.922	1225.42
547.349	1312.02
547.776	1223.08
548.204	1216.05
548.631	1234.78
549.058	1183.29
549.485	1244.14
549.912	1269.89
550.339	1234.78
550.766	1216.05
551.193	1176.27
551.62	1197.33
552.047	1213.71
552.474	1136.48
552.9	1262.87
553.327	1190.31
553.754	1230.1
554.18	1199.67
554.607	1251.16
555.033	1202.01
555.459	1164.56
555.886	1190.31
556.312	1216.05
556.738	1223.08
557.164	1255.84
557.59	1129.45
558.016	1136.48
558.442	1202.01
558.868	1223.08
559.294	1244.14
559.72	1237.12
560.145	1279.25
560.571	1185.63
560.997	1232.44
561.422	1281.59
561.848	1211.37
562.273	1110.73
562.699	1209.03
563.124	1213.71
563.549	1202.01
563.974	1124.77
564.4	1185.63
564.825	1169.24
565.25	1255.84
565.675	1312.02
566.1	1267.55
566.525	1344.78
566.95	1422.02
567.374	1445.43
567.799	1496.92
568.224	1532.03
568.648	1564.79
569.073	1534.37
569.497	1597.56
569.922	1534.37
570.346	1461.81
570.771	1468.83
571.195	1417.34
571.619	1316.7
572.043	1342.44
572.467	1276.91
572.891	1248.82
573.315	1232.44
573.739	1157.54
574.163	1152.86
574.587	1138.82
575.011	1049.88
575.435	1068.6
575.858	1068.6
576.282	1033.49
576.705	1129.45
577.129	1038.17
577.552	1056.9
577.976	982
578.399	951.57
578.822	1007.75
579.245	996.04
579.669	939.87
580.092	888.38
580.515	900.08
580.938	937.53
581.361	984.34
581.784	932.85
582.206	874.34
582.629	958.6
583.052	864.97
583.474	869.66
583.897	867.31
584.32	900.08
584.742	895.4
585.165	946.89
585.587	860.29
586.009	843.91
586.431	883.7
586.854	900.08
587.276	813.48
587.698	822.84
588.12	860.29
588.542	900.08
588.964	911.78
589.386	953.91
589.807	794.76
590.229	869.66
590.651	911.78
591.073	834.55
591.494	850.93
591.916	916.47
592.337	761.99
592.759	834.55
593.18	921.15
593.601	869.66
594.022	804.12
594.444	909.44
594.865	893.06
595.286	918.81
595.707	944.55
596.128	883.7
596.549	864.97
596.97	750.29
597.39	864.97
597.811	799.44
598.232	797.1
598.652	745.61
599.073	827.53
599.494	769.01
599.914	825.19
600.334	818.16
600.755	848.59
601.175	769.01
601.595	794.76
602.015	808.8
602.436	787.74
602.856	918.81
603.276	836.89
603.696	757.31
604.115	843.91
604.535	790.08
604.955	846.25
605.375	792.42
605.794	888.38
606.214	902.42
606.634	848.59
607.053	857.95
607.473	754.97
607.892	752.63
608.311	876.68
608.731	886.04
609.15	797.1
609.569	820.5
609.988	797.1
610.407	801.78
610.826	825.19
611.245	930.51
611.664	820.5
612.083	799.44
612.501	801.78
612.92	790.08
613.339	876.68
613.757	857.95
614.176	872
614.594	872
615.013	843.91
615.431	829.87
615.85	829.87
616.268	860.29
616.686	836.89
617.104	818.16
617.522	736.24
617.94	895.4
618.358	794.76
618.776	848.59
619.194	843.91
619.612	806.46
620.03	834.55
620.447	879.02
620.865	839.23
621.282	963.28
621.7	893.06
622.117	874.34
622.535	911.78
622.952	970.3
623.369	1028.81
623.787	1040.51
624.204	1068.6
624.621	1115.41
625.038	1134.14
625.455	1173.92
625.872	1230.1
626.289	1108.39
626.706	1103.71
627.123	1024.13
627.539	1012.43
627.956	1007.75
628.373	974.98
628.789	911.78
629.206	872
629.622	855.61
630.038	787.74
630.455	846.25
630.871	862.63
631.287	893.06
631.703	750.29
632.12	846.25
632.536	843.91
632.952	766.67
633.368	750.29
633.783	743.27
634.199	811.14
634.615	747.95
635.031	766.67
635.446	710.5
635.862	666.03
636.277	754.97
636.693	747.95
637.108	673.05
637.524	738.59
637.939	663.69
638.354	666.03
638.77	701.14
639.185	691.77
639.6	654.33
640.015	710.5
640.43	626.24
640.845	663.69
641.259	682.41
641.674	588.79
642.089	696.46
642.504	626.24
642.918	607.52
643.333	560.7
643.747	659.01
644.162	637.94
644.576	616.88
644.991	621.56
645.405	626.24
645.819	614.54
646.233	640.28
646.647	673.05
647.061	670.71
647.475	546.66
647.889	595.81
648.303	661.35
648.717	668.37
649.131	633.26
649.545	614.54
649.958	605.17
650.372	633.26
650.785	595.81
651.199	619.22
651.612	567.73
652.026	614.54
652.439	666.03
652.852	563.05
653.266	565.39
653.679	539.64
654.092	595.81
654.505	602.83
654.918	644.96
655.331	642.62
655.744	708.16
656.156	633.26
656.569	670.71
656.982	747.95
657.394	689.43
657.807	661.35
658.22	642.62
658.632	698.8
659.044	687.09
659.457	680.07
659.869	736.24
660.281	656.67
660.693	539.64
661.106	745.61
661.518	680.07
661.93	609.86
662.342	621.56
662.754	609.86
663.165	581.77
663.577	605.17
663.989	635.6
664.401	549
664.812	593.47
665.224	532.62
665.635	577.09
666.047	579.43
666.458	595.81
666.869	586.45
667.281	504.53
667.692	567.73
668.103	527.94
668.514	511.55
668.925	577.09
669.336	495.17
669.747	530.28
670.158	539.64
670.569	600.49
670.979	525.6
671.39	556.02
671.801	553.68
672.211	577.09
672.622	527.94
673.032	556.02
673.443	478.79
673.853	612.2
674.263	623.9
674.674	502.19
675.084	563.05
675.494	485.81
675.904	502.19
676.314	483.47
676.724	492.83
677.134	537.3
677.544	513.89
677.953	539.64
678.363	534.96
678.773	614.54
679.182	502.19
679.592	490.49
680.001	478.79
680.411	471.76
680.82	549
681.23	469.42
681.639	549
682.048	532.62
682.457	525.6
682.866	483.47
683.275	584.11
683.684	572.41
684.093	513.89
684.502	570.07
684.911	567.73
685.32	544.32
685.728	551.34
686.137	481.13
686.546	485.81
686.954	558.36
687.363	485.81
687.771	570.07
688.179	586.45
688.588	523.26
688.996	534.96
689.404	415.59
689.812	499.85
690.22	483.47
690.628	527.94
691.036	513.89
691.444	530.28
691.852	539.64
692.26	488.15
692.667	492.83
693.075	570.07
693.483	506.87
693.89	525.6
694.298	490.49
694.705	492.83
695.112	537.3
695.52	518.57
695.927	429.63
696.334	516.23
696.741	502.19
697.148	446.02
697.555	474.1
697.962	471.76
698.369	490.49
698.776	469.42
699.183	469.42
699.59	502.19
699.996	488.15
700.403	539.64
700.81	518.57
701.216	518.57
701.623	520.92
702.029	532.62
702.435	530.28
702.842	675.39
703.248	619.22
703.654	647.3
704.06	701.14
704.466	773.69
704.872	738.59
705.278	654.33
705.684	687.09
706.09	747.95
706.496	684.75
706.901	630.92
707.307	574.75
707.712	488.15
708.118	541.98
708.523	406.23
708.929	492.83
709.334	506.87
709.74	481.13
710.145	523.26
710.55	446.02
710.955	441.34
711.36	443.68
711.765	488.15
712.17	481.13
712.575	497.51
712.98	1024.13
713.385	469.42
713.789	415.59
714.194	417.93
714.599	462.4
715.003	436.66
715.408	453.04
715.812	492.83
716.217	385.16
716.621	427.29
717.025	469.42
717.429	427.29
717.833	441.34
718.238	462.4
718.642	436.66
719.046	439
719.449	366.44
719.853	382.82
720.257	347.72
720.661	403.89
721.065	392.19
721.468	448.36
721.872	420.27
722.275	401.55
722.679	420.27
723.082	415.59
723.485	467.08
723.889	350.06
724.292	481.13
724.695	415.59
725.098	460.06
725.501	359.42
725.904	394.53
726.307	469.42
726.71	469.42
727.113	429.63
727.516	352.4
727.918	443.68
728.321	439
728.724	410.91
729.126	415.59
729.529	436.66
729.931	371.12
730.333	462.4
730.736	443.68
731.138	408.57
731.54	352.4
731.942	347.72
732.344	417.93
732.746	441.34
733.148	399.21
733.55	338.35
733.952	401.55
734.354	389.85
734.756	439
735.157	408.57
735.559	457.72
735.96	378.14
736.362	375.8
736.763	429.63
737.165	399.21
737.566	410.91
737.967	352.4
738.368	373.46
738.77	392.19
739.171	446.02
739.572	443.68
739.973	371.12
740.374	406.23
740.774	373.46
741.175	408.57
741.576	450.7
741.977	431.98
742.377	403.89
742.778	434.32
743.178	389.85
