Data from Al_FLMS009871__696__15-07-14-337.txt Node

Date: Fri Mar 08 15:07:14 CST 2024
User: pe5414po
Spectrometer: FLMS00987
Trigger mode: 0
Integration Time (sec): 1.000000E-1
Scans to average: 1
Electric dark correction enabled: true
Nonlinearity correction enabled: false
Boxcar width: 0
XAxis mode: Wavelengths
Number of Pixels in Spectrum: 2048
>>>>>Begin Spectral Data<<<<<
188.938	-131.51
189.409	-131.51
189.879	-131.51
190.349	-150.23
190.819	-77.68
191.29	-136.19
191.76	-73
192.23	-70.65
192.7	-94.06
193.17	-110.44
193.64	-63.63
194.109	-9.8
194.579	-21.5
195.049	-19.16
195.519	32.33
195.988	69.78
196.458	37.01
196.927	114.25
197.397	116.59
197.866	81.48
198.336	147.01
198.805	139.99
199.274	182.12
199.744	179.78
200.213	226.59
200.682	240.64
201.151	182.12
201.62	217.23
202.089	228.93
202.558	210.21
203.027	292.13
203.495	278.08
203.964	242.98
204.433	287.45
204.902	329.58
205.37	285.11
205.839	338.94
206.307	247.66
206.776	306.17
207.244	317.87
207.712	324.9
208.181	252.34
208.649	282.77
209.117	310.85
209.585	285.11
210.053	301.49
210.521	285.11
210.989	294.47
211.457	252.34
211.925	240.64
212.393	285.11
212.861	324.9
213.328	240.64
213.796	275.74
214.264	254.68
214.731	282.77
215.199	254.68
215.666	207.87
216.133	226.59
216.601	271.06
217.068	238.3
217.535	303.83
218.003	200.85
218.47	317.87
218.937	228.93
219.404	254.68
219.871	264.04
220.338	259.36
220.805	289.79
221.271	278.08
221.738	247.66
222.205	266.38
222.671	231.27
223.138	364.68
223.605	287.45
224.071	240.64
224.538	301.49
225.004	198.51
225.47	308.51
225.937	250
226.403	259.36
226.869	200.85
227.335	233.61
227.801	271.06
228.267	310.85
228.733	301.49
229.199	212.55
229.665	271.06
230.131	294.47
230.597	275.74
231.062	294.47
231.528	320.21
231.994	331.92
232.459	310.85
232.925	296.81
233.39	273.4
233.856	294.47
234.321	287.45
234.786	313.19
235.252	254.68
235.717	271.06
236.182	329.58
236.647	320.21
237.112	310.85
237.577	336.6
238.042	308.51
238.507	308.51
238.972	257.02
239.436	271.06
239.901	294.47
240.366	289.79
240.83	378.73
241.295	235.96
241.76	299.15
242.224	343.62
242.688	299.15
243.153	235.96
243.617	280.43
244.081	280.43
244.545	306.17
245.01	327.24
245.474	242.98
245.938	252.34
246.402	214.89
246.866	287.45
247.33	257.02
247.793	285.11
248.257	285.11
248.721	275.74
249.185	320.21
249.648	306.17
250.112	320.21
250.575	235.96
251.039	301.49
251.502	271.06
251.965	259.36
252.429	294.47
252.892	266.38
253.355	247.66
253.818	261.7
254.281	259.36
254.744	226.59
255.207	352.98
255.67	296.81
256.133	271.06
256.596	231.27
257.059	336.6
257.522	273.4
257.984	301.49
258.447	322.56
258.909	324.9
259.372	271.06
259.834	350.64
260.297	317.87
260.759	296.81
261.221	292.13
261.684	303.83
262.146	320.21
262.608	280.43
263.07	282.77
263.532	266.38
263.994	282.77
264.456	285.11
264.918	317.87
265.38	289.79
265.842	324.9
266.303	341.28
266.765	306.17
267.227	345.96
267.688	266.38
268.15	292.13
268.611	320.21
269.072	264.04
269.534	275.74
269.995	306.17
270.456	336.6
270.918	327.24
271.379	280.43
271.84	292.13
272.301	254.68
272.762	275.74
273.223	308.51
273.684	317.87
274.144	303.83
274.605	308.51
275.066	235.96
275.527	294.47
275.987	266.38
276.448	348.3
276.908	317.87
277.369	289.79
277.829	278.08
278.289	338.94
278.75	285.11
279.21	327.24
279.67	280.43
280.13	329.58
280.59	360
281.05	320.21
281.51	345.96
281.97	322.56
282.43	285.11
282.89	367.03
283.35	341.28
283.809	369.37
284.269	324.9
284.729	334.26
285.188	331.92
285.648	315.53
286.107	320.21
286.567	334.26
287.026	329.58
287.485	245.32
287.944	329.58
288.404	397.45
288.863	310.85
289.322	317.87
289.781	350.64
290.24	336.6
290.699	273.4
291.158	257.02
291.616	350.64
292.075	343.62
292.534	280.43
292.992	378.73
293.451	371.71
293.91	390.43
294.368	310.85
294.827	294.47
295.285	343.62
295.743	362.34
296.202	301.49
296.66	294.47
297.118	310.85
297.576	250
298.034	273.4
298.492	280.43
298.95	371.71
299.408	228.93
299.866	259.36
300.324	369.37
300.781	360
301.239	278.08
301.697	320.21
302.154	310.85
302.612	320.21
303.069	334.26
303.527	362.34
303.984	280.43
304.441	271.06
304.899	285.11
305.356	343.62
305.813	310.85
306.27	299.15
306.727	322.56
307.184	292.13
307.641	310.85
308.098	327.24
308.555	341.28
309.012	334.26
309.468	299.15
309.925	280.43
310.382	313.19
310.838	352.98
311.295	324.9
311.751	299.15
312.208	280.43
312.664	301.49
313.12	329.58
313.577	338.94
314.033	266.38
314.489	317.87
314.945	322.56
315.401	355.32
315.857	294.47
316.313	273.4
316.769	322.56
317.225	343.62
317.681	275.74
318.136	282.77
318.592	317.87
319.048	282.77
319.503	296.81
319.959	235.96
320.414	341.28
320.869	308.51
321.325	289.79
321.78	292.13
322.235	345.96
322.691	245.32
323.146	294.47
323.601	378.73
324.056	374.05
324.511	331.92
324.966	299.15
325.421	329.58
325.875	348.3
326.33	374.05
326.785	376.39
327.24	331.92
327.694	308.51
328.149	383.41
328.603	327.24
329.058	299.15
329.512	329.58
329.966	341.28
330.421	364.68
330.875	252.34
331.329	247.66
331.783	308.51
332.237	324.9
332.691	350.64
333.145	317.87
333.599	320.21
334.053	294.47
334.507	334.26
334.96	282.77
335.414	331.92
335.868	271.06
336.321	334.26
336.775	240.64
337.228	364.68
337.682	324.9
338.135	369.37
338.588	310.85
339.042	362.34
339.495	303.83
339.948	338.94
340.401	324.9
340.854	275.74
341.307	381.07
341.76	306.17
342.213	345.96
342.666	296.81
343.119	296.81
343.571	320.21
344.024	334.26
344.477	355.32
344.929	352.98
345.382	306.17
345.834	317.87
346.287	357.66
346.739	331.92
347.191	278.08
347.644	287.45
348.096	350.64
348.548	416.18
349	334.26
349.452	352.98
349.904	324.9
350.356	306.17
350.808	315.53
351.26	348.3
351.711	362.34
352.163	310.85
352.615	362.34
353.066	324.9
353.518	331.92
353.969	352.98
354.421	364.68
354.872	329.58
355.324	278.08
355.775	390.43
356.226	395.11
356.677	313.19
357.128	345.96
357.579	348.3
358.03	343.62
358.481	303.83
358.932	324.9
359.383	341.28
359.834	331.92
360.285	315.53
360.735	371.71
361.186	357.66
361.637	324.9
362.087	245.32
362.538	273.4
362.988	371.71
363.438	299.15
363.889	306.17
364.339	327.24
364.789	280.43
365.239	334.26
365.689	280.43
366.139	381.07
366.589	341.28
367.039	280.43
367.489	352.98
367.939	341.28
368.389	310.85
368.839	329.58
369.288	257.02
369.738	362.34
370.187	334.26
370.637	313.19
371.086	364.68
371.536	268.72
371.985	329.58
372.434	315.53
372.884	268.72
373.333	350.64
373.782	310.85
374.231	327.24
374.68	306.17
375.129	343.62
375.578	296.81
376.027	261.7
376.475	360
376.924	324.9
377.373	287.45
377.822	362.34
378.27	275.74
378.719	329.58
379.167	324.9
379.616	282.77
380.064	282.77
380.512	287.45
380.961	317.87
381.409	250
381.857	308.51
382.305	327.24
382.753	343.62
383.201	308.51
383.649	310.85
384.097	345.96
384.545	331.92
384.992	292.13
385.44	355.32
385.888	355.32
386.335	313.19
386.783	334.26
387.231	308.51
387.678	322.56
388.125	369.37
388.573	338.94
389.02	306.17
389.467	299.15
389.914	390.43
390.362	352.98
390.809	313.19
391.256	338.94
391.703	383.41
392.15	381.07
392.596	352.98
393.043	259.36
393.49	303.83
393.937	327.24
394.383	310.85
394.83	315.53
395.276	315.53
395.723	329.58
396.169	308.51
396.616	327.24
397.062	306.17
397.508	306.17
397.954	350.64
398.401	331.92
398.847	322.56
399.293	301.49
399.739	292.13
400.185	343.62
400.631	329.58
401.076	292.13
401.522	308.51
401.968	322.56
402.414	348.3
402.859	364.68
403.305	285.11
403.75	355.32
404.196	254.68
404.641	322.56
405.086	317.87
405.532	287.45
405.977	345.96
406.422	252.34
406.867	376.39
407.312	374.05
407.757	301.49
408.202	257.02
408.647	257.02
409.092	364.68
409.537	327.24
409.982	341.28
410.426	287.45
410.871	324.9
411.316	345.96
411.76	317.87
412.205	343.62
412.649	324.9
413.093	343.62
413.538	397.45
413.982	331.92
414.426	324.9
414.87	324.9
415.314	404.47
415.758	338.94
416.202	315.53
416.646	310.85
417.09	371.71
417.534	331.92
417.978	383.41
418.421	329.58
418.865	275.74
419.309	338.94
419.752	296.81
420.196	308.51
420.639	280.43
421.083	254.68
421.526	336.6
421.969	418.52
422.412	345.96
422.856	317.87
423.299	313.19
423.742	285.11
424.185	296.81
424.628	322.56
425.071	345.96
425.513	329.58
425.956	362.34
426.399	324.9
426.842	329.58
427.284	350.64
427.727	275.74
428.169	292.13
428.612	334.26
429.054	341.28
429.497	395.11
429.939	310.85
430.381	266.38
430.823	320.21
431.265	352.98
431.707	345.96
432.149	360
432.591	324.9
433.033	322.56
433.475	329.58
433.917	280.43
434.359	268.72
434.8	292.13
435.242	357.66
435.684	294.47
436.125	327.24
436.567	343.62
437.008	322.56
437.449	331.92
437.891	334.26
438.332	341.28
438.773	306.17
439.214	259.36
439.656	320.21
440.097	296.81
440.538	343.62
440.978	292.13
441.419	385.75
441.86	280.43
442.301	315.53
442.742	338.94
443.182	327.24
443.623	308.51
444.063	285.11
444.504	352.98
444.944	331.92
445.385	257.02
445.825	378.73
446.265	320.21
446.706	362.34
447.146	320.21
447.586	278.08
448.026	334.26
448.466	285.11
448.906	352.98
449.346	383.41
449.786	278.08
450.225	371.71
450.665	306.17
451.105	310.85
451.544	355.32
451.984	357.66
452.424	324.9
452.863	343.62
453.302	345.96
453.742	374.05
454.181	327.24
454.62	338.94
455.059	250
455.499	266.38
455.938	364.68
456.377	266.38
456.816	336.6
457.254	320.21
457.693	343.62
458.132	308.51
458.571	343.62
459.01	308.51
459.448	322.56
459.887	362.34
460.325	327.24
460.764	273.4
461.202	345.96
461.641	432.56
462.079	273.4
462.517	345.96
462.955	331.92
463.393	289.79
463.832	336.6
464.27	331.92
464.708	317.87
465.145	329.58
465.583	369.37
466.021	360
466.459	310.85
466.897	257.02
467.334	331.92
467.772	315.53
468.209	292.13
468.647	345.96
469.084	376.39
469.522	334.26
469.959	362.34
470.396	355.32
470.833	364.68
471.271	341.28
471.708	315.53
472.145	352.98
472.582	289.79
473.019	331.92
473.456	315.53
473.892	306.17
474.329	399.79
474.766	341.28
475.202	315.53
475.639	357.66
476.076	362.34
476.512	315.53
476.949	324.9
477.385	385.75
477.821	317.87
478.258	320.21
478.694	301.49
479.13	348.3
479.566	336.6
480.002	331.92
480.438	317.87
480.874	350.64
481.31	374.05
481.746	280.43
482.181	301.49
482.617	322.56
483.053	343.62
483.488	308.51
483.924	369.37
484.36	341.28
484.795	343.62
485.23	376.39
485.666	303.83
486.101	381.07
486.536	357.66
486.971	367.03
487.407	317.87
487.842	310.85
488.277	315.53
488.712	303.83
489.146	397.45
489.581	336.6
490.016	341.28
490.451	357.66
490.885	320.21
491.32	315.53
491.755	308.51
492.189	367.03
492.624	364.68
493.058	294.47
493.492	324.9
493.927	257.02
494.361	345.96
494.795	261.7
495.229	324.9
495.663	343.62
496.097	343.62
496.531	345.96
496.965	299.15
497.399	315.53
497.833	329.58
498.266	329.58
498.7	280.43
499.134	252.34
499.567	287.45
500.001	317.87
500.434	331.92
500.868	275.74
501.301	322.56
501.734	362.34
502.168	374.05
502.601	264.04
503.034	292.13
503.467	254.68
503.9	273.4
504.333	280.43
504.766	341.28
505.199	317.87
505.632	252.34
506.064	336.6
506.497	289.79
506.93	324.9
507.362	294.47
507.795	313.19
508.227	336.6
508.66	341.28
509.092	385.75
509.524	315.53
509.956	310.85
510.389	285.11
510.821	282.77
511.253	303.83
511.685	367.03
512.117	308.51
512.549	329.58
512.981	303.83
513.412	259.36
513.844	294.47
514.276	411.5
514.707	360
515.139	343.62
515.571	310.85
516.002	306.17
516.433	345.96
516.865	357.66
517.296	357.66
517.727	327.24
518.159	381.07
518.59	364.68
519.021	280.43
519.452	336.6
519.883	308.51
520.314	310.85
520.744	289.79
521.175	299.15
521.606	369.37
522.037	299.15
522.467	345.96
522.898	327.24
523.328	345.96
523.759	310.85
524.189	341.28
524.62	313.19
525.05	322.56
525.48	360
525.91	345.96
526.341	250
526.771	395.11
527.201	287.45
527.631	329.58
528.061	313.19
528.49	334.26
528.92	280.43
529.35	324.9
529.78	331.92
530.209	334.26
530.639	324.9
531.068	299.15
531.498	306.17
531.927	343.62
532.357	348.3
532.786	306.17
533.215	388.09
533.644	273.4
534.074	292.13
534.503	355.32
534.932	324.9
535.361	385.75
535.79	341.28
536.218	261.7
536.647	242.98
537.076	273.4
537.505	327.24
537.933	296.81
538.362	294.47
538.79	294.47
539.219	341.28
539.647	289.79
540.076	343.62
540.504	292.13
540.932	334.26
541.36	390.43
541.788	360
542.217	343.62
542.645	331.92
543.073	278.08
543.5	292.13
543.928	320.21
544.356	329.58
544.784	324.9
545.211	310.85
545.639	355.32
546.067	322.56
546.494	345.96
546.922	362.34
547.349	355.32
547.776	308.51
548.204	329.58
548.631	331.92
549.058	282.77
549.485	331.92
549.912	383.41
550.339	327.24
550.766	334.26
551.193	345.96
551.62	306.17
552.047	350.64
552.474	313.19
552.9	338.94
553.327	317.87
553.754	292.13
554.18	264.04
554.607	409.15
555.033	378.73
555.459	350.64
555.886	341.28
556.312	289.79
556.738	310.85
557.164	296.81
557.59	301.49
558.016	329.58
558.442	360
558.868	299.15
559.294	357.66
559.72	388.09
560.145	313.19
560.571	306.17
560.997	271.06
561.422	285.11
561.848	292.13
562.273	348.3
562.699	310.85
563.124	299.15
563.549	221.91
563.974	336.6
564.4	392.77
564.825	374.05
565.25	322.56
565.675	320.21
566.1	355.32
566.525	331.92
566.95	313.19
567.374	381.07
567.799	322.56
568.224	303.83
568.648	334.26
569.073	381.07
569.497	367.03
569.922	282.77
570.346	338.94
570.771	268.72
571.195	329.58
571.619	331.92
572.043	280.43
572.467	331.92
572.891	348.3
573.315	257.02
573.739	324.9
574.163	345.96
574.587	338.94
575.011	303.83
575.435	287.45
575.858	343.62
576.282	355.32
576.705	261.7
577.129	352.98
577.552	352.98
577.976	352.98
578.399	331.92
578.822	289.79
579.245	310.85
579.669	395.11
580.092	348.3
580.515	306.17
580.938	317.87
581.361	336.6
581.784	392.77
582.206	364.68
582.629	348.3
583.052	360
583.474	313.19
583.897	308.51
584.32	238.3
584.742	374.05
585.165	357.66
585.587	273.4
586.009	299.15
586.431	352.98
586.854	327.24
587.276	345.96
587.698	369.37
588.12	364.68
588.542	320.21
588.964	374.05
589.386	369.37
589.807	348.3
590.229	313.19
590.651	360
591.073	280.43
591.494	343.62
591.916	397.45
592.337	367.03
592.759	301.49
593.18	313.19
593.601	296.81
594.022	320.21
594.444	350.64
594.865	308.51
595.286	352.98
595.707	320.21
596.128	313.19
596.549	268.72
596.97	350.64
597.39	352.98
597.811	313.19
598.232	357.66
598.652	367.03
599.073	399.79
599.494	338.94
599.914	315.53
600.334	331.92
600.755	369.37
601.175	343.62
601.595	331.92
602.015	338.94
602.436	399.79
602.856	423.2
603.276	278.08
603.696	324.9
604.115	392.77
604.535	357.66
604.955	345.96
605.375	301.49
605.794	259.36
606.214	374.05
606.634	360
607.053	285.11
607.473	261.7
607.892	310.85
608.311	331.92
608.731	352.98
609.15	338.94
609.569	341.28
609.988	355.32
610.407	362.34
610.826	343.62
611.245	271.06
611.664	324.9
612.083	261.7
612.501	348.3
612.92	278.08
613.339	360
613.757	301.49
614.176	374.05
614.594	247.66
615.013	395.11
615.431	352.98
615.85	261.7
616.268	360
616.686	268.72
617.104	271.06
617.522	324.9
617.94	299.15
618.358	306.17
618.776	315.53
619.194	336.6
619.612	254.68
620.03	397.45
620.447	287.45
620.865	287.45
621.282	317.87
621.7	322.56
622.117	287.45
622.535	310.85
622.952	334.26
623.369	336.6
623.787	315.53
624.204	296.81
624.621	317.87
625.038	376.39
625.455	327.24
625.872	315.53
626.289	324.9
626.706	341.28
627.123	327.24
627.539	280.43
627.956	324.9
628.373	390.43
628.789	367.03
629.206	350.64
629.622	374.05
630.038	310.85
630.455	264.04
630.871	285.11
631.287	259.36
631.703	266.38
632.12	294.47
632.536	392.77
632.952	348.3
633.368	306.17
633.783	296.81
634.199	273.4
634.615	317.87
635.031	317.87
635.446	338.94
635.862	320.21
636.277	383.41
636.693	336.6
637.108	369.37
637.524	364.68
637.939	369.37
638.354	303.83
638.77	280.43
639.185	315.53
639.6	205.53
640.015	338.94
640.43	310.85
640.845	345.96
641.259	315.53
641.674	261.7
642.089	252.34
642.504	360
642.918	261.7
643.333	334.26
643.747	289.79
644.162	336.6
644.576	371.71
644.991	285.11
645.405	352.98
645.819	322.56
646.233	299.15
646.647	324.9
647.061	329.58
647.475	324.9
647.889	296.81
648.303	369.37
648.717	301.49
649.131	294.47
649.545	348.3
649.958	278.08
650.372	357.66
650.785	294.47
651.199	324.9
651.612	331.92
652.026	315.53
652.439	317.87
652.852	329.58
653.266	315.53
653.679	362.34
654.092	320.21
654.505	374.05
654.918	303.83
655.331	338.94
655.744	287.45
656.156	317.87
656.569	327.24
656.982	362.34
657.394	327.24
657.807	376.39
658.22	378.73
658.632	355.32
659.044	301.49
659.457	308.51
659.869	299.15
660.281	324.9
660.693	345.96
661.106	313.19
661.518	345.96
661.93	261.7
662.342	306.17
662.754	289.79
663.165	250
663.577	261.7
663.989	341.28
664.401	296.81
664.812	233.61
665.224	282.77
665.635	285.11
666.047	324.9
666.458	324.9
666.869	331.92
667.281	275.74
667.692	306.17
668.103	278.08
668.514	348.3
668.925	315.53
669.336	329.58
669.747	324.9
670.158	357.66
670.569	299.15
670.979	324.9
671.39	303.83
671.801	306.17
672.211	280.43
672.622	317.87
673.032	320.21
673.443	296.81
673.853	352.98
674.263	374.05
674.674	378.73
675.084	280.43
675.494	301.49
675.904	334.26
676.314	369.37
676.724	343.62
677.134	294.47
677.544	289.79
677.953	371.71
678.363	282.77
678.773	385.75
679.182	310.85
679.592	303.83
680.001	306.17
680.411	392.77
680.82	308.51
681.23	327.24
681.639	348.3
682.048	310.85
682.457	336.6
682.866	299.15
683.275	285.11
683.684	257.02
684.093	299.15
684.502	313.19
684.911	378.73
685.32	320.21
685.728	310.85
686.137	397.45
686.546	310.85
686.954	352.98
687.363	308.51
687.771	369.37
688.179	320.21
688.588	402.13
688.996	357.66
689.404	275.74
689.812	367.03
690.22	308.51
690.628	275.74
691.036	303.83
691.444	371.71
691.852	331.92
692.26	308.51
692.667	301.49
693.075	287.45
693.483	315.53
693.89	334.26
694.298	266.38
694.705	336.6
695.112	268.72
695.52	296.81
695.927	301.49
696.334	357.66
696.741	308.51
697.148	348.3
697.555	306.17
697.962	355.32
698.369	355.32
698.776	350.64
699.183	322.56
699.59	278.08
699.996	308.51
700.403	345.96
700.81	315.53
701.216	310.85
701.623	367.03
702.029	341.28
702.435	355.32
702.842	329.58
703.248	322.56
703.654	336.6
704.06	259.36
704.466	388.09
704.872	369.37
705.278	329.58
705.684	364.68
706.09	259.36
706.496	395.11
706.901	296.81
707.307	313.19
707.712	341.28
708.118	282.77
708.523	364.68
708.929	329.58
709.334	338.94
709.74	296.81
710.145	303.83
710.55	238.3
710.955	350.64
711.36	294.47
711.765	381.07
712.17	381.07
712.575	324.9
712.98	835.13
713.385	334.26
713.789	301.49
714.194	329.58
714.599	348.3
715.003	303.83
715.408	334.26
715.812	308.51
716.217	294.47
716.621	252.34
717.025	264.04
717.429	273.4
717.833	392.77
718.238	343.62
718.642	261.7
719.046	289.79
719.449	317.87
719.853	322.56
720.257	371.71
720.661	350.64
721.065	331.92
721.468	322.56
721.872	301.49
722.275	334.26
722.679	310.85
723.082	381.07
723.485	357.66
723.889	336.6
724.292	348.3
724.695	313.19
725.098	296.81
725.501	364.68
725.904	266.38
726.307	299.15
726.71	324.9
727.113	329.58
727.516	303.83
727.918	352.98
728.321	336.6
728.724	348.3
729.126	261.7
729.529	385.75
729.931	352.98
730.333	257.02
730.736	355.32
731.138	313.19
731.54	308.51
731.942	320.21
732.344	301.49
732.746	369.37
733.148	320.21
733.55	308.51
733.952	336.6
734.354	266.38
734.756	371.71
735.157	271.06
735.559	317.87
735.96	280.43
736.362	348.3
736.763	352.98
737.165	378.73
737.566	355.32
737.967	299.15
738.368	313.19
738.77	292.13
739.171	310.85
739.572	341.28
739.973	378.73
740.374	338.94
740.774	350.64
741.175	336.6
741.576	301.49
741.977	306.17
742.377	294.47
742.778	329.58
743.178	299.15
743.579	317.87
743.979	306.17
744.379	320.21
744.78	392.77
745.18	331.92
745.58	327.24
745.98	273.4
746.38	331.92
746.78	345.96
747.18	334.26
747.58	257.02
747.98	266.38
748.38	306.17
748.779	327.24
749.179	334.26
749.578	427.88
749.978	310.85
750.377	352.98
750.777	322.56
751.176	310.85
751.575	352.98
751.975	308.51
752.374	264.04
752.773	301.49
753.172	369.37
753.571	362.34
753.97	294.47
754.369	257.02
754.768	303.83
755.166	296.81
755.565	352.98
755.964	329.58
756.362	250
756.761	292.13
757.159	334.26
757.558	367.03
757.956	341.28
758.354	268.72
758.753	360
759.151	334.26
759.549	322.56
759.947	352.98
760.345	324.9
760.743	329.58
761.141	296.81
761.539	254.68
761.936	329.58
762.334	310.85
762.732	345.96
763.129	390.43
763.527	360
763.924	360
764.322	322.56
764.719	364.68
765.117	334.26
765.514	273.4
765.911	338.94
766.308	357.66
766.705	299.15
767.102	362.34
