Data from Al_FLMS009871__685__15-07-13-237.txt Node

Date: Fri Mar 08 15:07:13 CST 2024
User: pe5414po
Spectrometer: FLMS00987
Trigger mode: 0
Integration Time (sec): 1.000000E-1
Scans to average: 1
Electric dark correction enabled: true
Nonlinearity correction enabled: false
Boxcar width: 0
XAxis mode: Wavelengths
Number of Pixels in Spectrum: 2048
>>>>>Begin Spectral Data<<<<<
188.938	-60.12
189.409	-60.12
189.879	-60.12
190.349	-135.02
190.819	-142.04
191.29	-39.06
191.76	-132.68
192.23	-102.25
192.7	-71.83
193.17	-102.25
193.64	0.73
194.109	-41.4
194.579	33.5
195.049	-1.61
195.519	14.77
195.988	10.09
196.458	73.29
196.927	45.2
197.397	56.9
197.866	87.33
198.336	169.25
198.805	141.16
199.274	113.08
199.744	145.84
200.213	190.31
200.682	197.34
201.151	211.38
201.62	206.7
202.089	209.04
202.558	279.26
203.027	295.64
203.495	232.44
203.964	244.15
204.433	307.34
204.902	239.47
205.37	251.17
205.839	225.42
206.307	267.55
206.776	300.32
207.244	340.11
207.712	262.87
208.181	276.91
208.649	297.98
209.117	309.68
209.585	302.66
210.053	230.1
210.521	312.02
210.989	375.22
211.457	281.6
211.925	274.57
212.393	274.57
212.861	246.49
213.328	295.64
213.796	323.73
214.264	232.44
214.731	237.13
215.199	255.85
215.666	297.98
216.133	288.62
216.601	234.78
217.068	279.26
217.535	274.57
218.003	248.83
218.47	276.91
218.937	305
219.404	244.15
219.871	241.81
220.338	312.02
220.805	237.13
221.271	246.49
221.738	267.55
222.205	300.32
222.671	293.3
223.138	312.02
223.605	297.98
224.071	279.26
224.538	314.36
225.004	279.26
225.47	251.17
225.937	262.87
226.403	276.91
226.869	274.57
227.335	262.87
227.801	258.19
228.267	239.47
228.733	302.66
229.199	232.44
229.665	276.91
230.131	227.76
230.597	223.08
231.062	274.57
231.528	239.47
231.994	223.08
232.459	293.3
232.925	272.23
233.39	307.34
233.856	204.36
234.321	258.19
234.786	204.36
235.252	253.51
235.717	253.51
236.182	295.64
236.647	246.49
237.112	305
237.577	281.6
238.042	253.51
238.507	288.62
238.972	321.38
239.436	265.21
239.901	225.42
240.366	300.32
240.83	300.32
241.295	279.26
241.76	307.34
242.224	244.15
242.688	300.32
243.153	305
243.617	253.51
244.081	248.83
244.545	276.91
245.01	234.78
245.474	354.15
245.938	276.91
246.402	218.4
246.866	265.21
247.33	305
247.793	333.09
248.257	246.49
248.721	265.21
249.185	340.11
249.648	302.66
250.112	279.26
250.575	274.57
251.039	283.94
251.502	279.26
251.965	297.98
252.429	253.51
252.892	335.43
253.355	265.21
253.818	234.78
254.281	267.55
254.744	290.96
255.207	337.77
255.67	321.38
256.133	319.04
256.596	274.57
257.059	314.36
257.522	281.6
257.984	307.34
258.447	319.04
258.909	288.62
259.372	297.98
259.834	309.68
260.297	248.83
260.759	234.78
261.221	272.23
261.684	356.49
262.146	305
262.608	274.57
263.07	328.41
263.532	286.28
263.994	300.32
264.456	293.3
264.918	246.49
265.38	272.23
265.842	241.81
266.303	300.32
266.765	293.3
267.227	260.53
267.688	272.23
268.15	333.09
268.611	333.09
269.072	288.62
269.534	309.68
269.995	253.51
270.456	283.94
270.918	279.26
271.379	319.04
271.84	389.26
272.301	267.55
272.762	340.11
273.223	309.68
273.684	300.32
274.144	283.94
274.605	283.94
275.066	288.62
275.527	244.15
275.987	333.09
276.448	274.57
276.908	265.21
277.369	253.51
277.829	272.23
278.289	269.89
278.75	302.66
279.21	326.07
279.67	267.55
280.13	314.36
280.59	333.09
281.05	279.26
281.51	309.68
281.97	260.53
282.43	330.75
282.89	237.13
283.35	295.64
283.809	267.55
284.269	300.32
284.729	255.85
285.188	288.62
285.648	330.75
286.107	307.34
286.567	305
287.026	330.75
287.485	295.64
287.944	274.57
288.404	417.35
288.863	283.94
289.322	288.62
289.781	283.94
290.24	335.43
290.699	246.49
291.158	293.3
291.616	305
292.075	321.38
292.534	351.81
292.992	293.3
293.451	302.66
293.91	335.43
294.368	312.02
294.827	307.34
295.285	302.66
295.743	283.94
296.202	276.91
296.66	312.02
297.118	290.96
297.576	321.38
298.034	260.53
298.492	335.43
298.95	307.34
299.408	267.55
299.866	326.07
300.324	295.64
300.781	314.36
301.239	290.96
301.697	340.11
302.154	309.68
302.612	307.34
303.069	307.34
303.527	281.6
303.984	227.76
304.441	234.78
304.899	361.17
305.356	323.73
305.813	328.41
306.27	302.66
306.727	290.96
307.184	312.02
307.641	279.26
308.098	361.17
308.555	297.98
309.012	258.19
309.468	293.3
309.925	234.78
310.382	312.02
310.838	290.96
311.295	326.07
311.751	297.98
312.208	314.36
312.664	307.34
313.12	239.47
313.577	281.6
314.033	295.64
314.489	307.34
314.945	276.91
315.401	260.53
315.857	319.04
316.313	344.79
316.769	258.19
317.225	227.76
317.681	276.91
318.136	276.91
318.592	220.74
319.048	302.66
319.503	307.34
319.959	335.43
320.414	279.26
320.869	283.94
321.325	326.07
321.78	295.64
322.235	267.55
322.691	328.41
323.146	330.75
323.601	248.83
324.056	321.38
324.511	321.38
324.966	295.64
325.421	227.76
325.875	288.62
326.33	283.94
326.785	330.75
327.24	293.3
327.694	274.57
328.149	281.6
328.603	316.7
329.058	269.89
329.512	302.66
329.966	265.21
330.421	286.28
330.875	351.81
331.329	337.77
331.783	330.75
332.237	288.62
332.691	335.43
333.145	288.62
333.599	281.6
334.053	321.38
334.507	290.96
334.96	281.6
335.414	300.32
335.868	305
336.321	326.07
336.775	253.51
337.228	295.64
337.682	328.41
338.135	293.3
338.588	333.09
339.042	351.81
339.495	358.83
339.948	333.09
340.401	293.3
340.854	326.07
341.307	321.38
341.76	297.98
342.213	377.56
342.666	307.34
343.119	295.64
343.571	335.43
344.024	286.28
344.477	335.43
344.929	300.32
345.382	321.38
345.834	314.36
346.287	316.7
346.739	290.96
347.191	319.04
347.644	316.7
348.096	283.94
348.548	309.68
349	267.55
349.452	290.96
349.904	328.41
350.356	391.6
350.808	314.36
351.26	297.98
351.711	389.26
352.163	267.55
352.615	379.9
353.066	293.3
353.518	286.28
353.969	368.2
354.421	386.92
354.872	307.34
355.324	269.89
355.775	321.38
356.226	279.26
356.677	302.66
357.128	305
357.579	309.68
358.03	340.11
358.481	290.96
358.932	321.38
359.383	330.75
359.834	309.68
360.285	330.75
360.735	314.36
361.186	335.43
361.637	330.75
362.087	253.51
362.538	377.56
362.988	307.34
363.438	290.96
363.889	326.07
364.339	309.68
364.789	302.66
365.239	295.64
365.689	403.3
366.139	347.13
366.589	286.28
367.039	335.43
367.489	297.98
367.939	347.13
368.389	305
368.839	293.3
369.288	290.96
369.738	328.41
370.187	365.85
370.637	297.98
371.086	335.43
371.536	328.41
371.985	333.09
372.434	361.17
372.884	361.17
373.333	375.22
373.782	323.73
374.231	344.79
374.68	302.66
375.129	283.94
375.578	328.41
376.027	265.21
376.475	300.32
376.924	288.62
377.373	251.17
377.822	361.17
378.27	302.66
378.719	342.45
379.167	319.04
379.616	305
380.064	302.66
380.512	297.98
380.961	260.53
381.409	337.77
381.857	330.75
382.305	283.94
382.753	342.45
383.201	323.73
383.649	319.04
384.097	349.47
384.545	302.66
384.992	344.79
385.44	316.7
385.888	328.41
386.335	321.38
386.783	297.98
387.231	305
387.678	333.09
388.125	361.17
388.573	293.3
389.02	361.17
389.467	354.15
389.914	269.89
390.362	279.26
390.809	340.11
391.256	302.66
391.703	389.26
392.15	361.17
392.596	314.36
393.043	344.79
393.49	377.56
393.937	326.07
394.383	354.15
394.83	279.26
395.276	286.28
395.723	274.57
396.169	314.36
396.616	300.32
397.062	342.45
397.508	344.79
397.954	330.75
398.401	307.34
398.847	347.13
399.293	386.92
399.739	305
400.185	321.38
400.631	342.45
401.076	276.91
401.522	265.21
401.968	316.7
402.414	344.79
402.859	293.3
403.305	344.79
403.75	302.66
404.196	300.32
404.641	295.64
405.086	283.94
405.532	305
405.977	293.3
406.422	323.73
406.867	288.62
407.312	349.47
407.757	312.02
408.202	293.3
408.647	316.7
409.092	347.13
409.537	302.66
409.982	312.02
410.426	279.26
410.871	281.6
411.316	328.41
411.76	274.57
412.205	377.56
412.649	347.13
413.093	290.96
413.538	305
413.982	293.3
414.426	368.2
414.87	328.41
415.314	305
415.758	326.07
416.202	391.6
416.646	265.21
417.09	309.68
417.534	297.98
417.978	286.28
418.421	370.54
418.865	330.75
419.309	328.41
419.752	314.36
420.196	307.34
420.639	349.47
421.083	302.66
421.526	323.73
421.969	283.94
422.412	272.23
422.856	302.66
423.299	363.51
423.742	312.02
424.185	321.38
424.628	305
425.071	335.43
425.513	361.17
425.956	288.62
426.399	316.7
426.842	344.79
427.284	337.77
427.727	288.62
428.169	342.45
428.612	295.64
429.054	295.64
429.497	281.6
429.939	370.54
430.381	265.21
430.823	316.7
431.265	312.02
431.707	281.6
432.149	283.94
432.591	288.62
433.033	370.54
433.475	302.66
433.917	290.96
434.359	293.3
434.8	295.64
435.242	316.7
435.684	340.11
436.125	281.6
436.567	283.94
437.008	316.7
437.449	281.6
437.891	265.21
438.332	323.73
438.773	340.11
439.214	342.45
439.656	328.41
440.097	316.7
440.538	326.07
440.978	354.15
441.419	358.83
441.86	295.64
442.301	267.55
442.742	351.81
443.182	365.85
443.623	326.07
444.063	382.24
444.504	288.62
444.944	316.7
445.385	356.49
445.825	305
446.265	351.81
446.706	295.64
447.146	356.49
447.586	309.68
448.026	209.04
448.466	321.38
448.906	335.43
449.346	333.09
449.786	286.28
450.225	321.38
450.665	363.51
451.105	295.64
451.544	330.75
451.984	330.75
452.424	279.26
452.863	314.36
453.302	312.02
453.742	302.66
454.181	223.08
454.62	365.85
455.059	307.34
455.499	386.92
455.938	349.47
456.377	295.64
456.816	323.73
457.254	379.9
457.693	307.34
458.132	302.66
458.571	288.62
459.01	363.51
459.448	363.51
459.887	323.73
460.325	302.66
460.764	347.13
461.202	281.6
461.641	295.64
462.079	283.94
462.517	316.7
462.955	375.22
463.393	248.83
463.832	312.02
464.27	330.75
464.708	314.36
465.145	342.45
465.583	312.02
466.021	396.28
466.459	354.15
466.897	344.79
467.334	358.83
467.772	382.24
468.209	321.38
468.647	300.32
469.084	305
469.522	415.01
469.959	267.55
470.396	307.34
470.833	314.36
471.271	316.7
471.708	358.83
472.145	335.43
472.582	267.55
473.019	316.7
473.456	295.64
473.892	340.11
474.329	300.32
474.766	326.07
475.202	300.32
475.639	288.62
476.076	340.11
476.512	305
476.949	328.41
477.385	319.04
477.821	305
478.258	368.2
478.694	312.02
479.13	337.77
479.566	295.64
480.002	321.38
480.438	335.43
480.874	349.47
481.31	286.28
481.746	330.75
482.181	330.75
482.617	314.36
483.053	293.3
483.488	326.07
483.924	344.79
484.36	274.57
484.795	265.21
485.23	269.89
485.666	361.17
486.101	333.09
486.536	326.07
486.971	340.11
487.407	300.32
487.842	293.3
488.277	293.3
488.712	333.09
489.146	288.62
489.581	319.04
490.016	354.15
490.451	344.79
490.885	326.07
491.32	333.09
491.755	375.22
492.189	281.6
492.624	309.68
493.058	389.26
493.492	358.83
493.927	384.58
494.361	323.73
494.795	328.41
495.229	316.7
495.663	307.34
496.097	290.96
496.531	316.7
496.965	286.28
497.399	276.91
497.833	281.6
498.266	267.55
498.7	323.73
499.134	340.11
499.567	368.2
500.001	309.68
500.434	241.81
500.868	349.47
501.301	326.07
501.734	344.79
502.168	351.81
502.601	276.91
503.034	358.83
503.467	272.23
503.9	262.87
504.333	312.02
504.766	297.98
505.199	330.75
505.632	290.96
506.064	290.96
506.497	283.94
506.93	267.55
507.362	260.53
507.795	262.87
508.227	272.23
508.66	293.3
509.092	307.34
509.524	333.09
509.956	295.64
510.389	300.32
510.821	335.43
511.253	290.96
511.685	288.62
512.117	283.94
512.549	342.45
512.981	323.73
513.412	286.28
513.844	347.13
514.276	297.98
514.707	340.11
515.139	302.66
515.571	326.07
516.002	300.32
516.433	342.45
516.865	307.34
517.296	312.02
517.727	333.09
518.159	314.36
518.59	363.51
519.021	323.73
519.452	335.43
519.883	260.53
520.314	312.02
520.744	286.28
521.175	363.51
521.606	323.73
522.037	342.45
522.467	293.3
522.898	297.98
523.328	314.36
523.759	302.66
524.189	382.24
524.62	293.3
525.05	300.32
525.48	321.38
525.91	316.7
526.341	347.13
526.771	274.57
527.201	309.68
527.631	330.75
528.061	333.09
528.49	328.41
528.92	349.47
529.35	290.96
529.78	372.88
530.209	330.75
530.639	337.77
531.068	316.7
531.498	337.77
531.927	305
532.357	274.57
532.786	337.77
533.215	365.85
533.644	337.77
534.074	354.15
534.503	283.94
534.932	370.54
535.361	314.36
535.79	365.85
536.218	290.96
536.647	307.34
537.076	274.57
537.505	316.7
537.933	290.96
538.362	300.32
538.79	314.36
539.219	251.17
539.647	356.49
540.076	309.68
540.504	328.41
540.932	330.75
541.36	276.91
541.788	333.09
542.217	234.78
542.645	398.62
543.073	302.66
543.5	335.43
543.928	330.75
544.356	314.36
544.784	312.02
545.211	330.75
545.639	286.28
546.067	312.02
546.494	321.38
546.922	279.26
547.349	326.07
547.776	330.75
548.204	321.38
548.631	326.07
549.058	328.41
549.485	361.17
549.912	316.7
550.339	340.11
550.766	286.28
551.193	323.73
551.62	349.47
552.047	365.85
552.474	382.24
552.9	372.88
553.327	354.15
553.754	288.62
554.18	417.35
554.607	356.49
555.033	262.87
555.459	393.94
555.886	290.96
556.312	274.57
556.738	333.09
557.164	365.85
557.59	323.73
558.016	290.96
558.442	302.66
558.868	316.7
559.294	262.87
559.72	293.3
560.145	337.77
560.571	255.85
560.997	281.6
561.422	342.45
561.848	312.02
562.273	323.73
562.699	316.7
563.124	309.68
563.549	340.11
563.974	344.79
564.4	354.15
564.825	239.47
565.25	412.67
565.675	358.83
566.1	276.91
566.525	281.6
566.95	335.43
567.374	258.19
567.799	302.66
568.224	293.3
568.648	206.7
569.073	319.04
569.497	279.26
569.922	283.94
570.346	302.66
570.771	314.36
571.195	319.04
571.619	305
572.043	349.47
572.467	321.38
572.891	391.6
573.315	300.32
573.739	344.79
574.163	288.62
574.587	335.43
575.011	323.73
575.435	328.41
575.858	356.49
576.282	351.81
576.705	281.6
577.129	283.94
577.552	333.09
577.976	333.09
578.399	302.66
578.822	295.64
579.245	358.83
579.669	321.38
580.092	302.66
580.515	293.3
580.938	279.26
581.361	326.07
581.784	274.57
582.206	368.2
582.629	340.11
583.052	295.64
583.474	365.85
583.897	297.98
584.32	302.66
584.742	307.34
585.165	316.7
585.587	356.49
586.009	356.49
586.431	246.49
586.854	290.96
587.276	248.83
587.698	281.6
588.12	328.41
588.542	223.08
588.964	281.6
589.386	326.07
589.807	337.77
590.229	295.64
590.651	295.64
591.073	356.49
591.494	295.64
591.916	323.73
592.337	326.07
592.759	340.11
593.18	239.47
593.601	354.15
594.022	335.43
594.444	309.68
594.865	302.66
595.286	326.07
595.707	333.09
596.128	328.41
596.549	295.64
596.97	274.57
597.39	347.13
597.811	312.02
598.232	309.68
598.652	326.07
599.073	269.89
599.494	314.36
599.914	293.3
600.334	290.96
600.755	347.13
601.175	375.22
601.595	372.88
602.015	251.17
602.436	319.04
602.856	459.48
603.276	314.36
603.696	333.09
604.115	333.09
604.535	384.58
604.955	314.36
605.375	312.02
605.794	293.3
606.214	288.62
606.634	206.7
607.053	297.98
607.473	293.3
607.892	279.26
608.311	248.83
608.731	370.54
609.15	351.81
609.569	363.51
609.988	286.28
610.407	302.66
610.826	335.43
611.245	269.89
611.664	281.6
612.083	400.96
612.501	349.47
612.92	267.55
613.339	295.64
613.757	314.36
614.176	365.85
614.594	307.34
615.013	349.47
615.431	302.66
615.85	340.11
616.268	295.64
616.686	342.45
617.104	326.07
617.522	283.94
617.94	260.53
618.358	293.3
618.776	265.21
619.194	272.23
619.612	307.34
620.03	328.41
620.447	330.75
620.865	340.11
621.282	337.77
621.7	398.62
622.117	314.36
622.535	321.38
622.952	335.43
623.369	351.81
623.787	330.75
624.204	326.07
624.621	265.21
625.038	305
625.455	316.7
625.872	372.88
626.289	361.17
626.706	335.43
627.123	312.02
627.539	351.81
627.956	347.13
628.373	241.81
628.789	314.36
629.206	330.75
629.622	358.83
630.038	276.91
630.455	272.23
630.871	288.62
631.287	297.98
631.703	330.75
632.12	368.2
632.536	347.13
632.952	309.68
633.368	300.32
633.783	260.53
634.199	326.07
634.615	253.51
635.031	258.19
635.446	328.41
635.862	319.04
636.277	314.36
636.693	290.96
637.108	232.44
637.524	305
637.939	347.13
638.354	293.3
638.77	389.26
639.185	281.6
639.6	321.38
640.015	351.81
640.43	330.75
640.845	302.66
641.259	305
641.674	344.79
642.089	246.49
642.504	274.57
642.918	269.89
643.333	344.79
643.747	290.96
644.162	340.11
644.576	307.34
644.991	337.77
645.405	281.6
645.819	281.6
646.233	382.24
646.647	328.41
647.061	319.04
647.475	370.54
647.889	300.32
648.303	347.13
648.717	328.41
649.131	347.13
649.545	302.66
649.958	384.58
650.372	337.77
650.785	370.54
651.199	328.41
651.612	344.79
652.026	262.87
652.439	314.36
652.852	302.66
653.266	333.09
653.679	365.85
654.092	319.04
654.505	368.2
654.918	326.07
655.331	344.79
655.744	319.04
656.156	403.3
656.569	293.3
656.982	300.32
657.394	290.96
657.807	220.74
658.22	309.68
658.632	368.2
659.044	272.23
659.457	272.23
659.869	307.34
660.281	328.41
660.693	335.43
661.106	295.64
661.518	323.73
661.93	314.36
662.342	379.9
662.754	361.17
663.165	358.83
663.577	297.98
663.989	307.34
664.401	288.62
664.812	274.57
665.224	260.53
665.635	305
666.047	356.49
666.458	337.77
666.869	297.98
667.281	337.77
667.692	283.94
668.103	314.36
668.514	337.77
668.925	305
669.336	365.85
669.747	335.43
670.158	312.02
670.569	351.81
670.979	358.83
671.39	375.22
671.801	356.49
672.211	326.07
672.622	349.47
673.032	358.83
673.443	342.45
673.853	370.54
674.263	216.06
674.674	312.02
675.084	302.66
675.494	279.26
675.904	293.3
676.314	300.32
676.724	274.57
677.134	283.94
677.544	328.41
677.953	344.79
678.363	379.9
678.773	363.51
679.182	335.43
679.592	305
680.001	295.64
680.411	283.94
680.82	239.47
681.23	286.28
681.639	274.57
682.048	349.47
682.457	368.2
682.866	316.7
683.275	330.75
683.684	335.43
684.093	335.43
684.502	363.51
684.911	393.94
685.32	321.38
685.728	314.36
686.137	328.41
686.546	281.6
686.954	267.55
687.363	269.89
687.771	354.15
688.179	262.87
688.588	272.23
688.996	312.02
689.404	248.83
689.812	272.23
690.22	309.68
690.628	337.77
691.036	344.79
691.444	363.51
691.852	295.64
692.26	290.96
692.667	305
693.075	290.96
693.483	351.81
693.89	307.34
694.298	286.28
694.705	293.3
695.112	253.51
695.52	349.47
695.927	337.77
696.334	382.24
696.741	372.88
697.148	314.36
697.555	326.07
697.962	295.64
698.369	333.09
698.776	309.68
699.183	321.38
699.59	342.45
699.996	326.07
700.403	269.89
700.81	314.36
701.216	288.62
701.623	340.11
702.029	361.17
702.435	314.36
702.842	312.02
703.248	305
703.654	316.7
704.06	326.07
704.466	335.43
704.872	302.66
705.278	326.07
705.684	305
706.09	323.73
706.496	319.04
706.901	340.11
707.307	319.04
707.712	372.88
708.118	354.15
708.523	319.04
708.929	223.08
709.334	276.91
709.74	319.04
710.145	290.96
710.55	295.64
710.955	262.87
711.36	321.38
711.765	272.23
712.17	337.77
712.575	293.3
712.98	913.54
713.385	349.47
713.789	295.64
714.194	281.6
714.599	321.38
715.003	335.43
715.408	269.89
715.812	260.53
716.217	379.9
716.621	354.15
717.025	314.36
717.429	281.6
717.833	328.41
718.238	312.02
718.642	272.23
719.046	335.43
719.449	375.22
719.853	309.68
720.257	330.75
720.661	370.54
721.065	309.68
721.468	337.77
721.872	323.73
722.275	330.75
722.679	307.34
723.082	379.9
723.485	347.13
723.889	283.94
724.292	297.98
724.695	305
725.098	368.2
725.501	290.96
725.904	274.57
726.307	323.73
726.71	260.53
727.113	372.88
727.516	290.96
727.918	297.98
728.321	330.75
728.724	347.13
729.126	370.54
729.529	333.09
729.931	337.77
730.333	358.83
730.736	281.6
731.138	330.75
731.54	297.98
731.942	309.68
732.344	265.21
732.746	342.45
733.148	312.02
733.55	286.28
733.952	328.41
734.354	288.62
734.756	307.34
735.157	335.43
735.559	307.34
735.96	351.81
736.362	333.09
736.763	272.23
737.165	323.73
737.566	272.23
737.967	293.3
738.368	326.07
738.77	300.32
739.171	288.62
739.572	333.09
739.973	358.83
740.374	286.28
740.774	347.13
741.175	290.96
741.576	321.38
741.977	312.02
742.377	316.7
742.778	276.91
743.178	305
743.579	293.3
743.979	316.7
744.379	290.96
744.78	321.38
745.18	377.56
745.58	344.79
745.98	375.22
746.38	239.47
746.78	330.75
747.18	293.3
747.58	319.04
747.98	295.64
748.38	358.83
748.779	265.21
749.179	283.94
749.578	276.91
749.978	274.57
750.377	269.89
750.777	312.02
751.176	232.44
751.575	269.89
751.975	260.53
752.374	342.45
752.773	321.38
753.172	333.09
753.571	319.04
753.97	295.64
754.369	316.7
754.768	321.38
755.166	279.26
755.565	323.73
755.964	274.57
756.362	323.73
756.761	251.17
757.159	337.77
757.558	349.47
757.956	344.79
758.354	372.88
758.753	309.68
759.151	276.91
759.549	307.34
759.947	323.73
760.345	244.15
760.743	286.28
761.141	293.3
761.539	342.45
761.936	283.94
762.334	333.09
762.732	326.07
763.129	283.94
763.527	274.57
763.924	349.47
764.322	321.38
764.719	319.04
765.117	312.02
765.514	293.3
765.911	283.94
766.308	326.07
766.705	309.68
767.102	269.89
767.499	283.94
767.896	349.47
