Data from Al_FLMS009871__697__15-07-14-437.txt Node

Date: Fri Mar 08 15:07:14 CST 2024
User: pe5414po
Spectrometer: FLMS00987
Trigger mode: 0
Integration Time (sec): 1.000000E-1
Scans to average: 1
Electric dark correction enabled: true
Nonlinearity correction enabled: false
Boxcar width: 0
XAxis mode: Wavelengths
Number of Pixels in Spectrum: 2048
>>>>>Begin Spectral Data<<<<<
188.938	-117.32
189.409	-117.32
189.879	-117.32
190.349	-150.09
190.819	-164.13
191.29	-28.38
191.76	-91.57
192.23	-117.32
192.7	-86.89
193.17	-136.04
193.64	-30.72
194.109	-70.51
194.579	-42.42
195.049	-40.08
195.519	107.37
195.988	30.13
196.458	46.52
196.927	112.05
197.397	114.39
197.866	144.82
198.336	88.65
198.805	128.44
199.274	133.12
199.744	177.59
200.213	191.63
200.682	130.78
201.151	212.7
201.62	243.12
202.089	184.61
202.558	266.53
203.027	273.55
203.495	282.91
203.964	315.68
204.433	268.87
204.902	266.53
205.37	266.53
205.839	285.25
206.307	292.27
206.776	282.91
207.244	280.57
207.712	229.08
208.181	252.49
208.649	205.67
209.117	261.85
209.585	320.36
210.053	308.66
210.521	212.7
210.989	268.87
211.457	254.83
211.925	261.85
212.393	273.55
212.861	212.7
213.328	184.61
213.796	233.76
214.264	315.68
214.731	299.3
215.199	273.55
215.666	231.42
216.133	306.32
216.601	292.27
217.068	282.91
217.535	196.31
218.003	273.55
218.47	268.87
218.937	285.25
219.404	299.3
219.871	278.23
220.338	191.63
220.805	236.1
221.271	299.3
221.738	259.51
222.205	273.55
222.671	196.31
223.138	252.49
223.605	282.91
224.071	193.97
224.538	257.17
225.004	226.74
225.47	250.14
225.937	266.53
226.403	254.83
226.869	229.08
227.335	271.21
227.801	254.83
228.267	275.89
228.733	243.12
229.199	252.49
229.665	240.78
230.131	210.36
230.597	275.89
231.062	231.42
231.528	245.46
231.994	278.23
232.459	200.99
232.925	360.15
233.39	329.72
233.856	266.53
234.321	208.02
234.786	252.49
235.252	247.8
235.717	247.8
236.182	247.8
236.647	294.61
237.112	268.87
237.577	271.21
238.042	294.61
238.507	247.8
238.972	266.53
239.436	353.13
239.901	231.42
240.366	289.93
240.83	261.85
241.295	303.98
241.76	236.1
242.224	278.23
242.688	240.78
243.153	245.46
243.617	280.57
244.081	285.25
244.545	264.19
245.01	306.32
245.474	285.25
245.938	226.74
246.402	289.93
246.866	257.17
247.33	259.51
247.793	243.12
248.257	266.53
248.721	250.14
249.185	243.12
249.648	268.87
250.112	287.59
250.575	224.4
251.039	245.46
251.502	240.78
251.965	250.14
252.429	301.64
252.892	268.87
253.355	294.61
253.818	245.46
254.281	287.59
254.744	341.43
255.207	245.46
255.67	266.53
256.133	257.17
256.596	226.74
257.059	229.08
257.522	280.57
257.984	285.25
258.447	285.25
258.909	332.06
259.372	257.17
259.834	278.23
260.297	285.25
260.759	238.44
261.221	327.38
261.684	238.44
262.146	301.64
262.608	266.53
263.07	360.15
263.532	240.78
263.994	266.53
264.456	294.61
264.918	303.98
265.38	294.61
265.842	306.32
266.303	303.98
266.765	303.98
267.227	313.34
267.688	318.02
268.15	273.55
268.611	294.61
269.072	346.11
269.534	285.25
269.995	278.23
270.456	303.98
270.918	275.89
271.379	236.1
271.84	257.17
272.301	282.91
272.762	355.47
273.223	303.98
273.684	271.21
274.144	285.25
274.605	275.89
275.066	240.78
275.527	219.72
275.987	278.23
276.448	332.06
276.908	285.25
277.369	296.96
277.829	318.02
278.289	292.27
278.75	247.8
279.21	285.25
279.67	282.91
280.13	287.59
280.59	318.02
281.05	247.8
281.51	261.85
281.97	294.61
282.43	282.91
282.89	222.06
283.35	275.89
283.809	240.78
284.269	261.85
284.729	285.25
285.188	245.46
285.648	294.61
286.107	287.59
286.567	278.23
287.026	275.89
287.485	266.53
287.944	224.4
288.404	254.83
288.863	343.77
289.322	252.49
289.781	229.08
290.24	325.04
290.699	299.3
291.158	348.45
291.616	311
292.075	327.38
292.534	311
292.992	320.36
293.451	266.53
293.91	271.21
294.368	245.46
294.827	247.8
295.285	261.85
295.743	243.12
296.202	306.32
296.66	233.76
297.118	322.7
297.576	278.23
298.034	245.46
298.492	320.36
298.95	259.51
299.408	303.98
299.866	264.19
300.324	294.61
300.781	285.25
301.239	301.64
301.697	280.57
302.154	247.8
302.612	257.17
303.069	285.25
303.527	261.85
303.984	278.23
304.441	341.43
304.899	285.25
305.356	275.89
305.813	287.59
306.27	315.68
306.727	303.98
307.184	327.38
307.641	247.8
308.098	287.59
308.555	301.64
309.012	285.25
309.468	264.19
309.925	266.53
310.382	278.23
310.838	266.53
311.295	247.8
311.751	261.85
312.208	294.61
312.664	264.19
313.12	308.66
313.577	289.93
314.033	250.14
314.489	275.89
314.945	299.3
315.401	268.87
315.857	325.04
316.313	278.23
316.769	341.43
317.225	311
317.681	296.96
318.136	315.68
318.592	315.68
319.048	313.34
319.503	299.3
319.959	254.83
320.414	259.51
320.869	367.17
321.325	350.79
321.78	282.91
322.235	303.98
322.691	292.27
323.146	266.53
323.601	271.21
324.056	243.12
324.511	289.93
324.966	294.61
325.421	303.98
325.875	315.68
326.33	320.36
326.785	296.96
327.24	299.3
327.694	266.53
328.149	334.4
328.603	318.02
329.058	240.78
329.512	273.55
329.966	299.3
330.421	315.68
330.875	278.23
331.329	301.64
331.783	252.49
332.237	357.81
332.691	339.09
333.145	311
333.599	205.67
334.053	334.4
334.507	299.3
334.96	299.3
335.414	336.74
335.868	329.72
336.321	292.27
336.775	278.23
337.228	348.45
337.682	301.64
338.135	257.17
338.588	294.61
339.042	268.87
339.495	308.66
339.948	257.17
340.401	303.98
340.854	308.66
341.307	306.32
341.76	311
342.213	346.11
342.666	266.53
343.119	278.23
343.571	334.4
344.024	346.11
344.477	296.96
344.929	266.53
345.382	217.38
345.834	325.04
346.287	306.32
346.739	282.91
347.191	303.98
347.644	275.89
348.096	287.59
348.548	254.83
349	318.02
349.452	318.02
349.904	275.89
350.356	343.77
350.808	369.51
351.26	222.06
351.711	329.72
352.163	303.98
352.615	362.49
353.066	289.93
353.518	339.09
353.969	280.57
354.421	313.34
354.872	306.32
355.324	287.59
355.775	303.98
356.226	240.78
356.677	322.7
357.128	296.96
357.579	306.32
358.03	271.21
358.481	254.83
358.932	252.49
359.383	329.72
359.834	264.19
360.285	236.1
360.735	243.12
361.186	315.68
361.637	299.3
362.087	332.06
362.538	303.98
362.988	278.23
363.438	301.64
363.889	320.36
364.339	308.66
364.789	271.21
365.239	254.83
365.689	275.89
366.139	388.24
366.589	250.14
367.039	353.13
367.489	275.89
367.939	271.21
368.389	374.19
368.839	329.72
369.288	287.59
369.738	285.25
370.187	353.13
370.637	287.59
371.086	318.02
371.536	296.96
371.985	261.85
372.434	268.87
372.884	357.81
373.333	292.27
373.782	311
374.231	320.36
374.68	296.96
375.129	313.34
375.578	299.3
376.027	252.49
376.475	318.02
376.924	371.85
377.373	303.98
377.822	339.09
378.27	329.72
378.719	254.83
379.167	254.83
379.616	252.49
380.064	308.66
380.512	294.61
380.961	336.74
381.409	313.34
381.857	292.27
382.305	339.09
382.753	346.11
383.201	306.32
383.649	327.38
384.097	313.34
384.545	271.21
384.992	329.72
385.44	325.04
385.888	339.09
386.335	308.66
386.783	292.27
387.231	243.12
387.678	325.04
388.125	280.57
388.573	311
389.02	303.98
389.467	343.77
389.914	306.32
390.362	357.81
390.809	266.53
391.256	280.57
391.703	301.64
392.15	259.51
392.596	233.76
393.043	327.38
393.49	325.04
393.937	271.21
394.383	320.36
394.83	296.96
395.276	287.59
395.723	306.32
396.169	259.51
396.616	299.3
397.062	306.32
397.508	329.72
397.954	296.96
398.401	287.59
398.847	325.04
399.293	329.72
399.739	336.74
400.185	339.09
400.631	325.04
401.076	320.36
401.522	332.06
401.968	296.96
402.414	388.24
402.859	287.59
403.305	332.06
403.75	322.7
404.196	371.85
404.641	257.17
405.086	320.36
405.532	327.38
405.977	360.15
406.422	348.45
406.867	285.25
407.312	299.3
407.757	320.36
408.202	341.43
408.647	271.21
409.092	346.11
409.537	292.27
409.982	318.02
410.426	271.21
410.871	287.59
411.316	292.27
411.76	322.7
412.205	273.55
412.649	240.78
413.093	315.68
413.538	322.7
413.982	294.61
414.426	303.98
414.87	311
415.314	301.64
415.758	294.61
416.202	266.53
416.646	308.66
417.09	308.66
417.534	266.53
417.978	285.25
418.421	332.06
418.865	334.4
419.309	254.83
419.752	360.15
420.196	313.34
420.639	336.74
421.083	325.04
421.526	336.74
421.969	308.66
422.412	289.93
422.856	212.7
423.299	339.09
423.742	240.78
424.185	390.58
424.628	264.19
425.071	320.36
425.513	313.34
425.956	329.72
426.399	296.96
426.842	308.66
427.284	341.43
427.727	336.74
428.169	289.93
428.612	315.68
429.054	301.64
429.497	341.43
429.939	278.23
430.381	315.68
430.823	268.87
431.265	327.38
431.707	313.34
432.149	282.91
432.591	329.72
433.033	306.32
433.475	301.64
433.917	313.34
434.359	219.72
434.8	346.11
435.242	362.49
435.684	360.15
436.125	289.93
436.567	271.21
437.008	339.09
437.449	236.1
437.891	313.34
438.332	334.4
438.773	296.96
439.214	318.02
439.656	313.34
440.097	355.47
440.538	278.23
440.978	282.91
441.419	296.96
441.86	261.85
442.301	315.68
442.742	268.87
443.182	275.89
443.623	320.36
444.063	278.23
444.504	296.96
444.944	287.59
445.385	313.34
445.825	313.34
446.265	301.64
446.706	292.27
447.146	362.49
447.586	327.38
448.026	318.02
448.466	299.3
448.906	402.28
449.346	325.04
449.786	320.36
450.225	264.19
450.665	301.64
451.105	273.55
451.544	282.91
451.984	318.02
452.424	285.25
452.863	289.93
453.302	271.21
453.742	313.34
454.181	315.68
454.62	280.57
455.059	268.87
455.499	231.42
455.938	299.3
456.377	282.91
456.816	334.4
457.254	315.68
457.693	296.96
458.132	273.55
458.571	313.34
459.01	339.09
459.448	259.51
459.887	353.13
460.325	327.38
460.764	285.25
461.202	294.61
461.641	325.04
462.079	273.55
462.517	315.68
462.955	294.61
463.393	313.34
463.832	311
464.27	294.61
464.708	296.96
465.145	322.7
465.583	294.61
466.021	299.3
466.459	332.06
466.897	282.91
467.334	327.38
467.772	327.38
468.209	296.96
468.647	308.66
469.084	318.02
469.522	250.14
469.959	250.14
470.396	343.77
470.833	268.87
471.271	311
471.708	339.09
472.145	371.85
472.582	287.59
473.019	357.81
473.456	336.74
473.892	388.24
474.329	334.4
474.766	264.19
475.202	275.89
475.639	292.27
476.076	322.7
476.512	367.17
476.949	313.34
477.385	308.66
477.821	289.93
478.258	285.25
478.694	322.7
479.13	332.06
479.566	292.27
480.002	320.36
480.438	322.7
480.874	289.93
481.31	299.3
481.746	313.34
482.181	327.38
482.617	275.89
483.053	320.36
483.488	268.87
483.924	327.38
484.36	362.49
484.795	313.34
485.23	318.02
485.666	357.81
486.101	320.36
486.536	357.81
486.971	289.93
487.407	268.87
487.842	266.53
488.277	346.11
488.712	308.66
489.146	348.45
489.581	339.09
490.016	303.98
490.451	306.32
490.885	250.14
491.32	341.43
491.755	341.43
492.189	318.02
492.624	320.36
493.058	367.17
493.492	308.66
493.927	336.74
494.361	287.59
494.795	303.98
495.229	280.57
495.663	357.81
496.097	250.14
496.531	343.77
496.965	280.57
497.399	273.55
497.833	266.53
498.266	264.19
498.7	292.27
499.134	278.23
499.567	299.3
500.001	327.38
500.434	280.57
500.868	313.34
501.301	259.51
501.734	339.09
502.168	311
502.601	348.45
503.034	341.43
503.467	362.49
503.9	327.38
504.333	355.47
504.766	285.25
505.199	355.47
505.632	362.49
506.064	273.55
506.497	296.96
506.93	374.19
507.362	268.87
507.795	381.21
508.227	303.98
508.66	287.59
509.092	287.59
509.524	287.59
509.956	329.72
510.389	308.66
510.821	301.64
511.253	306.32
511.685	301.64
512.117	374.19
512.549	339.09
512.981	374.19
513.412	334.4
513.844	346.11
514.276	278.23
514.707	275.89
515.139	301.64
515.571	282.91
516.002	273.55
516.433	311
516.865	336.74
517.296	229.08
517.727	308.66
518.159	303.98
518.59	322.7
519.021	278.23
519.452	299.3
519.883	311
520.314	280.57
520.744	289.93
521.175	296.96
521.606	250.14
522.037	327.38
522.467	287.59
522.898	329.72
523.328	268.87
523.759	329.72
524.189	287.59
524.62	268.87
525.05	261.85
525.48	329.72
525.91	247.8
526.341	343.77
526.771	273.55
527.201	334.4
527.631	308.66
528.061	257.17
528.49	329.72
528.92	299.3
529.35	301.64
529.78	236.1
530.209	322.7
530.639	364.83
531.068	320.36
531.498	322.7
531.927	294.61
532.357	261.85
532.786	282.91
533.215	299.3
533.644	318.02
534.074	294.61
534.503	343.77
534.932	364.83
535.361	268.87
535.79	301.64
536.218	341.43
536.647	296.96
537.076	348.45
537.505	348.45
537.933	346.11
538.362	275.89
538.79	292.27
539.219	294.61
539.647	318.02
540.076	287.59
540.504	294.61
540.932	313.34
541.36	299.3
541.788	334.4
542.217	311
542.645	280.57
543.073	275.89
543.5	311
543.928	339.09
544.356	294.61
544.784	306.32
545.211	243.12
545.639	299.3
546.067	266.53
546.494	294.61
546.922	282.91
547.349	348.45
547.776	301.64
548.204	266.53
548.631	327.38
549.058	383.56
549.485	289.93
549.912	350.79
550.339	289.93
550.766	357.81
551.193	371.85
551.62	311
552.047	266.53
552.474	306.32
552.9	285.25
553.327	287.59
553.754	360.15
554.18	289.93
554.607	325.04
555.033	299.3
555.459	259.51
555.886	299.3
556.312	296.96
556.738	282.91
557.164	245.46
557.59	264.19
558.016	343.77
558.442	343.77
558.868	355.47
559.294	252.49
559.72	341.43
560.145	325.04
560.571	306.32
560.997	268.87
561.422	320.36
561.848	303.98
562.273	245.46
562.699	381.21
563.124	381.21
563.549	327.38
563.974	247.8
564.4	280.57
564.825	348.45
565.25	329.72
565.675	311
566.1	308.66
566.525	306.32
566.95	289.93
567.374	280.57
567.799	346.11
568.224	353.13
568.648	273.55
569.073	306.32
569.497	329.72
569.922	273.55
570.346	306.32
570.771	289.93
571.195	278.23
571.619	318.02
572.043	299.3
572.467	334.4
572.891	306.32
573.315	296.96
573.739	301.64
574.163	325.04
574.587	236.1
575.011	296.96
575.435	325.04
575.858	271.21
576.282	306.32
576.705	313.34
577.129	339.09
577.552	236.1
577.976	287.59
578.399	301.64
578.822	299.3
579.245	294.61
579.669	341.43
580.092	306.32
580.515	308.66
580.938	329.72
581.361	285.25
581.784	275.89
582.206	376.53
582.629	348.45
583.052	327.38
583.474	313.34
583.897	299.3
584.32	336.74
584.742	313.34
585.165	325.04
585.587	313.34
586.009	306.32
586.431	296.96
586.854	280.57
587.276	203.33
587.698	266.53
588.12	353.13
588.542	278.23
588.964	311
589.386	339.09
589.807	252.49
590.229	301.64
590.651	343.77
591.073	346.11
591.494	341.43
591.916	292.27
592.337	327.38
592.759	329.72
593.18	343.77
593.601	294.61
594.022	332.06
594.444	311
594.865	318.02
595.286	343.77
595.707	313.34
596.128	327.38
596.549	313.34
596.97	325.04
597.39	311
597.811	332.06
598.232	254.83
598.652	261.85
599.073	301.64
599.494	257.17
599.914	252.49
600.334	313.34
600.755	329.72
601.175	289.93
601.595	238.44
602.015	282.91
602.436	308.66
602.856	411.64
603.276	208.02
603.696	289.93
604.115	308.66
604.535	325.04
604.955	357.81
605.375	332.06
605.794	287.59
606.214	240.78
606.634	278.23
607.053	378.87
607.473	327.38
607.892	325.04
608.311	329.72
608.731	329.72
609.15	322.7
609.569	367.17
609.988	311
610.407	341.43
610.826	425.68
611.245	285.25
611.664	303.98
612.083	299.3
612.501	313.34
612.92	294.61
613.339	313.34
613.757	327.38
614.176	259.51
614.594	261.85
615.013	350.79
615.431	318.02
615.85	259.51
616.268	268.87
616.686	320.36
617.104	275.89
617.522	301.64
617.94	325.04
618.358	353.13
618.776	257.17
619.194	294.61
619.612	294.61
620.03	329.72
620.447	282.91
620.865	341.43
621.282	271.21
621.7	378.87
622.117	266.53
622.535	336.74
622.952	318.02
623.369	268.87
623.787	271.21
624.204	271.21
624.621	385.9
625.038	357.81
625.455	381.21
625.872	362.49
626.289	371.85
626.706	364.83
627.123	336.74
627.539	353.13
627.956	320.36
628.373	268.87
628.789	325.04
629.206	301.64
629.622	292.27
630.038	285.25
630.455	315.68
630.871	282.91
631.287	266.53
631.703	313.34
632.12	299.3
632.536	222.06
632.952	303.98
633.368	294.61
633.783	336.74
634.199	343.77
634.615	264.19
635.031	289.93
635.446	336.74
635.862	282.91
636.277	245.46
636.693	341.43
637.108	315.68
637.524	273.55
637.939	266.53
638.354	350.79
638.77	318.02
639.185	325.04
639.6	355.47
640.015	332.06
640.43	341.43
640.845	278.23
641.259	315.68
641.674	278.23
642.089	322.7
642.504	271.21
642.918	329.72
643.333	306.32
643.747	348.45
644.162	341.43
644.576	367.17
644.991	294.61
645.405	287.59
645.819	336.74
646.233	318.02
646.647	303.98
647.061	313.34
647.475	343.77
647.889	306.32
648.303	296.96
648.717	355.47
649.131	355.47
649.545	306.32
649.958	301.64
650.372	278.23
650.785	278.23
651.199	306.32
651.612	245.46
652.026	308.66
652.439	231.42
652.852	278.23
653.266	292.27
653.679	280.57
654.092	320.36
654.505	306.32
654.918	306.32
655.331	299.3
655.744	287.59
656.156	289.93
656.569	273.55
656.982	296.96
657.394	287.59
657.807	367.17
658.22	282.91
658.632	313.34
659.044	371.85
659.457	264.19
659.869	313.34
660.281	299.3
660.693	299.3
661.106	311
661.518	341.43
661.93	280.57
662.342	287.59
662.754	311
663.165	261.85
663.577	318.02
663.989	292.27
664.401	268.87
664.812	313.34
665.224	311
665.635	287.59
666.047	219.72
666.458	301.64
666.869	275.89
667.281	289.93
667.692	250.14
668.103	271.21
668.514	294.61
668.925	322.7
669.336	282.91
669.747	306.32
670.158	339.09
670.569	289.93
670.979	303.98
671.39	299.3
671.801	348.45
672.211	266.53
672.622	357.81
673.032	285.25
673.443	357.81
673.853	308.66
674.263	332.06
674.674	303.98
675.084	341.43
675.494	378.87
675.904	353.13
676.314	308.66
676.724	336.74
677.134	289.93
677.544	252.49
677.953	353.13
678.363	268.87
678.773	325.04
679.182	395.26
679.592	306.32
680.001	315.68
680.411	278.23
680.82	325.04
681.23	285.25
681.639	325.04
682.048	264.19
682.457	320.36
682.866	343.77
683.275	275.89
683.684	273.55
684.093	280.57
684.502	294.61
684.911	296.96
685.32	346.11
685.728	299.3
686.137	273.55
686.546	350.79
686.954	301.64
687.363	282.91
687.771	301.64
688.179	252.49
688.588	294.61
688.996	332.06
689.404	271.21
689.812	303.98
690.22	334.4
690.628	229.08
691.036	289.93
691.444	292.27
691.852	294.61
692.26	329.72
692.667	303.98
693.075	376.53
693.483	294.61
693.89	271.21
694.298	350.79
694.705	271.21
695.112	271.21
695.52	271.21
695.927	278.23
696.334	285.25
696.741	292.27
697.148	353.13
697.555	320.36
697.962	301.64
698.369	285.25
698.776	275.89
699.183	259.51
699.59	289.93
699.996	261.85
700.403	327.38
700.81	332.06
701.216	287.59
701.623	301.64
702.029	339.09
702.435	217.38
702.842	327.38
703.248	311
703.654	252.49
704.06	360.15
704.466	289.93
704.872	292.27
705.278	308.66
705.684	390.58
706.09	285.25
706.496	301.64
706.901	322.7
707.307	296.96
707.712	282.91
708.118	233.76
708.523	308.66
708.929	261.85
709.334	301.64
709.74	280.57
710.145	292.27
710.55	334.4
710.955	311
711.36	327.38
711.765	315.68
712.17	313.34
712.575	296.96
712.98	945.28
713.385	334.4
713.789	306.32
714.194	299.3
714.599	311
715.003	329.72
715.408	296.96
715.812	296.96
716.217	306.32
716.621	303.98
717.025	346.11
717.429	301.64
717.833	278.23
718.238	334.4
718.642	275.89
719.046	240.78
719.449	289.93
719.853	325.04
720.257	325.04
720.661	332.06
721.065	245.46
721.468	301.64
721.872	264.19
722.275	306.32
722.679	322.7
723.082	303.98
723.485	243.12
723.889	271.21
724.292	292.27
724.695	280.57
725.098	289.93
725.501	315.68
725.904	301.64
726.307	271.21
726.71	296.96
727.113	339.09
727.516	301.64
727.918	322.7
728.321	311
728.724	315.68
729.126	303.98
729.529	289.93
729.931	289.93
730.333	280.57
730.736	376.53
731.138	318.02
731.54	282.91
731.942	329.72
732.344	329.72
732.746	336.74
733.148	367.17
733.55	247.8
733.952	294.61
734.354	271.21
734.756	315.68
735.157	257.17
735.559	322.7
735.96	294.61
736.362	325.04
736.763	240.78
737.165	257.17
737.566	299.3
737.967	285.25
738.368	315.68
738.77	329.72
739.171	261.85
739.572	250.14
739.973	247.8
740.374	278.23
740.774	294.61
741.175	231.42
741.576	287.59
741.977	247.8
742.377	320.36
742.778	355.47
743.178	222.06
743.579	334.4
743.979	313.34
744.379	327.38
744.78	334.4
745.18	334.4
745.58	306.32
745.98	350.79
746.38	301.64
746.78	334.4
747.18	306.32
747.58	287.59
747.98	318.02
748.38	303.98
748.779	292.27
749.179	311
749.578	343.77
749.978	296.96
750.377	266.53
750.777	294.61
751.176	336.74
751.575	357.81
751.975	268.87
752.374	336.74
752.773	280.57
753.172	301.64
753.571	322.7
753.97	278.23
754.369	339.09
754.768	325.04
755.166	308.66
755.565	294.61
755.964	334.4
756.362	346.11
756.761	301.64
757.159	250.14
757.558	289.93
757.956	250.14
758.354	306.32
758.753	346.11
759.151	329.72
759.549	268.87
759.947	311
760.345	311
760.743	325.04
761.141	322.7
761.539	212.7
761.936	299.3
762.334	327.38
762.732	320.36
763.129	303.98
763.527	306.32
763.924	282.91
764.322	339.09
764.719	285.25
765.117	313.34
765.514	264.19
765.911	275.89
766.308	275.89
766.705	318.02
