Data from Al_FLMS009871__681__15-07-12-837.txt Node

Date: Fri Mar 08 15:07:12 CST 2024
User: pe5414po
Spectrometer: FLMS00987
Trigger mode: 0
Integration Time (sec): 1.000000E-1
Scans to average: 1
Electric dark correction enabled: true
Nonlinearity correction enabled: false
Boxcar width: 0
XAxis mode: Wavelengths
Number of Pixels in Spectrum: 2048
>>>>>Begin Spectral Data<<<<<
188.938	-40.96
189.409	-40.96
189.879	-40.96
190.349	-127.56
190.819	-73.73
191.29	-73.73
191.76	-99.47
192.23	-36.28
192.7	-113.52
193.17	-85.43
193.64	-57.34
194.109	-43.3
194.579	-29.26
195.049	-3.51
195.519	-17.55
195.988	43.3
196.458	87.77
196.927	80.75
197.397	19.89
197.866	115.86
198.336	211.82
198.805	214.16
199.274	197.78
199.744	162.67
200.213	181.39
200.682	230.54
201.151	207.14
201.62	251.61
202.089	265.65
202.558	303.1
203.027	258.63
203.495	279.69
203.964	277.35
204.433	214.16
204.902	218.84
205.37	347.57
205.839	338.21
206.307	328.85
206.776	324.16
207.244	307.78
207.712	335.87
208.181	312.46
208.649	312.46
209.117	333.53
209.585	272.67
210.053	342.89
210.521	270.33
210.989	326.5
211.457	310.12
211.925	307.78
212.393	258.63
212.861	282.03
213.328	207.14
213.796	326.5
214.264	324.16
214.731	319.48
215.199	279.69
215.666	223.52
216.133	305.44
216.601	282.03
217.068	242.25
217.535	286.72
218.003	305.44
218.47	249.27
218.937	251.61
219.404	244.59
219.871	291.4
220.338	211.82
220.805	291.4
221.271	314.8
221.738	242.25
222.205	246.93
222.671	253.95
223.138	293.74
223.605	239.9
224.071	282.03
224.538	289.06
225.004	218.84
225.47	275.01
225.937	244.59
226.403	251.61
226.869	277.35
227.335	284.38
227.801	293.74
228.267	289.06
228.733	300.76
229.199	188.41
229.665	242.25
230.131	260.97
230.597	225.86
231.062	284.38
231.528	317.14
231.994	263.31
232.459	253.95
232.925	167.35
233.39	289.06
233.856	258.63
234.321	246.93
234.786	307.78
235.252	239.9
235.717	291.4
236.182	277.35
236.647	260.97
237.112	277.35
237.577	300.76
238.042	260.97
238.507	319.48
238.972	291.4
239.436	244.59
239.901	312.46
240.366	258.63
240.83	303.1
241.295	317.14
241.76	265.65
242.224	228.2
242.688	272.67
243.153	256.29
243.617	249.27
244.081	270.33
244.545	317.14
245.01	293.74
245.474	312.46
245.938	235.22
246.402	263.31
246.866	328.85
247.33	232.88
247.793	354.59
248.257	368.63
248.721	298.42
249.185	275.01
249.648	249.27
250.112	319.48
250.575	298.42
251.039	356.93
251.502	317.14
251.965	296.08
252.429	284.38
252.892	239.9
253.355	340.55
253.818	314.8
254.281	286.72
254.744	270.33
255.207	342.89
255.67	317.14
256.133	305.44
256.596	282.03
257.059	282.03
257.522	296.08
257.984	305.44
258.447	244.59
258.909	228.2
259.372	279.69
259.834	333.53
260.297	296.08
260.759	279.69
261.221	204.8
261.684	267.99
262.146	310.12
262.608	328.85
263.07	328.85
263.532	314.8
263.994	286.72
264.456	312.46
264.918	279.69
265.38	265.65
265.842	282.03
266.303	272.67
266.765	279.69
267.227	333.53
267.688	340.55
268.15	260.97
268.611	228.2
269.072	286.72
269.534	310.12
269.995	260.97
270.456	277.35
270.918	312.46
271.379	300.76
271.84	359.27
272.301	324.16
272.762	230.54
273.223	307.78
273.684	345.23
274.144	307.78
274.605	310.12
275.066	291.4
275.527	305.44
275.987	253.95
276.448	296.08
276.908	260.97
277.369	242.25
277.829	300.76
278.289	284.38
278.75	258.63
279.21	370.97
279.67	277.35
280.13	382.68
280.59	246.93
281.05	356.93
281.51	333.53
281.97	305.44
282.43	352.25
282.89	251.61
283.35	298.42
283.809	300.76
284.269	300.76
284.729	239.9
285.188	389.7
285.648	282.03
286.107	303.1
286.567	242.25
287.026	338.21
287.485	333.53
287.944	270.33
288.404	345.23
288.863	282.03
289.322	354.59
289.781	333.53
290.24	319.48
290.699	286.72
291.158	326.5
291.616	253.95
292.075	314.8
292.534	270.33
292.992	300.76
293.451	244.59
293.91	289.06
294.368	324.16
294.827	282.03
295.285	298.42
295.743	312.46
296.202	267.99
296.66	356.93
297.118	321.82
297.576	305.44
298.034	303.1
298.492	314.8
298.95	335.87
299.408	275.01
299.866	300.76
300.324	246.93
300.781	347.57
301.239	310.12
301.697	237.56
302.154	303.1
302.612	293.74
303.069	378
303.527	279.69
303.984	293.74
304.441	307.78
304.899	275.01
305.356	293.74
305.813	314.8
306.27	307.78
306.727	352.25
307.184	359.27
307.641	312.46
308.098	338.21
308.555	305.44
309.012	319.48
309.468	293.74
309.925	326.5
310.382	298.42
310.838	282.03
311.295	321.82
311.751	303.1
312.208	319.48
312.664	263.31
313.12	321.82
313.577	307.78
314.033	275.01
314.489	279.69
314.945	298.42
315.401	349.91
315.857	272.67
316.313	326.5
316.769	417.79
317.225	286.72
317.681	298.42
318.136	307.78
318.592	333.53
319.048	328.85
319.503	282.03
319.959	291.4
320.414	352.25
320.869	300.76
321.325	298.42
321.78	326.5
322.235	303.1
322.691	310.12
323.146	321.82
323.601	314.8
324.056	244.59
324.511	298.42
324.966	331.19
325.421	312.46
325.875	296.08
326.33	275.01
326.785	333.53
327.24	317.14
327.694	368.63
328.149	300.76
328.603	265.65
329.058	333.53
329.512	342.89
329.966	279.69
330.421	260.97
330.875	256.29
331.329	286.72
331.783	347.57
332.237	216.5
332.691	296.08
333.145	307.78
333.599	305.44
334.053	359.27
334.507	335.87
334.96	314.8
335.414	291.4
335.868	347.57
336.321	312.46
336.775	324.16
337.228	291.4
337.682	312.46
338.135	298.42
338.588	298.42
339.042	342.89
339.495	326.5
339.948	326.5
340.401	338.21
340.854	267.99
341.307	291.4
341.76	305.44
342.213	300.76
342.666	275.01
343.119	286.72
343.571	326.5
344.024	314.8
344.477	340.55
344.929	293.74
345.382	375.66
345.834	267.99
346.287	249.27
346.739	363.95
347.191	237.56
347.644	331.19
348.096	300.76
348.548	305.44
349	361.61
349.452	312.46
349.904	340.55
350.356	270.33
350.808	328.85
351.26	296.08
351.711	363.95
352.163	279.69
352.615	272.67
353.066	359.27
353.518	324.16
353.969	296.08
354.421	333.53
354.872	289.06
355.324	279.69
355.775	286.72
356.226	314.8
356.677	417.79
357.128	380.34
357.579	314.8
358.03	352.25
358.481	324.16
358.932	361.61
359.383	328.85
359.834	314.8
360.285	375.66
360.735	300.76
361.186	305.44
361.637	256.29
362.087	286.72
362.538	298.42
362.988	382.68
363.438	291.4
363.889	354.59
364.339	314.8
364.789	366.29
365.239	291.4
365.689	359.27
366.139	328.85
366.589	310.12
367.039	293.74
367.489	293.74
367.939	340.55
368.389	331.19
368.839	331.19
369.288	345.23
369.738	303.1
370.187	298.42
370.637	321.82
371.086	349.91
371.536	356.93
371.985	326.5
372.434	244.59
372.884	270.33
373.333	335.87
373.782	321.82
374.231	347.57
374.68	265.65
375.129	277.35
375.578	314.8
376.027	312.46
376.475	378
376.924	312.46
377.373	328.85
377.822	291.4
378.27	331.19
378.719	293.74
379.167	270.33
379.616	340.55
380.064	223.52
380.512	289.06
380.961	303.1
381.409	352.25
381.857	401.4
382.305	319.48
382.753	296.08
383.201	275.01
383.649	347.57
384.097	333.53
384.545	298.42
384.992	267.99
385.44	326.5
385.888	331.19
386.335	324.16
386.783	333.53
387.231	319.48
387.678	272.67
388.125	368.63
388.573	282.03
389.02	324.16
389.467	331.19
389.914	279.69
390.362	349.91
390.809	246.93
391.256	282.03
391.703	293.74
392.15	263.31
392.596	284.38
393.043	232.88
393.49	387.36
393.937	321.82
394.383	289.06
394.83	326.5
395.276	300.76
395.723	373.32
396.169	359.27
396.616	319.48
397.062	338.21
397.508	345.23
397.954	296.08
398.401	321.82
398.847	335.87
399.293	303.1
399.739	314.8
400.185	342.89
400.631	293.74
401.076	352.25
401.522	331.19
401.968	310.12
402.414	291.4
402.859	270.33
403.305	282.03
403.75	331.19
404.196	303.1
404.641	270.33
405.086	282.03
405.532	368.63
405.977	317.14
406.422	349.91
406.867	342.89
407.312	307.78
407.757	307.78
408.202	272.67
408.647	321.82
409.092	267.99
409.537	277.35
409.982	328.85
410.426	312.46
410.871	340.55
411.316	324.16
411.76	366.29
412.205	401.4
412.649	326.5
413.093	359.27
413.538	328.85
413.982	326.5
414.426	286.72
414.87	356.93
415.314	349.91
415.758	256.29
416.202	347.57
416.646	267.99
417.09	331.19
417.534	326.5
417.978	289.06
418.421	307.78
418.865	356.93
419.309	373.32
419.752	319.48
420.196	324.16
420.639	314.8
421.083	307.78
421.526	319.48
421.969	345.23
422.412	328.85
422.856	291.4
423.299	314.8
423.742	349.91
424.185	333.53
424.628	312.46
425.071	345.23
425.513	314.8
425.956	312.46
426.399	286.72
426.842	284.38
427.284	324.16
427.727	366.29
428.169	317.14
428.612	296.08
429.054	331.19
429.497	314.8
429.939	363.95
430.381	263.31
430.823	267.99
431.265	270.33
431.707	310.12
432.149	277.35
432.591	275.01
433.033	291.4
433.475	291.4
433.917	345.23
434.359	286.72
434.8	326.5
435.242	331.19
435.684	312.46
436.125	319.48
436.567	333.53
437.008	333.53
437.449	373.32
437.891	270.33
438.332	303.1
438.773	356.93
439.214	347.57
439.656	328.85
440.097	310.12
440.538	340.55
440.978	284.38
441.419	293.74
441.86	331.19
442.301	307.78
442.742	321.82
443.182	260.97
443.623	289.06
444.063	335.87
444.504	352.25
444.944	363.95
445.385	296.08
445.825	352.25
446.265	361.61
446.706	361.61
447.146	380.34
447.586	319.48
448.026	296.08
448.466	333.53
448.906	352.25
449.346	272.67
449.786	340.55
450.225	272.67
450.665	385.02
451.105	282.03
451.544	349.91
451.984	317.14
452.424	368.63
452.863	270.33
453.302	303.1
453.742	270.33
454.181	338.21
454.62	293.74
455.059	338.21
455.499	387.36
455.938	338.21
456.377	303.1
456.816	275.01
457.254	298.42
457.693	312.46
458.132	284.38
458.571	307.78
459.01	326.5
459.448	352.25
459.887	260.97
460.325	368.63
460.764	300.76
461.202	338.21
461.641	352.25
462.079	300.76
462.517	373.32
462.955	326.5
463.393	335.87
463.832	389.7
464.27	359.27
464.708	286.72
465.145	347.57
465.583	347.57
466.021	300.76
466.459	349.91
466.897	342.89
467.334	340.55
467.772	349.91
468.209	246.93
468.647	354.59
469.084	305.44
469.522	293.74
469.959	326.5
470.396	335.87
470.833	333.53
471.271	286.72
471.708	265.65
472.145	352.25
472.582	300.76
473.019	296.08
473.456	328.85
473.892	317.14
474.329	319.48
474.766	307.78
475.202	356.93
475.639	335.87
476.076	338.21
476.512	326.5
476.949	338.21
477.385	340.55
477.821	277.35
478.258	260.97
478.694	361.61
479.13	340.55
479.566	349.91
480.002	356.93
480.438	342.89
480.874	375.66
481.31	298.42
481.746	321.82
482.181	354.59
482.617	296.08
483.053	260.97
483.488	370.97
483.924	289.06
484.36	361.61
484.795	324.16
485.23	314.8
485.666	361.61
486.101	305.44
486.536	324.16
486.971	291.4
487.407	310.12
487.842	361.61
488.277	361.61
488.712	342.89
489.146	317.14
489.581	326.5
490.016	296.08
490.451	319.48
490.885	277.35
491.32	333.53
491.755	342.89
492.189	272.67
492.624	345.23
493.058	310.12
493.492	310.12
493.927	319.48
494.361	293.74
494.795	319.48
495.229	321.82
495.663	303.1
496.097	359.27
496.531	317.14
496.965	326.5
497.399	359.27
497.833	317.14
498.266	354.59
498.7	328.85
499.134	300.76
499.567	331.19
500.001	361.61
500.434	291.4
500.868	331.19
501.301	345.23
501.734	345.23
502.168	282.03
502.601	373.32
503.034	303.1
503.467	286.72
503.9	366.29
504.333	303.1
504.766	319.48
505.199	331.19
505.632	347.57
506.064	317.14
506.497	345.23
506.93	312.46
507.362	293.74
507.795	303.1
508.227	310.12
508.66	361.61
509.092	317.14
509.524	317.14
509.956	321.82
510.389	275.01
510.821	338.21
511.253	286.72
511.685	338.21
512.117	321.82
512.549	326.5
512.981	373.32
513.412	342.89
513.844	312.46
514.276	335.87
514.707	366.29
515.139	328.85
515.571	361.61
516.002	326.5
516.433	356.93
516.865	326.5
517.296	317.14
517.727	413.1
518.159	286.72
518.59	326.5
519.021	324.16
519.452	324.16
519.883	401.4
520.314	286.72
520.744	342.89
521.175	282.03
521.606	300.76
522.037	347.57
522.467	324.16
522.898	361.61
523.328	317.14
523.759	331.19
524.189	363.95
524.62	347.57
525.05	347.57
525.48	314.8
525.91	303.1
526.341	328.85
526.771	368.63
527.201	312.46
527.631	328.85
528.061	359.27
528.49	317.14
528.92	349.91
529.35	303.1
529.78	368.63
530.209	331.19
530.639	342.89
531.068	326.5
531.498	307.78
531.927	298.42
532.357	279.69
532.786	314.8
533.215	342.89
533.644	310.12
534.074	342.89
534.503	300.76
534.932	328.85
535.361	328.85
535.79	293.74
536.218	314.8
536.647	368.63
537.076	265.65
537.505	396.72
537.933	317.14
538.362	338.21
538.79	293.74
539.219	317.14
539.647	256.29
540.076	286.72
540.504	326.5
540.932	289.06
541.36	272.67
541.788	312.46
542.217	291.4
542.645	291.4
543.073	333.53
543.5	349.91
543.928	373.32
544.356	303.1
544.784	335.87
545.211	272.67
545.639	345.23
546.067	300.76
546.494	321.82
546.922	342.89
547.349	279.69
547.776	319.48
548.204	312.46
548.631	303.1
549.058	291.4
549.485	267.99
549.912	284.38
550.339	251.61
550.766	354.59
551.193	326.5
551.62	324.16
552.047	349.91
552.474	380.34
552.9	328.85
553.327	305.44
553.754	324.16
554.18	373.32
554.607	258.63
555.033	373.32
555.459	296.08
555.886	347.57
556.312	338.21
556.738	305.44
557.164	338.21
557.59	305.44
558.016	345.23
558.442	396.72
558.868	352.25
559.294	368.63
559.72	399.06
560.145	282.03
560.571	270.33
560.997	282.03
561.422	317.14
561.848	300.76
562.273	326.5
562.699	267.99
563.124	321.82
563.549	333.53
563.974	321.82
564.4	319.48
564.825	375.66
565.25	289.06
565.675	361.61
566.1	349.91
566.525	293.74
566.95	335.87
567.374	272.67
567.799	328.85
568.224	349.91
568.648	382.68
569.073	389.7
569.497	298.42
569.922	326.5
570.346	373.32
570.771	314.8
571.195	277.35
571.619	286.72
572.043	291.4
572.467	356.93
572.891	244.59
573.315	333.53
573.739	291.4
574.163	335.87
574.587	307.78
575.011	270.33
575.435	338.21
575.858	373.32
576.282	253.95
576.705	366.29
577.129	413.1
577.552	354.59
577.976	296.08
578.399	317.14
578.822	289.06
579.245	275.01
579.669	310.12
580.092	347.57
580.515	375.66
580.938	319.48
581.361	363.95
581.784	298.42
582.206	298.42
582.629	260.97
583.052	349.91
583.474	305.44
583.897	310.12
584.32	333.53
584.742	296.08
585.165	293.74
585.587	324.16
586.009	321.82
586.431	352.25
586.854	286.72
587.276	326.5
587.698	361.61
588.12	331.19
588.542	342.89
588.964	370.97
589.386	361.61
589.807	319.48
590.229	368.63
590.651	333.53
591.073	258.63
591.494	361.61
591.916	293.74
592.337	363.95
592.759	300.76
593.18	286.72
593.601	305.44
594.022	331.19
594.444	263.31
594.865	293.74
595.286	314.8
595.707	324.16
596.128	368.63
596.549	317.14
596.97	340.55
597.39	314.8
597.811	300.76
598.232	349.91
598.652	361.61
599.073	382.68
599.494	324.16
599.914	312.46
600.334	307.78
600.755	286.72
601.175	305.44
601.595	319.48
602.015	335.87
602.436	342.89
602.856	413.1
603.276	347.57
603.696	298.42
604.115	305.44
604.535	333.53
604.955	317.14
605.375	349.91
605.794	310.12
606.214	361.61
606.634	267.99
607.053	324.16
607.473	359.27
607.892	321.82
608.311	277.35
608.731	352.25
609.15	361.61
609.569	331.19
609.988	368.63
610.407	389.7
610.826	333.53
611.245	347.57
611.664	340.55
612.083	321.82
612.501	286.72
612.92	263.31
613.339	270.33
613.757	307.78
614.176	265.65
614.594	324.16
615.013	363.95
615.431	235.22
615.85	286.72
616.268	317.14
616.686	267.99
617.104	324.16
617.522	321.82
617.94	286.72
618.358	305.44
618.776	286.72
619.194	352.25
619.612	321.82
620.03	342.89
620.447	356.93
620.865	333.53
621.282	342.89
621.7	298.42
622.117	338.21
622.535	242.25
622.952	319.48
623.369	310.12
623.787	394.38
624.204	340.55
624.621	282.03
625.038	368.63
625.455	368.63
625.872	363.95
626.289	368.63
626.706	251.61
627.123	312.46
627.539	303.1
627.956	352.25
628.373	265.65
628.789	314.8
629.206	331.19
629.622	298.42
630.038	352.25
630.455	293.74
630.871	352.25
631.287	401.4
631.703	375.66
632.12	342.89
632.536	284.38
632.952	305.44
633.368	366.29
633.783	359.27
634.199	310.12
634.615	387.36
635.031	342.89
635.446	331.19
635.862	345.23
636.277	270.33
636.693	293.74
637.108	263.31
637.524	415.45
637.939	342.89
638.354	258.63
638.77	326.5
639.185	359.27
639.6	331.19
640.015	328.85
640.43	347.57
640.845	319.48
641.259	265.65
641.674	298.42
642.089	345.23
642.504	307.78
642.918	246.93
643.333	279.69
643.747	356.93
644.162	267.99
644.576	310.12
644.991	279.69
645.405	328.85
645.819	265.65
646.233	314.8
646.647	373.32
647.061	305.44
647.475	392.04
647.889	307.78
648.303	370.97
648.717	361.61
649.131	286.72
649.545	300.76
649.958	291.4
650.372	300.76
650.785	333.53
651.199	361.61
651.612	317.14
652.026	298.42
652.439	303.1
652.852	305.44
653.266	305.44
653.679	399.06
654.092	352.25
654.505	307.78
654.918	310.12
655.331	338.21
655.744	314.8
656.156	267.99
656.569	300.76
656.982	293.74
657.394	331.19
657.807	300.76
658.22	385.02
658.632	382.68
659.044	363.95
659.457	317.14
659.869	298.42
660.281	363.95
660.693	314.8
661.106	319.48
661.518	333.53
661.93	338.21
662.342	319.48
662.754	305.44
663.165	312.46
663.577	319.48
663.989	307.78
664.401	298.42
664.812	328.85
665.224	326.5
665.635	312.46
666.047	324.16
666.458	277.35
666.869	312.46
667.281	328.85
667.692	307.78
668.103	314.8
668.514	258.63
668.925	265.65
669.336	368.63
669.747	347.57
670.158	249.27
670.569	338.21
670.979	354.59
671.39	396.72
671.801	293.74
672.211	263.31
672.622	331.19
673.032	366.29
673.443	260.97
673.853	359.27
674.263	331.19
674.674	326.5
675.084	307.78
675.494	347.57
675.904	331.19
676.314	363.95
676.724	338.21
677.134	267.99
677.544	335.87
677.953	335.87
678.363	333.53
678.773	382.68
679.182	333.53
679.592	338.21
680.001	305.44
680.411	342.89
680.82	347.57
681.23	305.44
681.639	387.36
682.048	347.57
682.457	314.8
682.866	312.46
683.275	375.66
683.684	293.74
684.093	289.06
684.502	347.57
684.911	354.59
685.32	293.74
685.728	321.82
686.137	296.08
686.546	284.38
686.954	352.25
687.363	340.55
687.771	331.19
688.179	291.4
688.588	270.33
688.996	319.48
689.404	340.55
689.812	321.82
690.22	387.36
690.628	380.34
691.036	321.82
691.444	331.19
691.852	349.91
692.26	368.63
692.667	324.16
693.075	307.78
693.483	321.82
693.89	298.42
694.298	326.5
694.705	338.21
695.112	375.66
695.52	312.46
695.927	333.53
696.334	305.44
696.741	368.63
697.148	401.4
697.555	317.14
697.962	300.76
698.369	310.12
698.776	307.78
699.183	282.03
699.59	333.53
699.996	284.38
700.403	284.38
700.81	267.99
701.216	312.46
701.623	333.53
702.029	317.14
702.435	359.27
702.842	310.12
703.248	331.19
703.654	310.12
704.06	249.27
704.466	317.14
704.872	260.97
705.278	345.23
705.684	303.1
706.09	291.4
706.496	328.85
706.901	319.48
707.307	352.25
707.712	331.19
708.118	359.27
708.523	382.68
708.929	382.68
709.334	291.4
709.74	331.19
710.145	284.38
710.55	361.61
710.955	272.67
711.36	340.55
711.765	307.78
712.17	335.87
712.575	338.21
712.98	953.77
713.385	317.14
713.789	305.44
714.194	310.12
714.599	335.87
715.003	314.8
715.408	296.08
715.812	319.48
716.217	298.42
716.621	356.93
717.025	253.95
717.429	319.48
717.833	335.87
718.238	356.93
718.642	279.69
719.046	289.06
719.449	354.59
719.853	300.76
720.257	275.01
720.661	272.67
721.065	370.97
721.468	282.03
721.872	284.38
722.275	312.46
722.679	298.42
723.082	342.89
723.485	321.82
723.889	331.19
724.292	307.78
724.695	361.61
725.098	356.93
725.501	279.69
725.904	275.01
726.307	277.35
726.71	333.53
727.113	387.36
727.516	286.72
727.918	293.74
728.321	333.53
728.724	324.16
729.126	298.42
729.529	286.72
729.931	251.61
730.333	347.57
730.736	263.31
731.138	342.89
731.54	324.16
731.942	361.61
732.344	340.55
732.746	298.42
733.148	291.4
733.55	286.72
733.952	291.4
734.354	303.1
734.756	296.08
735.157	289.06
735.559	319.48
735.96	321.82
736.362	349.91
736.763	342.89
737.165	361.61
737.566	378
737.967	270.33
738.368	312.46
738.77	291.4
739.171	324.16
739.572	307.78
739.973	328.85
740.374	335.87
740.774	289.06
741.175	333.53
741.576	319.48
741.977	307.78
742.377	305.44
742.778	361.61
743.178	300.76
743.579	340.55
743.979	361.61
744.379	272.67
744.78	333.53
745.18	335.87
745.58	307.78
745.98	324.16
746.38	293.74
746.78	338.21
747.18	361.61
747.58	347.57
747.98	310.12
748.38	279.69
748.779	359.27
749.179	310.12
749.578	349.91
749.978	326.5
750.377	324.16
750.777	359.27
751.176	331.19
751.575	363.95
751.975	277.35
752.374	352.25
752.773	293.74
753.172	256.29
753.571	352.25
753.97	385.02
754.369	389.7
754.768	406.08
755.166	232.88
755.565	305.44
755.964	303.1
756.362	347.57
756.761	321.82
757.159	375.66
757.558	338.21
757.956	284.38
758.354	373.32
758.753	307.78
759.151	373.32
759.549	303.1
759.947	326.5
760.345	244.59
760.743	324.16
761.141	314.8
761.539	345.23
761.936	342.89
762.334	340.55
762.732	338.21
763.129	296.08
763.527	314.8
763.924	342.89
764.322	321.82
764.719	303.1
765.117	305.44
765.514	324.16
765.911	291.4
