Data from Al_FLMS009871__688__15-07-13-537.txt Node

Date: Fri Mar 08 15:07:13 CST 2024
User: pe5414po
Spectrometer: FLMS00987
Trigger mode: 0
Integration Time (sec): 1.000000E-1
Scans to average: 1
Electric dark correction enabled: true
Nonlinearity correction enabled: false
Boxcar width: 0
XAxis mode: Wavelengths
Number of Pixels in Spectrum: 2048
>>>>>Begin Spectral Data<<<<<
188.938	-31.45
189.409	-31.45
189.879	-31.45
190.349	-59.54
190.819	-5.71
191.29	-118.05
191.76	-164.86
192.23	-82.94
192.7	-52.52
193.17	-45.49
193.64	-73.58
194.109	-22.09
194.579	-64.22
195.049	90.26
195.519	-3.36
195.988	62.17
196.458	45.79
196.927	108.98
197.397	111.32
197.866	69.19
198.336	139.41
198.805	214.31
199.274	176.86
199.744	116
200.213	179.2
200.682	195.58
201.151	228.35
201.62	195.58
202.089	319.63
202.558	258.78
203.027	195.58
203.495	314.95
203.964	233.03
204.433	291.54
204.902	251.75
205.37	340.69
205.839	298.56
206.307	284.52
206.776	333.67
207.244	307.93
207.712	333.67
208.181	256.43
208.649	333.67
209.117	289.2
209.585	321.97
210.053	284.52
210.521	357.08
210.989	364.1
211.457	289.2
211.925	226.01
212.393	310.27
212.861	328.99
213.328	298.56
213.796	303.25
214.264	277.5
214.731	310.27
215.199	314.95
215.666	293.88
216.133	282.18
216.601	303.25
217.068	272.82
217.535	298.56
218.003	282.18
218.47	244.73
218.937	305.59
219.404	314.95
219.871	233.03
220.338	254.09
220.805	272.82
221.271	265.8
221.738	237.71
222.205	298.56
222.671	263.46
223.138	272.82
223.605	291.54
224.071	361.76
224.538	190.9
225.004	216.65
225.47	272.82
225.937	282.18
226.403	279.84
226.869	216.65
227.335	249.41
227.801	291.54
228.267	268.14
228.733	261.12
229.199	296.22
229.665	321.97
230.131	263.46
230.597	312.61
231.062	284.52
231.528	275.16
231.994	240.05
232.459	328.99
232.925	183.88
233.39	268.14
233.856	328.99
234.321	303.25
234.786	277.5
235.252	336.01
235.717	293.88
236.182	258.78
236.647	263.46
237.112	298.56
237.577	340.69
238.042	272.82
238.507	284.52
238.972	286.86
239.436	312.61
239.901	291.54
240.366	291.54
240.83	272.82
241.295	261.12
241.76	277.5
242.224	366.44
242.688	277.5
243.153	272.82
243.617	223.67
244.081	289.2
244.545	282.18
245.01	251.75
245.474	244.73
245.938	251.75
246.402	298.56
246.866	310.27
247.33	303.25
247.793	319.63
248.257	364.1
248.721	265.8
249.185	282.18
249.648	277.5
250.112	343.03
250.575	303.25
251.039	296.22
251.502	328.99
251.965	293.88
252.429	364.1
252.892	305.59
253.355	312.61
253.818	235.37
254.281	277.5
254.744	336.01
255.207	373.46
255.67	282.18
256.133	300.91
256.596	289.2
257.059	233.03
257.522	275.16
257.984	244.73
258.447	328.99
258.909	336.01
259.372	251.75
259.834	296.22
260.297	282.18
260.759	296.22
261.221	261.12
261.684	331.33
262.146	251.75
262.608	324.31
263.07	293.88
263.532	326.65
263.994	357.08
264.456	336.01
264.918	321.97
265.38	216.65
265.842	331.33
266.303	328.99
266.765	373.46
267.227	300.91
267.688	305.59
268.15	375.8
268.611	300.91
269.072	247.07
269.534	300.91
269.995	284.52
270.456	328.99
270.918	305.59
271.379	361.76
271.84	324.31
272.301	314.95
272.762	380.48
273.223	251.75
273.684	279.84
274.144	321.97
274.605	303.25
275.066	265.8
275.527	307.93
275.987	331.33
276.448	371.12
276.908	310.27
277.369	333.67
277.829	321.97
278.289	244.73
278.75	364.1
279.21	347.72
279.67	307.93
280.13	296.22
280.59	352.4
281.05	303.25
281.51	300.91
281.97	312.61
282.43	279.84
282.89	317.29
283.35	305.59
283.809	268.14
284.269	310.27
284.729	303.25
285.188	293.88
285.648	284.52
286.107	317.29
286.567	310.27
287.026	272.82
287.485	282.18
287.944	328.99
288.404	345.38
288.863	305.59
289.322	314.95
289.781	319.63
290.24	352.4
290.699	312.61
291.158	312.61
291.616	228.35
292.075	338.35
292.534	331.33
292.992	347.72
293.451	310.27
293.91	333.67
294.368	375.8
294.827	291.54
295.285	272.82
295.743	268.14
296.202	321.97
296.66	296.22
297.118	352.4
297.576	300.91
298.034	326.65
298.492	291.54
298.95	312.61
299.408	228.35
299.866	272.82
300.324	279.84
300.781	347.72
301.239	296.22
301.697	282.18
302.154	305.59
302.612	336.01
303.069	314.95
303.527	270.48
303.984	357.08
304.441	298.56
304.899	364.1
305.356	321.97
305.813	359.42
306.27	314.95
306.727	396.87
307.184	298.56
307.641	352.4
308.098	343.03
308.555	284.52
309.012	305.59
309.468	312.61
309.925	279.84
310.382	303.25
310.838	296.22
311.295	350.06
311.751	347.72
312.208	321.97
312.664	296.22
313.12	321.97
313.577	343.03
314.033	272.82
314.489	277.5
314.945	401.55
315.401	314.95
315.857	303.25
316.313	314.95
316.769	298.56
317.225	359.42
317.681	382.82
318.136	291.54
318.592	303.25
319.048	270.48
319.503	310.27
319.959	284.52
320.414	319.63
320.869	403.89
321.325	293.88
321.78	371.12
322.235	357.08
322.691	300.91
323.146	333.67
323.601	300.91
324.056	312.61
324.511	347.72
324.966	389.85
325.421	321.97
325.875	347.72
326.33	258.78
326.785	286.86
327.24	261.12
327.694	333.67
328.149	338.35
328.603	307.93
329.058	289.2
329.512	317.29
329.966	261.12
330.421	338.35
330.875	298.56
331.329	345.38
331.783	284.52
332.237	289.2
332.691	352.4
333.145	326.65
333.599	317.29
334.053	249.41
334.507	275.16
334.96	303.25
335.414	298.56
335.868	298.56
336.321	336.01
336.775	357.08
337.228	328.99
337.682	336.01
338.135	340.69
338.588	261.12
339.042	296.22
339.495	291.54
339.948	307.93
340.401	375.8
340.854	354.74
341.307	392.19
341.76	352.4
342.213	298.56
342.666	324.31
343.119	359.42
343.571	326.65
344.024	354.74
344.477	256.43
344.929	293.88
345.382	286.86
345.834	293.88
346.287	293.88
346.739	272.82
347.191	357.08
347.644	279.84
348.096	324.31
348.548	319.63
349	352.4
349.452	296.22
349.904	345.38
350.356	331.33
350.808	328.99
351.26	317.29
351.711	340.69
352.163	336.01
352.615	371.12
353.066	300.91
353.518	373.46
353.969	361.76
354.421	298.56
354.872	284.52
355.324	258.78
355.775	279.84
356.226	326.65
356.677	312.61
357.128	361.76
357.579	293.88
358.03	275.16
358.481	354.74
358.932	361.76
359.383	326.65
359.834	366.44
360.285	338.35
360.735	312.61
361.186	326.65
361.637	382.82
362.087	291.54
362.538	361.76
362.988	286.86
363.438	317.29
363.889	336.01
364.339	394.53
364.789	275.16
365.239	354.74
365.689	298.56
366.139	312.61
366.589	319.63
367.039	343.03
367.489	293.88
367.939	345.38
368.389	352.4
368.839	366.44
369.288	303.25
369.738	338.35
370.187	312.61
370.637	312.61
371.086	394.53
371.536	291.54
371.985	343.03
372.434	314.95
372.884	268.14
373.333	366.44
373.782	296.22
374.231	265.8
374.68	284.52
375.129	382.82
375.578	328.99
376.027	317.29
376.475	366.44
376.924	314.95
377.373	317.29
377.822	328.99
378.27	364.1
378.719	286.86
379.167	293.88
379.616	340.69
380.064	361.76
380.512	382.82
380.961	298.56
381.409	333.67
381.857	338.35
382.305	303.25
382.753	321.97
383.201	321.97
383.649	289.2
384.097	291.54
384.545	343.03
384.992	268.14
385.44	296.22
385.888	368.78
386.335	347.72
386.783	340.69
387.231	354.74
387.678	336.01
388.125	314.95
388.573	305.59
389.02	324.31
389.467	331.33
389.914	307.93
390.362	303.25
390.809	312.61
391.256	364.1
391.703	310.27
392.15	331.33
392.596	338.35
393.043	305.59
393.49	321.97
393.937	314.95
394.383	366.44
394.83	286.86
395.276	284.52
395.723	319.63
396.169	368.78
396.616	328.99
397.062	321.97
397.508	291.54
397.954	347.72
398.401	361.76
398.847	314.95
399.293	272.82
399.739	286.86
400.185	319.63
400.631	336.01
401.076	401.55
401.522	352.4
401.968	307.93
402.414	366.44
402.859	378.14
403.305	354.74
403.75	331.33
404.196	378.14
404.641	338.35
405.086	328.99
405.532	326.65
405.977	347.72
406.422	389.85
406.867	324.31
407.312	333.67
407.757	354.74
408.202	338.35
408.647	340.69
409.092	307.93
409.537	289.2
409.982	303.25
410.426	272.82
410.871	352.4
411.316	331.33
411.76	336.01
412.205	319.63
412.649	385.16
413.093	354.74
413.538	314.95
413.982	261.12
414.426	282.18
414.87	333.67
415.314	331.33
415.758	345.38
416.202	312.61
416.646	333.67
417.09	331.33
417.534	371.12
417.978	350.06
418.421	272.82
418.865	317.29
419.309	357.08
419.752	354.74
420.196	357.08
420.639	389.85
421.083	307.93
421.526	272.82
421.969	340.69
422.412	314.95
422.856	336.01
423.299	331.33
423.742	385.16
424.185	291.54
424.628	364.1
425.071	321.97
425.513	366.44
425.956	366.44
426.399	357.08
426.842	284.52
427.284	338.35
427.727	366.44
428.169	314.95
428.612	324.31
429.054	296.22
429.497	357.08
429.939	394.53
430.381	378.14
430.823	345.38
431.265	307.93
431.707	291.54
432.149	305.59
432.591	347.72
433.033	354.74
433.475	303.25
433.917	357.08
434.359	378.14
434.8	352.4
435.242	354.74
435.684	291.54
436.125	305.59
436.567	361.76
437.008	336.01
437.449	326.65
437.891	385.16
438.332	312.61
438.773	406.23
439.214	350.06
439.656	284.52
440.097	291.54
440.538	357.08
440.978	310.27
441.419	305.59
441.86	333.67
442.301	347.72
442.742	394.53
443.182	385.16
443.623	345.38
444.063	321.97
444.504	338.35
444.944	319.63
445.385	352.4
445.825	289.2
446.265	314.95
446.706	385.16
447.146	371.12
447.586	340.69
448.026	396.87
448.466	368.78
448.906	333.67
449.346	364.1
449.786	361.76
450.225	333.67
450.665	352.4
451.105	321.97
451.544	275.16
451.984	317.29
452.424	321.97
452.863	340.69
453.302	282.18
453.742	371.12
454.181	336.01
454.62	394.53
455.059	282.18
455.499	291.54
455.938	312.61
456.377	340.69
456.816	333.67
457.254	291.54
457.693	286.86
458.132	300.91
458.571	441.34
459.01	368.78
459.448	310.27
459.887	364.1
460.325	305.59
460.764	310.27
461.202	282.18
461.641	380.48
462.079	317.29
462.517	307.93
462.955	338.35
463.393	282.18
463.832	359.42
464.27	307.93
464.708	340.69
465.145	328.99
465.583	343.03
466.021	361.76
466.459	321.97
466.897	324.31
467.334	291.54
467.772	265.8
468.209	345.38
468.647	300.91
469.084	326.65
469.522	338.35
469.959	394.53
470.396	373.46
470.833	347.72
471.271	317.29
471.708	366.44
472.145	366.44
472.582	321.97
473.019	338.35
473.456	321.97
473.892	263.46
474.329	268.14
474.766	389.85
475.202	371.12
475.639	319.63
476.076	343.03
476.512	279.84
476.949	387.5
477.385	326.65
477.821	361.76
478.258	354.74
478.694	312.61
479.13	319.63
479.566	354.74
480.002	345.38
480.438	336.01
480.874	347.72
481.31	310.27
481.746	317.29
482.181	303.25
482.617	364.1
483.053	361.76
483.488	343.03
483.924	368.78
484.36	338.35
484.795	350.06
485.23	368.78
485.666	326.65
486.101	268.14
486.536	324.31
486.971	324.31
487.407	361.76
487.842	303.25
488.277	284.52
488.712	396.87
489.146	298.56
489.581	350.06
490.016	338.35
490.451	347.72
490.885	357.08
491.32	392.19
491.755	361.76
492.189	310.27
492.624	314.95
493.058	375.8
493.492	359.42
493.927	312.61
494.361	319.63
494.795	364.1
495.229	394.53
495.663	357.08
496.097	347.72
496.531	361.76
496.965	279.84
497.399	300.91
497.833	254.09
498.266	328.99
498.7	275.16
499.134	364.1
499.567	343.03
500.001	366.44
500.434	371.12
500.868	291.54
501.301	321.97
501.734	382.82
502.168	324.31
502.601	303.25
503.034	343.03
503.467	291.54
503.9	289.2
504.333	284.52
504.766	296.22
505.199	373.46
505.632	319.63
506.064	359.42
506.497	385.16
506.93	298.56
507.362	321.97
507.795	338.35
508.227	268.14
508.66	319.63
509.092	312.61
509.524	389.85
509.956	343.03
510.389	312.61
510.821	286.86
511.253	305.59
511.685	321.97
512.117	326.65
512.549	380.48
512.981	331.33
513.412	331.33
513.844	310.27
514.276	359.42
514.707	326.65
515.139	296.22
515.571	347.72
516.002	300.91
516.433	300.91
516.865	326.65
517.296	298.56
517.727	324.31
518.159	371.12
518.59	333.67
519.021	345.38
519.452	312.61
519.883	307.93
520.314	307.93
520.744	336.01
521.175	336.01
521.606	371.12
522.037	279.84
522.467	354.74
522.898	331.33
523.328	312.61
523.759	345.38
524.189	350.06
524.62	340.69
525.05	352.4
525.48	385.16
525.91	378.14
526.341	319.63
526.771	347.72
527.201	275.16
527.631	333.67
528.061	296.22
528.49	324.31
528.92	347.72
529.35	343.03
529.78	420.27
530.209	303.25
530.639	326.65
531.068	371.12
531.498	364.1
531.927	298.56
532.357	319.63
532.786	359.42
533.215	279.84
533.644	392.19
534.074	354.74
534.503	380.48
534.932	268.14
535.361	326.65
535.79	331.33
536.218	307.93
536.647	373.46
537.076	293.88
537.505	396.87
537.933	319.63
538.362	303.25
538.79	382.82
539.219	361.76
539.647	305.59
540.076	333.67
540.504	352.4
540.932	321.97
541.36	336.01
541.788	368.78
542.217	340.69
542.645	279.84
543.073	300.91
543.5	321.97
543.928	305.59
544.356	324.31
544.784	392.19
545.211	394.53
545.639	371.12
546.067	317.29
546.494	336.01
546.922	321.97
547.349	300.91
547.776	317.29
548.204	303.25
548.631	284.52
549.058	282.18
549.485	371.12
549.912	345.38
550.339	310.27
550.766	277.5
551.193	319.63
551.62	364.1
552.047	373.46
552.474	324.31
552.9	364.1
553.327	417.93
553.754	387.5
554.18	312.61
554.607	312.61
555.033	336.01
555.459	345.38
555.886	319.63
556.312	272.82
556.738	338.35
557.164	326.65
557.59	336.01
558.016	352.4
558.442	338.35
558.868	347.72
559.294	265.8
559.72	326.65
560.145	326.65
560.571	310.27
560.997	413.25
561.422	361.76
561.848	312.61
562.273	223.67
562.699	258.78
563.124	319.63
563.549	321.97
563.974	282.18
564.4	303.25
564.825	340.69
565.25	352.4
565.675	385.16
566.1	282.18
566.525	357.08
566.95	319.63
567.374	359.42
567.799	357.08
568.224	282.18
568.648	310.27
569.073	291.54
569.497	300.91
569.922	277.5
570.346	272.82
570.771	333.67
571.195	333.67
571.619	347.72
572.043	345.38
572.467	333.67
572.891	312.61
573.315	368.78
573.739	361.76
574.163	289.2
574.587	331.33
575.011	314.95
575.435	324.31
575.858	331.33
576.282	326.65
576.705	258.78
577.129	354.74
577.552	345.38
577.976	324.31
578.399	261.12
578.822	345.38
579.245	340.69
579.669	373.46
580.092	284.52
580.515	336.01
580.938	392.19
581.361	352.4
581.784	270.48
582.206	258.78
582.629	331.33
583.052	345.38
583.474	350.06
583.897	317.29
584.32	382.82
584.742	305.59
585.165	373.46
585.587	296.22
586.009	326.65
586.431	359.42
586.854	298.56
587.276	345.38
587.698	289.2
588.12	382.82
588.542	319.63
588.964	345.38
589.386	331.33
589.807	331.33
590.229	279.84
590.651	375.8
591.073	373.46
591.494	352.4
591.916	310.27
592.337	336.01
592.759	310.27
593.18	293.88
593.601	317.29
594.022	357.08
594.444	298.56
594.865	343.03
595.286	296.22
595.707	387.5
596.128	324.31
596.549	382.82
596.97	331.33
597.39	364.1
597.811	300.91
598.232	382.82
598.652	293.88
599.073	408.57
599.494	345.38
599.914	296.22
600.334	359.42
600.755	305.59
601.175	336.01
601.595	289.2
602.015	312.61
602.436	286.86
602.856	410.91
603.276	298.56
603.696	312.61
604.115	380.48
604.535	303.25
604.955	293.88
605.375	336.01
605.794	333.67
606.214	289.2
606.634	324.31
607.053	319.63
607.473	340.69
607.892	331.33
608.311	331.33
608.731	307.93
609.15	263.46
609.569	347.72
609.988	296.22
610.407	389.85
610.826	387.5
611.245	328.99
611.664	399.21
612.083	336.01
612.501	321.97
612.92	272.82
613.339	343.03
613.757	350.06
614.176	392.19
614.594	352.4
615.013	310.27
615.431	284.52
615.85	343.03
616.268	303.25
616.686	312.61
617.104	328.99
617.522	371.12
617.94	350.06
618.358	277.5
618.776	371.12
619.194	361.76
619.612	275.16
620.03	389.85
620.447	312.61
620.865	354.74
621.282	350.06
621.7	305.59
622.117	321.97
622.535	352.4
622.952	326.65
623.369	254.09
623.787	336.01
624.204	343.03
624.621	321.97
625.038	364.1
625.455	314.95
625.872	373.46
626.289	331.33
626.706	357.08
627.123	336.01
627.539	312.61
627.956	317.29
628.373	300.91
628.789	338.35
629.206	373.46
629.622	300.91
630.038	321.97
630.455	347.72
630.871	357.08
631.287	340.69
631.703	319.63
632.12	343.03
632.536	324.31
632.952	296.22
633.368	314.95
633.783	343.03
634.199	373.46
634.615	392.19
635.031	312.61
635.446	331.33
635.862	350.06
636.277	336.01
636.693	261.12
637.108	272.82
637.524	366.44
637.939	361.76
638.354	354.74
638.77	336.01
639.185	380.48
639.6	328.99
640.015	345.38
640.43	345.38
640.845	270.48
641.259	303.25
641.674	347.72
642.089	350.06
642.504	307.93
642.918	354.74
643.333	286.86
643.747	361.76
644.162	385.16
644.576	312.61
644.991	340.69
645.405	321.97
645.819	284.52
646.233	343.03
646.647	347.72
647.061	371.12
647.475	338.35
647.889	310.27
648.303	317.29
648.717	338.35
649.131	326.65
649.545	314.95
649.958	300.91
650.372	284.52
650.785	375.8
651.199	378.14
651.612	331.33
652.026	263.46
652.439	338.35
652.852	333.67
653.266	300.91
653.679	291.54
654.092	347.72
654.505	352.4
654.918	289.2
655.331	357.08
655.744	333.67
656.156	366.44
656.569	312.61
656.982	336.01
657.394	314.95
657.807	307.93
658.22	366.44
658.632	389.85
659.044	326.65
659.457	368.78
659.869	265.8
660.281	343.03
660.693	345.38
661.106	373.46
661.518	343.03
661.93	357.08
662.342	354.74
662.754	270.48
663.165	340.69
663.577	340.69
663.989	300.91
664.401	289.2
664.812	326.65
665.224	347.72
665.635	343.03
666.047	333.67
666.458	265.8
666.869	340.69
667.281	300.91
667.692	307.93
668.103	336.01
668.514	305.59
668.925	319.63
669.336	333.67
669.747	303.25
670.158	321.97
670.569	298.56
670.979	244.73
671.39	336.01
671.801	324.31
672.211	343.03
672.622	350.06
673.032	310.27
673.443	331.33
673.853	350.06
674.263	373.46
674.674	296.22
675.084	305.59
675.494	343.03
675.904	394.53
676.314	331.33
676.724	312.61
677.134	359.42
677.544	312.61
677.953	310.27
678.363	268.14
678.773	375.8
679.182	286.86
679.592	324.31
680.001	305.59
680.411	303.25
680.82	408.57
681.23	359.42
681.639	331.33
682.048	331.33
682.457	291.54
682.866	279.84
683.275	319.63
683.684	385.16
684.093	319.63
684.502	352.4
684.911	368.78
685.32	328.99
685.728	282.18
686.137	324.31
686.546	336.01
686.954	389.85
687.363	338.35
687.771	371.12
688.179	396.87
688.588	345.38
688.996	321.97
689.404	319.63
689.812	270.48
690.22	254.09
690.628	317.29
691.036	338.35
691.444	371.12
691.852	340.69
692.26	333.67
692.667	279.84
693.075	300.91
693.483	350.06
693.89	324.31
694.298	317.29
694.705	378.14
695.112	366.44
695.52	375.8
695.927	312.61
696.334	340.69
696.741	296.22
697.148	300.91
697.555	338.35
697.962	319.63
698.369	268.14
698.776	336.01
699.183	314.95
699.59	282.18
699.996	328.99
700.403	387.5
700.81	321.97
701.216	387.5
701.623	286.86
702.029	314.95
702.435	366.44
702.842	333.67
703.248	310.27
703.654	317.29
704.06	321.97
704.466	366.44
704.872	307.93
705.278	277.5
705.684	237.71
706.09	352.4
706.496	389.85
706.901	321.97
707.307	293.88
707.712	319.63
708.118	331.33
708.523	340.69
708.929	338.35
709.334	366.44
709.74	314.95
710.145	417.93
710.55	319.63
710.955	300.91
711.36	333.67
711.765	289.2
712.17	303.25
712.575	375.8
712.98	862.63
713.385	373.46
713.789	326.65
714.194	300.91
714.599	343.03
715.003	352.4
715.408	326.65
715.812	326.65
716.217	357.08
716.621	359.42
717.025	345.38
717.429	317.29
717.833	345.38
718.238	296.22
718.642	357.08
719.046	359.42
719.449	298.56
719.853	359.42
720.257	354.74
720.661	272.82
721.065	389.85
721.468	284.52
721.872	328.99
722.275	312.61
722.679	319.63
723.082	317.29
723.485	314.95
723.889	296.22
724.292	300.91
724.695	305.59
725.098	312.61
725.501	275.16
725.904	317.29
726.307	366.44
726.71	312.61
727.113	343.03
727.516	347.72
727.918	303.25
728.321	352.4
728.724	380.48
729.126	321.97
729.529	347.72
729.931	375.8
730.333	387.5
730.736	336.01
731.138	328.99
731.54	343.03
731.942	319.63
732.344	254.09
732.746	359.42
733.148	319.63
733.55	270.48
733.952	338.35
734.354	305.59
734.756	343.03
735.157	296.22
735.559	298.56
735.96	314.95
736.362	289.2
736.763	326.65
737.165	326.65
737.566	321.97
737.967	261.12
738.368	293.88
738.77	340.69
739.171	336.01
739.572	282.18
739.973	326.65
740.374	347.72
740.774	403.89
741.175	354.74
741.576	300.91
741.977	373.46
742.377	319.63
742.778	296.22
743.178	396.87
743.579	296.22
743.979	321.97
744.379	296.22
744.78	345.38
745.18	389.85
745.58	354.74
745.98	427.29
746.38	368.78
746.78	307.93
747.18	321.97
747.58	270.48
747.98	326.65
748.38	314.95
748.779	387.5
749.179	310.27
749.578	354.74
749.978	373.46
750.377	364.1
750.777	272.82
751.176	300.91
751.575	321.97
751.975	321.97
752.374	284.52
752.773	319.63
753.172	300.91
753.571	305.59
753.97	310.27
754.369	324.31
754.768	352.4
755.166	272.82
755.565	345.38
755.964	338.35
756.362	284.52
756.761	270.48
757.159	310.27
757.558	303.25
757.956	375.8
758.354	361.76
758.753	284.52
759.151	328.99
759.549	310.27
759.947	357.08
760.345	321.97
760.743	296.22
761.141	352.4
761.539	296.22
761.936	296.22
762.334	300.91
762.732	420.27
763.129	340.69
763.527	326.65
763.924	354.74
764.322	314.95
