Data from Al_FLMS009871__692__15-07-13-937.txt Node

Date: Fri Mar 08 15:07:13 CST 2024
User: pe5414po
Spectrometer: FLMS00987
Trigger mode: 0
Integration Time (sec): 1.000000E-1
Scans to average: 1
Electric dark correction enabled: true
Nonlinearity correction enabled: false
Boxcar width: 0
XAxis mode: Wavelengths
Number of Pixels in Spectrum: 2048
>>>>>Begin Spectral Data<<<<<
188.938	-136.04
189.409	-136.04
189.879	-136.04
190.349	-82.21
190.819	-117.32
191.29	-96.25
191.76	-117.32
192.23	-138.38
192.7	-96.25
193.17	-7.31
193.64	-9.65
194.109	-49.44
194.579	-40.08
195.049	37.16
195.519	16.09
195.988	51.2
196.458	27.79
196.927	65.24
197.397	121.42
197.866	140.14
198.336	95.67
198.805	154.18
199.274	121.42
199.744	144.82
200.213	154.18
200.682	119.07
201.151	226.74
201.62	191.63
202.089	203.33
202.558	231.42
203.027	271.21
203.495	240.78
203.964	254.83
204.433	299.3
204.902	266.53
205.37	280.57
205.839	299.3
206.307	264.19
206.776	299.3
207.244	278.23
207.712	313.34
208.181	233.76
208.649	282.91
209.117	275.89
209.585	280.57
210.053	306.32
210.521	271.21
210.989	259.51
211.457	268.87
211.925	215.04
212.393	224.4
212.861	266.53
213.328	322.7
213.796	289.93
214.264	247.8
214.731	252.49
215.199	273.55
215.666	236.1
216.133	243.12
216.601	250.14
217.068	271.21
217.535	231.42
218.003	231.42
218.47	327.38
218.937	257.17
219.404	233.76
219.871	299.3
220.338	238.44
220.805	200.99
221.271	203.33
221.738	233.76
222.205	233.76
222.671	259.51
223.138	273.55
223.605	191.63
224.071	252.49
224.538	224.4
225.004	247.8
225.47	170.57
225.937	240.78
226.403	280.57
226.869	182.27
227.335	311
227.801	353.13
228.267	261.85
228.733	261.85
229.199	264.19
229.665	231.42
230.131	289.93
230.597	271.21
231.062	266.53
231.528	250.14
231.994	238.44
232.459	219.72
232.925	271.21
233.39	320.36
233.856	266.53
234.321	240.78
234.786	236.1
235.252	271.21
235.717	236.1
236.182	212.7
236.647	303.98
237.112	296.96
237.577	275.89
238.042	306.32
238.507	275.89
238.972	292.27
239.436	247.8
239.901	240.78
240.366	196.31
240.83	254.83
241.295	226.74
241.76	306.32
242.224	322.7
242.688	243.12
243.153	259.51
243.617	296.96
244.081	215.04
244.545	212.7
245.01	280.57
245.474	238.44
245.938	229.08
246.402	172.91
246.866	266.53
247.33	275.89
247.793	301.64
248.257	292.27
248.721	226.74
249.185	259.51
249.648	254.83
250.112	245.46
250.575	189.29
251.039	278.23
251.502	257.17
251.965	259.51
252.429	287.59
252.892	292.27
253.355	252.49
253.818	236.1
254.281	327.38
254.744	252.49
255.207	212.7
255.67	266.53
256.133	245.46
256.596	303.98
257.059	233.76
257.522	289.93
257.984	315.68
258.447	278.23
258.909	268.87
259.372	238.44
259.834	271.21
260.297	233.76
260.759	322.7
261.221	303.98
261.684	278.23
262.146	285.25
262.608	252.49
263.07	259.51
263.532	268.87
263.994	332.06
264.456	282.91
264.918	318.02
265.38	247.8
265.842	285.25
266.303	198.65
266.765	254.83
267.227	247.8
267.688	245.46
268.15	292.27
268.611	268.87
269.072	296.96
269.534	282.91
269.995	296.96
270.456	259.51
270.918	243.12
271.379	322.7
271.84	259.51
272.301	261.85
272.762	294.61
273.223	308.66
273.684	292.27
274.144	303.98
274.605	303.98
275.066	259.51
275.527	318.02
275.987	315.68
276.448	264.19
276.908	250.14
277.369	289.93
277.829	243.12
278.289	224.4
278.75	311
279.21	238.44
279.67	243.12
280.13	243.12
280.59	243.12
281.05	357.81
281.51	301.64
281.97	289.93
282.43	252.49
282.89	299.3
283.35	268.87
283.809	282.91
284.269	271.21
284.729	313.34
285.188	275.89
285.648	275.89
286.107	236.1
286.567	322.7
287.026	212.7
287.485	250.14
287.944	282.91
288.404	278.23
288.863	320.36
289.322	247.8
289.781	271.21
290.24	273.55
290.699	219.72
291.158	301.64
291.616	301.64
292.075	252.49
292.534	311
292.992	245.46
293.451	240.78
293.91	264.19
294.368	252.49
294.827	301.64
295.285	278.23
295.743	303.98
296.202	306.32
296.66	327.38
297.118	320.36
297.576	275.89
298.034	240.78
298.492	252.49
298.95	229.08
299.408	259.51
299.866	306.32
300.324	280.57
300.781	327.38
301.239	254.83
301.697	289.93
302.154	257.17
302.612	336.74
303.069	336.74
303.527	325.04
303.984	252.49
304.441	311
304.899	257.17
305.356	332.06
305.813	332.06
306.27	341.43
306.727	287.59
307.184	278.23
307.641	264.19
308.098	268.87
308.555	264.19
309.012	252.49
309.468	308.66
309.925	296.96
310.382	266.53
310.838	287.59
311.295	332.06
311.751	308.66
312.208	303.98
312.664	273.55
313.12	271.21
313.577	282.91
314.033	252.49
314.489	264.19
314.945	264.19
315.401	322.7
315.857	334.4
316.313	280.57
316.769	311
317.225	301.64
317.681	306.32
318.136	261.85
318.592	266.53
319.048	311
319.503	306.32
319.959	322.7
320.414	294.61
320.869	240.78
321.325	348.45
321.78	294.61
322.235	320.36
322.691	343.77
323.146	261.85
323.601	240.78
324.056	348.45
324.511	282.91
324.966	336.74
325.421	219.72
325.875	294.61
326.33	254.83
326.785	306.32
327.24	266.53
327.694	306.32
328.149	292.27
328.603	250.14
329.058	266.53
329.512	268.87
329.966	261.85
330.421	268.87
330.875	280.57
331.329	306.32
331.783	318.02
332.237	191.63
332.691	247.8
333.145	275.89
333.599	350.79
334.053	350.79
334.507	245.46
334.96	287.59
335.414	250.14
335.868	296.96
336.321	320.36
336.775	245.46
337.228	346.11
337.682	266.53
338.135	275.89
338.588	245.46
339.042	301.64
339.495	341.43
339.948	296.96
340.401	348.45
340.854	362.49
341.307	287.59
341.76	268.87
342.213	322.7
342.666	236.1
343.119	303.98
343.571	327.38
344.024	299.3
344.477	287.59
344.929	245.46
345.382	282.91
345.834	257.17
346.287	332.06
346.739	294.61
347.191	315.68
347.644	343.77
348.096	287.59
348.548	282.91
349	250.14
349.452	308.66
349.904	332.06
350.356	308.66
350.808	311
351.26	364.83
351.711	275.89
352.163	282.91
352.615	275.89
353.066	264.19
353.518	341.43
353.969	264.19
354.421	264.19
354.872	320.36
355.324	301.64
355.775	282.91
356.226	240.78
356.677	325.04
357.128	282.91
357.579	339.09
358.03	282.91
358.481	303.98
358.932	233.76
359.383	250.14
359.834	334.4
360.285	268.87
360.735	208.02
361.186	285.25
361.637	285.25
362.087	318.02
362.538	257.17
362.988	315.68
363.438	278.23
363.889	325.04
364.339	299.3
364.789	362.49
365.239	261.85
365.689	327.38
366.139	313.34
366.589	229.08
367.039	289.93
367.489	332.06
367.939	303.98
368.389	371.85
368.839	254.83
369.288	257.17
369.738	320.36
370.187	278.23
370.637	285.25
371.086	282.91
371.536	292.27
371.985	236.1
372.434	243.12
372.884	329.72
373.333	259.51
373.782	264.19
374.231	278.23
374.68	318.02
375.129	250.14
375.578	336.74
376.027	254.83
376.475	341.43
376.924	327.38
377.373	243.12
377.822	318.02
378.27	315.68
378.719	362.49
379.167	299.3
379.616	238.44
380.064	313.34
380.512	299.3
380.961	271.21
381.409	275.89
381.857	315.68
382.305	282.91
382.753	299.3
383.201	303.98
383.649	301.64
384.097	313.34
384.545	325.04
384.992	266.53
385.44	315.68
385.888	282.91
386.335	254.83
386.783	205.67
387.231	329.72
387.678	266.53
388.125	268.87
388.573	268.87
389.02	289.93
389.467	301.64
389.914	273.55
390.362	280.57
390.809	294.61
391.256	299.3
391.703	296.96
392.15	264.19
392.596	257.17
393.043	217.38
393.49	327.38
393.937	303.98
394.383	254.83
394.83	306.32
395.276	282.91
395.723	332.06
396.169	334.4
396.616	315.68
397.062	280.57
397.508	325.04
397.954	278.23
398.401	275.89
398.847	360.15
399.293	294.61
399.739	285.25
400.185	299.3
400.631	203.33
401.076	292.27
401.522	259.51
401.968	278.23
402.414	341.43
402.859	247.8
403.305	292.27
403.75	289.93
404.196	318.02
404.641	296.96
405.086	334.4
405.532	287.59
405.977	299.3
406.422	275.89
406.867	294.61
407.312	327.38
407.757	271.21
408.202	332.06
408.647	301.64
409.092	385.9
409.537	318.02
409.982	257.17
410.426	320.36
410.871	287.59
411.316	268.87
411.76	289.93
412.205	222.06
412.649	348.45
413.093	247.8
413.538	341.43
413.982	360.15
414.426	275.89
414.87	296.96
415.314	296.96
415.758	343.77
416.202	301.64
416.646	282.91
417.09	280.57
417.534	369.51
417.978	299.3
418.421	301.64
418.865	301.64
419.309	247.8
419.752	278.23
420.196	289.93
420.639	287.59
421.083	245.46
421.526	282.91
421.969	280.57
422.412	275.89
422.856	313.34
423.299	339.09
423.742	315.68
424.185	243.12
424.628	264.19
425.071	311
425.513	292.27
425.956	257.17
426.399	294.61
426.842	268.87
427.284	315.68
427.727	320.36
428.169	320.36
428.612	325.04
429.054	257.17
429.497	285.25
429.939	301.64
430.381	226.74
430.823	313.34
431.265	329.72
431.707	306.32
432.149	268.87
432.591	287.59
433.033	329.72
433.475	339.09
433.917	322.7
434.359	280.57
434.8	350.79
435.242	329.72
435.684	306.32
436.125	296.96
436.567	397.6
437.008	339.09
437.449	259.51
437.891	341.43
438.332	233.76
438.773	287.59
439.214	268.87
439.656	247.8
440.097	296.96
440.538	327.38
440.978	355.47
441.419	285.25
441.86	339.09
442.301	332.06
442.742	332.06
443.182	313.34
443.623	282.91
444.063	320.36
444.504	343.77
444.944	315.68
445.385	278.23
445.825	329.72
446.265	334.4
446.706	341.43
447.146	327.38
447.586	289.93
448.026	301.64
448.466	364.83
448.906	245.46
449.346	275.89
449.786	271.21
450.225	315.68
450.665	313.34
451.105	311
451.544	320.36
451.984	294.61
452.424	308.66
452.863	306.32
453.302	306.32
453.742	315.68
454.181	254.83
454.62	369.51
455.059	247.8
455.499	313.34
455.938	327.38
456.377	273.55
456.816	273.55
457.254	296.96
457.693	353.13
458.132	308.66
458.571	301.64
459.01	353.13
459.448	280.57
459.887	360.15
460.325	364.83
460.764	245.46
461.202	238.44
461.641	271.21
462.079	348.45
462.517	266.53
462.955	292.27
463.393	334.4
463.832	285.25
464.27	329.72
464.708	264.19
465.145	259.51
465.583	332.06
466.021	315.68
466.459	306.32
466.897	306.32
467.334	313.34
467.772	226.74
468.209	322.7
468.647	271.21
469.084	346.11
469.522	240.78
469.959	296.96
470.396	301.64
470.833	327.38
471.271	355.47
471.708	252.49
472.145	280.57
472.582	301.64
473.019	332.06
473.456	308.66
473.892	336.74
474.329	303.98
474.766	292.27
475.202	268.87
475.639	294.61
476.076	318.02
476.512	329.72
476.949	273.55
477.385	266.53
477.821	292.27
478.258	303.98
478.694	348.45
479.13	329.72
479.566	287.59
480.002	320.36
480.438	325.04
480.874	325.04
481.31	311
481.746	289.93
482.181	329.72
482.617	247.8
483.053	299.3
483.488	320.36
483.924	289.93
484.36	329.72
484.795	278.23
485.23	318.02
485.666	245.46
486.101	360.15
486.536	353.13
486.971	303.98
487.407	289.93
487.842	212.7
488.277	250.14
488.712	327.38
489.146	320.36
489.581	308.66
490.016	285.25
490.451	346.11
490.885	261.85
491.32	222.06
491.755	360.15
492.189	325.04
492.624	299.3
493.058	336.74
493.492	313.34
493.927	264.19
494.361	322.7
494.795	271.21
495.229	327.38
495.663	367.17
496.097	334.4
496.531	259.51
496.965	360.15
497.399	318.02
497.833	282.91
498.266	336.74
498.7	285.25
499.134	259.51
499.567	303.98
500.001	217.38
500.434	280.57
500.868	311
501.301	285.25
501.734	296.96
502.168	296.96
502.601	341.43
503.034	236.1
503.467	292.27
503.9	266.53
504.333	266.53
504.766	282.91
505.199	296.96
505.632	278.23
506.064	287.59
506.497	306.32
506.93	193.97
507.362	238.44
507.795	313.34
508.227	266.53
508.66	313.34
509.092	285.25
509.524	278.23
509.956	334.4
510.389	334.4
510.821	268.87
511.253	334.4
511.685	332.06
512.117	336.74
512.549	313.34
512.981	303.98
513.412	355.47
513.844	306.32
514.276	308.66
514.707	301.64
515.139	311
515.571	332.06
516.002	299.3
516.433	327.38
516.865	329.72
517.296	301.64
517.727	376.53
518.159	233.76
518.59	289.93
519.021	301.64
519.452	376.53
519.883	292.27
520.314	289.93
520.744	261.85
521.175	329.72
521.606	306.32
522.037	348.45
522.467	327.38
522.898	289.93
523.328	301.64
523.759	322.7
524.189	357.81
524.62	332.06
525.05	294.61
525.48	282.91
525.91	339.09
526.341	334.4
526.771	282.91
527.201	245.46
527.631	329.72
528.061	320.36
528.49	252.49
528.92	292.27
529.35	329.72
529.78	264.19
530.209	282.91
530.639	383.56
531.068	268.87
531.498	301.64
531.927	282.91
532.357	278.23
532.786	327.38
533.215	350.79
533.644	348.45
534.074	334.4
534.503	336.74
534.932	402.28
535.361	343.77
535.79	273.55
536.218	346.11
536.647	280.57
537.076	322.7
537.505	355.47
537.933	311
538.362	308.66
538.79	299.3
539.219	339.09
539.647	318.02
540.076	339.09
540.504	275.89
540.932	318.02
541.36	292.27
541.788	308.66
542.217	301.64
542.645	231.42
543.073	294.61
543.5	315.68
543.928	294.61
544.356	282.91
544.784	280.57
545.211	329.72
545.639	243.12
546.067	315.68
546.494	334.4
546.922	355.47
547.349	245.46
547.776	313.34
548.204	318.02
548.631	271.21
549.058	355.47
549.485	264.19
549.912	240.78
550.339	327.38
550.766	308.66
551.193	294.61
551.62	264.19
552.047	322.7
552.474	285.25
552.9	285.25
553.327	320.36
553.754	278.23
554.18	268.87
554.607	296.96
555.033	301.64
555.459	287.59
555.886	285.25
556.312	289.93
556.738	294.61
557.164	254.83
557.59	243.12
558.016	282.91
558.442	257.17
558.868	282.91
559.294	315.68
559.72	299.3
560.145	311
560.571	339.09
560.997	404.62
561.422	275.89
561.848	280.57
562.273	306.32
562.699	306.32
563.124	282.91
563.549	320.36
563.974	341.43
564.4	341.43
564.825	252.49
565.25	339.09
565.675	385.9
566.1	282.91
566.525	296.96
566.95	374.19
567.374	325.04
567.799	296.96
568.224	311
568.648	350.79
569.073	341.43
569.497	383.56
569.922	322.7
570.346	273.55
570.771	278.23
571.195	245.46
571.619	303.98
572.043	282.91
572.467	329.72
572.891	303.98
573.315	320.36
573.739	371.85
574.163	282.91
574.587	325.04
575.011	278.23
575.435	245.46
575.858	322.7
576.282	357.81
576.705	350.79
577.129	261.85
577.552	273.55
577.976	264.19
578.399	311
578.822	264.19
579.245	318.02
579.669	325.04
580.092	268.87
580.515	287.59
580.938	362.49
581.361	332.06
581.784	308.66
582.206	243.12
582.629	252.49
583.052	332.06
583.474	325.04
583.897	313.34
584.32	280.57
584.742	224.4
585.165	301.64
585.587	275.89
586.009	278.23
586.431	285.25
586.854	299.3
587.276	268.87
587.698	329.72
588.12	280.57
588.542	339.09
588.964	303.98
589.386	294.61
589.807	315.68
590.229	289.93
590.651	301.64
591.073	259.51
591.494	353.13
591.916	322.7
592.337	294.61
592.759	296.96
593.18	285.25
593.601	341.43
594.022	343.77
594.444	334.4
594.865	294.61
595.286	315.68
595.707	268.87
596.128	294.61
596.549	318.02
596.97	371.85
597.39	336.74
597.811	266.53
598.232	268.87
598.652	294.61
599.073	313.34
599.494	266.53
599.914	353.13
600.334	327.38
600.755	231.42
601.175	278.23
601.595	282.91
602.015	280.57
602.436	355.47
602.856	355.47
603.276	299.3
603.696	357.81
604.115	289.93
604.535	271.21
604.955	289.93
605.375	327.38
605.794	381.21
606.214	299.3
606.634	313.34
607.053	275.89
607.473	299.3
607.892	350.79
608.311	327.38
608.731	339.09
609.15	245.46
609.569	313.34
609.988	292.27
610.407	299.3
610.826	301.64
611.245	222.06
611.664	306.32
612.083	282.91
612.501	318.02
612.92	292.27
613.339	271.21
613.757	280.57
614.176	301.64
614.594	327.38
615.013	287.59
615.431	299.3
615.85	285.25
616.268	282.91
616.686	299.3
617.104	346.11
617.522	303.98
617.94	273.55
618.358	315.68
618.776	322.7
619.194	327.38
619.612	301.64
620.03	306.32
620.447	369.51
620.865	343.77
621.282	252.49
621.7	325.04
622.117	341.43
622.535	395.26
622.952	299.3
623.369	271.21
623.787	355.47
624.204	287.59
624.621	254.83
625.038	285.25
625.455	313.34
625.872	261.85
626.289	322.7
626.706	353.13
627.123	292.27
627.539	250.14
627.956	355.47
628.373	311
628.789	313.34
629.206	301.64
629.622	322.7
630.038	313.34
630.455	250.14
630.871	292.27
631.287	329.72
631.703	320.36
632.12	268.87
632.536	303.98
632.952	339.09
633.368	343.77
633.783	292.27
634.199	266.53
634.615	292.27
635.031	264.19
635.446	327.38
635.862	226.74
636.277	273.55
636.693	254.83
637.108	240.78
637.524	261.85
637.939	311
638.354	301.64
638.77	343.77
639.185	252.49
639.6	275.89
640.015	325.04
640.43	259.51
640.845	257.17
641.259	266.53
641.674	296.96
642.089	336.74
642.504	299.3
642.918	278.23
643.333	287.59
643.747	285.25
644.162	299.3
644.576	294.61
644.991	289.93
645.405	364.83
645.819	273.55
646.233	275.89
646.647	282.91
647.061	280.57
647.475	275.89
647.889	287.59
648.303	301.64
648.717	315.68
649.131	327.38
649.545	334.4
649.958	346.11
650.372	292.27
650.785	243.12
651.199	322.7
651.612	294.61
652.026	289.93
652.439	334.4
652.852	266.53
653.266	306.32
653.679	282.91
654.092	247.8
654.505	318.02
654.918	268.87
655.331	350.79
655.744	273.55
656.156	292.27
656.569	318.02
656.982	275.89
657.394	320.36
657.807	329.72
658.22	315.68
658.632	332.06
659.044	343.77
659.457	273.55
659.869	325.04
660.281	332.06
660.693	296.96
661.106	289.93
661.518	301.64
661.93	299.3
662.342	381.21
662.754	247.8
663.165	280.57
663.577	362.49
663.989	266.53
664.401	289.93
664.812	339.09
665.224	294.61
665.635	275.89
666.047	287.59
666.458	308.66
666.869	329.72
667.281	311
667.692	325.04
668.103	285.25
668.514	303.98
668.925	282.91
669.336	301.64
669.747	341.43
670.158	278.23
670.569	325.04
670.979	296.96
671.39	306.32
671.801	296.96
672.211	271.21
672.622	336.74
673.032	299.3
673.443	299.3
673.853	266.53
674.263	336.74
674.674	350.79
675.084	266.53
675.494	247.8
675.904	315.68
676.314	257.17
676.724	250.14
677.134	287.59
677.544	325.04
677.953	360.15
678.363	287.59
678.773	364.83
679.182	350.79
679.592	378.87
680.001	264.19
680.411	308.66
680.82	261.85
681.23	268.87
681.639	334.4
682.048	250.14
682.457	346.11
682.866	303.98
683.275	252.49
683.684	257.17
684.093	289.93
684.502	294.61
684.911	311
685.32	299.3
685.728	301.64
686.137	289.93
686.546	320.36
686.954	217.38
687.363	289.93
687.771	278.23
688.179	289.93
688.588	236.1
688.996	339.09
689.404	275.89
689.812	303.98
690.22	313.34
690.628	343.77
691.036	306.32
691.444	306.32
691.852	292.27
692.26	399.94
692.667	341.43
693.075	285.25
693.483	322.7
693.89	278.23
694.298	346.11
694.705	296.96
695.112	245.46
695.52	254.83
695.927	327.38
696.334	261.85
696.741	350.79
697.148	385.9
697.555	292.27
697.962	247.8
698.369	341.43
698.776	287.59
699.183	334.4
699.59	311
699.996	311
700.403	311
700.81	332.06
701.216	318.02
701.623	264.19
702.029	287.59
702.435	320.36
702.842	301.64
703.248	266.53
703.654	301.64
704.06	294.61
704.466	254.83
704.872	222.06
705.278	273.55
705.684	250.14
706.09	273.55
706.496	282.91
706.901	261.85
707.307	334.4
707.712	266.53
708.118	339.09
708.523	334.4
708.929	332.06
709.334	285.25
709.74	259.51
710.145	357.81
710.55	299.3
710.955	301.64
711.36	367.17
711.765	299.3
712.17	367.17
712.575	261.85
712.98	849.32
713.385	353.13
713.789	275.89
714.194	231.42
714.599	360.15
715.003	303.98
715.408	299.3
715.812	343.77
716.217	332.06
716.621	325.04
717.025	282.91
717.429	233.76
717.833	299.3
718.238	334.4
718.642	411.64
719.046	315.68
719.449	303.98
719.853	322.7
720.257	271.21
720.661	289.93
721.065	261.85
721.468	264.19
721.872	315.68
722.275	210.36
722.679	285.25
723.082	383.56
723.485	282.91
723.889	346.11
724.292	334.4
724.695	301.64
725.098	299.3
725.501	296.96
725.904	378.87
726.307	294.61
726.71	278.23
727.113	313.34
727.516	355.47
727.918	306.32
728.321	348.45
728.724	313.34
729.126	315.68
729.529	285.25
729.931	341.43
730.333	264.19
730.736	315.68
731.138	266.53
731.54	278.23
731.942	296.96
732.344	278.23
732.746	313.34
733.148	278.23
733.55	299.3
733.952	289.93
734.354	261.85
734.756	371.85
735.157	285.25
735.559	261.85
735.96	289.93
736.362	313.34
736.763	289.93
737.165	268.87
737.566	229.08
737.967	271.21
738.368	268.87
738.77	336.74
739.171	294.61
739.572	320.36
739.973	271.21
740.374	341.43
740.774	336.74
741.175	273.55
741.576	329.72
741.977	233.76
742.377	371.85
742.778	322.7
743.178	306.32
743.579	325.04
743.979	257.17
744.379	299.3
744.78	259.51
745.18	308.66
745.58	308.66
745.98	240.78
746.38	327.38
746.78	308.66
747.18	261.85
747.58	322.7
747.98	303.98
748.38	257.17
748.779	308.66
749.179	299.3
749.578	329.72
749.978	254.83
750.377	287.59
750.777	261.85
751.176	313.34
751.575	250.14
751.975	315.68
752.374	289.93
752.773	261.85
753.172	343.77
753.571	280.57
753.97	313.34
754.369	364.83
754.768	280.57
755.166	336.74
755.565	318.02
755.964	268.87
756.362	303.98
756.761	257.17
757.159	322.7
757.558	313.34
757.956	266.53
758.354	334.4
758.753	264.19
759.151	306.32
759.549	292.27
759.947	343.77
760.345	327.38
760.743	306.32
761.141	247.8
761.539	259.51
761.936	243.12
762.334	355.47
762.732	322.7
763.129	259.51
763.527	318.02
763.924	285.25
764.322	346.11
764.719	287.59
765.117	369.51
765.514	322.7
765.911	320.36
766.308	261.85
766.705	336.74
