Data from Al_FLMS009871__921__16-19-06-022.txt Node

Date: Fri Mar 08 16:19:06 CST 2024
User: pe5414po
Spectrometer: FLMS00987
Trigger mode: 0
Integration Time (sec): 1.000000E-1
Scans to average: 1
Electric dark correction enabled: true
Nonlinearity correction enabled: false
Boxcar width: 0
XAxis mode: Wavelengths
Number of Pixels in Spectrum: 2048
>>>>>Begin Spectral Data<<<<<
188.938	-59.54
189.409	-59.54
189.879	-59.54
190.349	-99.33
190.819	-85.28
191.29	-111.03
191.76	-118.05
192.23	-146.14
192.7	-61.88
193.17	-54.86
193.64	-75.92
194.109	-99.33
194.579	31.74
195.049	41.11
195.519	22.38
195.988	1.32
196.458	73.87
196.927	139.41
197.397	144.09
197.866	73.87
198.336	139.41
198.805	137.07
199.274	179.2
199.744	144.09
200.213	141.75
200.682	202.6
201.151	221.33
201.62	228.35
202.089	209.62
202.558	242.39
203.027	328.99
203.495	263.46
203.964	223.67
204.433	293.88
204.902	310.27
205.37	270.48
205.839	321.97
206.307	272.82
206.776	364.1
207.244	279.84
207.712	357.08
208.181	350.06
208.649	275.16
209.117	277.5
209.585	352.4
210.053	307.93
210.521	298.56
210.989	279.84
211.457	268.14
211.925	244.73
212.393	277.5
212.861	310.27
213.328	300.91
213.796	357.08
214.264	256.43
214.731	328.99
215.199	284.52
215.666	321.97
216.133	218.99
216.601	228.35
217.068	284.52
217.535	317.29
218.003	312.61
218.47	233.03
218.937	279.84
219.404	261.12
219.871	286.86
220.338	233.03
220.805	263.46
221.271	282.18
221.738	282.18
222.205	277.5
222.671	235.37
223.138	251.75
223.605	256.43
224.071	326.65
224.538	226.01
225.004	237.71
225.47	244.73
225.937	275.16
226.403	282.18
226.869	209.62
227.335	256.43
227.801	279.84
228.267	265.8
228.733	233.03
229.199	247.07
229.665	204.94
230.131	254.09
230.597	256.43
231.062	277.5
231.528	261.12
231.994	258.78
232.459	317.29
232.925	265.8
233.39	249.41
233.856	305.59
234.321	305.59
234.786	258.78
235.252	237.71
235.717	258.78
236.182	272.82
236.647	300.91
237.112	282.18
237.577	265.8
238.042	314.95
238.507	340.69
238.972	270.48
239.436	326.65
239.901	307.93
240.366	314.95
240.83	284.52
241.295	216.65
241.76	277.5
242.224	258.78
242.688	263.46
243.153	289.2
243.617	293.88
244.081	291.54
244.545	324.31
245.01	340.69
245.474	277.5
245.938	265.8
246.402	261.12
246.866	282.18
247.33	326.65
247.793	310.27
248.257	270.48
248.721	300.91
249.185	317.29
249.648	282.18
250.112	251.75
250.575	263.46
251.039	307.93
251.502	240.05
251.965	312.61
252.429	286.86
252.892	256.43
253.355	272.82
253.818	343.03
254.281	275.16
254.744	291.54
255.207	293.88
255.67	204.94
256.133	249.41
256.596	270.48
257.059	326.65
257.522	289.2
257.984	286.86
258.447	230.69
258.909	286.86
259.372	296.22
259.834	268.14
260.297	230.69
260.759	343.03
261.221	240.05
261.684	254.09
262.146	328.99
262.608	357.08
263.07	277.5
263.532	282.18
263.994	331.33
264.456	359.42
264.918	284.52
265.38	258.78
265.842	270.48
266.303	251.75
266.765	307.93
267.227	284.52
267.688	319.63
268.15	310.27
268.611	319.63
269.072	216.65
269.534	284.52
269.995	303.25
270.456	265.8
270.918	312.61
271.379	284.52
271.84	251.75
272.301	307.93
272.762	261.12
273.223	233.03
273.684	265.8
274.144	328.99
274.605	314.95
275.066	328.99
275.527	296.22
275.987	298.56
276.448	336.01
276.908	319.63
277.369	307.93
277.829	324.31
278.289	221.33
278.75	291.54
279.21	256.43
279.67	282.18
280.13	263.46
280.59	338.35
281.05	284.52
281.51	312.61
281.97	251.75
282.43	279.84
282.89	251.75
283.35	247.07
283.809	289.2
284.269	240.05
284.729	244.73
285.188	310.27
285.648	251.75
286.107	263.46
286.567	305.59
287.026	279.84
287.485	303.25
287.944	282.18
288.404	270.48
288.863	314.95
289.322	314.95
289.781	354.74
290.24	331.33
290.699	244.73
291.158	291.54
291.616	263.46
292.075	343.03
292.534	345.38
292.992	307.93
293.451	317.29
293.91	312.61
294.368	338.35
294.827	254.09
295.285	352.4
295.743	282.18
296.202	275.16
296.66	298.56
297.118	312.61
297.576	291.54
298.034	307.93
298.492	284.52
298.95	305.59
299.408	317.29
299.866	303.25
300.324	240.05
300.781	242.39
301.239	324.31
301.697	347.72
302.154	279.84
302.612	277.5
303.069	296.22
303.527	291.54
303.984	354.74
304.441	324.31
304.899	286.86
305.356	286.86
305.813	303.25
306.27	300.91
306.727	310.27
307.184	291.54
307.641	319.63
308.098	321.97
308.555	331.33
309.012	354.74
309.468	312.61
309.925	265.8
310.382	237.71
310.838	303.25
311.295	333.67
311.751	336.01
312.208	293.88
312.664	312.61
313.12	317.29
313.577	333.67
314.033	282.18
314.489	303.25
314.945	298.56
315.401	235.37
315.857	343.03
316.313	336.01
316.769	251.75
317.225	319.63
317.681	265.8
318.136	310.27
318.592	300.91
319.048	333.67
319.503	303.25
319.959	275.16
320.414	261.12
320.869	312.61
321.325	286.86
321.78	251.75
322.235	303.25
322.691	258.78
323.146	387.5
323.601	268.14
324.056	272.82
324.511	336.01
324.966	310.27
325.421	321.97
325.875	314.95
326.33	359.42
326.785	333.67
327.24	279.84
327.694	298.56
328.149	258.78
328.603	275.16
329.058	324.31
329.512	272.82
329.966	291.54
330.421	357.08
330.875	265.8
331.329	277.5
331.783	293.88
332.237	321.97
332.691	340.69
333.145	251.75
333.599	268.14
334.053	298.56
334.507	317.29
334.96	279.84
335.414	357.08
335.868	291.54
336.321	328.99
336.775	305.59
337.228	319.63
337.682	298.56
338.135	340.69
338.588	298.56
339.042	319.63
339.495	326.65
339.948	263.46
340.401	242.39
340.854	357.08
341.307	317.29
341.76	254.09
342.213	321.97
342.666	352.4
343.119	307.93
343.571	333.67
344.024	298.56
344.477	331.33
344.929	319.63
345.382	324.31
345.834	277.5
346.287	268.14
346.739	336.01
347.191	303.25
347.644	305.59
348.096	324.31
348.548	399.21
349	352.4
349.452	279.84
349.904	314.95
350.356	277.5
350.808	305.59
351.26	324.31
351.711	314.95
352.163	319.63
352.615	338.35
353.066	296.22
353.518	296.22
353.969	310.27
354.421	298.56
354.872	289.2
355.324	310.27
355.775	296.22
356.226	242.39
356.677	300.91
357.128	352.4
357.579	340.69
358.03	254.09
358.481	296.22
358.932	350.06
359.383	282.18
359.834	312.61
360.285	275.16
360.735	291.54
361.186	378.14
361.637	340.69
362.087	382.82
362.538	336.01
362.988	284.52
363.438	261.12
363.889	312.61
364.339	310.27
364.789	263.46
365.239	321.97
365.689	375.8
366.139	321.97
366.589	312.61
367.039	340.69
367.489	373.46
367.939	275.16
368.389	228.35
368.839	321.97
369.288	331.33
369.738	296.22
370.187	359.42
370.637	284.52
371.086	321.97
371.536	303.25
371.985	277.5
372.434	317.29
372.884	312.61
373.333	331.33
373.782	317.29
374.231	319.63
374.68	296.22
375.129	368.78
375.578	321.97
376.027	357.08
376.475	312.61
376.924	272.82
377.373	289.2
377.822	293.88
378.27	275.16
378.719	279.84
379.167	284.52
379.616	343.03
380.064	312.61
380.512	331.33
380.961	286.86
381.409	312.61
381.857	352.4
382.305	289.2
382.753	350.06
383.201	343.03
383.649	284.52
384.097	282.18
384.545	352.4
384.992	392.19
385.44	310.27
385.888	289.2
386.335	359.42
386.783	338.35
387.231	343.03
387.678	275.16
388.125	347.72
388.573	293.88
389.02	218.99
389.467	324.31
389.914	307.93
390.362	303.25
390.809	275.16
391.256	228.35
391.703	305.59
392.15	282.18
392.596	303.25
393.043	312.61
393.49	251.75
393.937	319.63
394.383	284.52
394.83	270.48
395.276	331.33
395.723	300.91
396.169	354.74
396.616	396.87
397.062	300.91
397.508	237.71
397.954	321.97
398.401	343.03
398.847	331.33
399.293	326.65
399.739	336.01
400.185	350.06
400.631	343.03
401.076	289.2
401.522	305.59
401.968	357.08
402.414	265.8
402.859	343.03
403.305	333.67
403.75	319.63
404.196	312.61
404.641	331.33
405.086	347.72
405.532	235.37
405.977	275.16
406.422	350.06
406.867	340.69
407.312	317.29
407.757	331.33
408.202	401.55
408.647	350.06
409.092	289.2
409.537	375.8
409.982	265.8
410.426	310.27
410.871	303.25
411.316	314.95
411.76	298.56
412.205	307.93
412.649	350.06
413.093	326.65
413.538	254.09
413.982	333.67
414.426	333.67
414.87	321.97
415.314	413.25
415.758	321.97
416.202	310.27
416.646	328.99
417.09	336.01
417.534	331.33
417.978	317.29
418.421	298.56
418.865	279.84
419.309	277.5
419.752	265.8
420.196	343.03
420.639	319.63
421.083	296.22
421.526	305.59
421.969	317.29
422.412	324.31
422.856	275.16
423.299	277.5
423.742	305.59
424.185	357.08
424.628	347.72
425.071	317.29
425.513	305.59
425.956	319.63
426.399	303.25
426.842	373.46
427.284	300.91
427.727	268.14
428.169	284.52
428.612	373.46
429.054	338.35
429.497	317.29
429.939	310.27
430.381	289.2
430.823	286.86
431.265	321.97
431.707	343.03
432.149	293.88
432.591	314.95
433.033	366.44
433.475	350.06
433.917	254.09
434.359	317.29
434.8	310.27
435.242	317.29
435.684	321.97
436.125	317.29
436.567	319.63
437.008	340.69
437.449	286.86
437.891	354.74
438.332	333.67
438.773	289.2
439.214	307.93
439.656	277.5
440.097	333.67
440.538	300.91
440.978	310.27
441.419	357.08
441.86	361.76
442.301	296.22
442.742	307.93
443.182	303.25
443.623	279.84
444.063	277.5
444.504	254.09
444.944	314.95
445.385	242.39
445.825	324.31
446.265	343.03
446.706	331.33
447.146	291.54
447.586	268.14
448.026	333.67
448.466	310.27
448.906	350.06
449.346	321.97
449.786	310.27
450.225	286.86
450.665	317.29
451.105	279.84
451.544	326.65
451.984	345.38
452.424	371.12
452.863	333.67
453.302	300.91
453.742	338.35
454.181	263.46
454.62	338.35
455.059	300.91
455.499	317.29
455.938	293.88
456.377	364.1
456.816	345.38
457.254	321.97
457.693	314.95
458.132	331.33
458.571	361.76
459.01	361.76
459.448	331.33
459.887	343.03
460.325	298.56
460.764	296.22
461.202	291.54
461.641	340.69
462.079	328.99
462.517	300.91
462.955	314.95
463.393	317.29
463.832	345.38
464.27	275.16
464.708	359.42
465.145	268.14
465.583	357.08
466.021	305.59
466.459	331.33
466.897	340.69
467.334	282.18
467.772	279.84
468.209	324.31
468.647	256.43
469.084	321.97
469.522	275.16
469.959	282.18
470.396	314.95
470.833	354.74
471.271	326.65
471.708	289.2
472.145	284.52
472.582	399.21
473.019	258.78
473.456	314.95
473.892	333.67
474.329	326.65
474.766	328.99
475.202	300.91
475.639	314.95
476.076	380.48
476.512	319.63
476.949	270.48
477.385	298.56
477.821	305.59
478.258	291.54
478.694	242.39
479.13	333.67
479.566	366.44
480.002	296.22
480.438	307.93
480.874	314.95
481.31	319.63
481.746	354.74
482.181	282.18
482.617	366.44
483.053	352.4
483.488	275.16
483.924	347.72
484.36	326.65
484.795	270.48
485.23	310.27
485.666	326.65
486.101	350.06
486.536	282.18
486.971	300.91
487.407	270.48
487.842	258.78
488.277	265.8
488.712	256.43
489.146	321.97
489.581	385.16
490.016	300.91
490.451	401.55
490.885	354.74
491.32	359.42
491.755	326.65
492.189	312.61
492.624	357.08
493.058	338.35
493.492	312.61
493.927	310.27
494.361	307.93
494.795	331.33
495.229	284.52
495.663	317.29
496.097	293.88
496.531	324.31
496.965	317.29
497.399	336.01
497.833	282.18
498.266	307.93
498.7	343.03
499.134	328.99
499.567	328.99
500.001	345.38
500.434	333.67
500.868	319.63
501.301	340.69
501.734	289.2
502.168	357.08
502.601	296.22
503.034	331.33
503.467	331.33
503.9	305.59
504.333	378.14
504.766	282.18
505.199	368.78
505.632	312.61
506.064	258.78
506.497	331.33
506.93	345.38
507.362	317.29
507.795	284.52
508.227	244.73
508.66	331.33
509.092	361.76
509.524	357.08
509.956	307.93
510.389	312.61
510.821	364.1
511.253	357.08
511.685	340.69
512.117	324.31
512.549	336.01
512.981	300.91
513.412	331.33
513.844	256.43
514.276	338.35
514.707	352.4
515.139	293.88
515.571	279.84
516.002	284.52
516.433	317.29
516.865	366.44
517.296	303.25
517.727	314.95
518.159	364.1
518.59	371.12
519.021	321.97
519.452	317.29
519.883	371.12
520.314	361.76
520.744	314.95
521.175	312.61
521.606	272.82
522.037	333.67
522.467	347.72
522.898	380.48
523.328	364.1
523.759	303.25
524.189	361.76
524.62	190.9
525.05	277.5
525.48	296.22
525.91	317.29
526.341	305.59
526.771	331.33
527.201	338.35
527.631	277.5
528.061	352.4
528.49	296.22
528.92	321.97
529.35	331.33
529.78	427.29
530.209	310.27
530.639	296.22
531.068	317.29
531.498	312.61
531.927	310.27
532.357	307.93
532.786	328.99
533.215	272.82
533.644	368.78
534.074	354.74
534.503	389.85
534.932	293.88
535.361	298.56
535.79	331.33
536.218	371.12
536.647	324.31
537.076	284.52
537.505	324.31
537.933	326.65
538.362	305.59
538.79	277.5
539.219	331.33
539.647	291.54
540.076	286.86
540.504	244.73
540.932	338.35
541.36	392.19
541.788	303.25
542.217	328.99
542.645	368.78
543.073	326.65
543.5	333.67
543.928	279.84
544.356	331.33
544.784	350.06
545.211	333.67
545.639	286.86
546.067	338.35
546.494	368.78
546.922	340.69
547.349	235.37
547.776	314.95
548.204	321.97
548.631	364.1
549.058	336.01
549.485	303.25
549.912	319.63
550.339	378.14
550.766	272.82
551.193	310.27
551.62	331.33
552.047	364.1
552.474	354.74
552.9	307.93
553.327	345.38
553.754	345.38
554.18	305.59
554.607	300.91
555.033	343.03
555.459	319.63
555.886	343.03
556.312	399.21
556.738	275.16
557.164	333.67
557.59	359.42
558.016	258.78
558.442	328.99
558.868	284.52
559.294	343.03
559.72	261.12
560.145	328.99
560.571	340.69
560.997	312.61
561.422	343.03
561.848	324.31
562.273	336.01
562.699	275.16
563.124	359.42
563.549	291.54
563.974	277.5
564.4	347.72
564.825	261.12
565.25	326.65
565.675	321.97
566.1	328.99
566.525	312.61
566.95	427.29
567.374	361.76
567.799	382.82
568.224	256.43
568.648	284.52
569.073	305.59
569.497	291.54
569.922	296.22
570.346	317.29
570.771	354.74
571.195	333.67
571.619	345.38
572.043	352.4
572.467	333.67
572.891	352.4
573.315	371.12
573.739	319.63
574.163	361.76
574.587	282.18
575.011	310.27
575.435	324.31
575.858	289.2
576.282	314.95
576.705	326.65
577.129	270.48
577.552	314.95
577.976	343.03
578.399	310.27
578.822	300.91
579.245	268.14
579.669	310.27
580.092	314.95
580.515	303.25
580.938	331.33
581.361	319.63
581.784	312.61
582.206	310.27
582.629	331.33
583.052	326.65
583.474	293.88
583.897	307.93
584.32	340.69
584.742	359.42
585.165	286.86
585.587	345.38
586.009	244.73
586.431	340.69
586.854	350.06
587.276	338.35
587.698	277.5
588.12	279.84
588.542	340.69
588.964	312.61
589.386	298.56
589.807	333.67
590.229	366.44
590.651	298.56
591.073	312.61
591.494	328.99
591.916	319.63
592.337	261.12
592.759	319.63
593.18	289.2
593.601	289.2
594.022	340.69
594.444	310.27
594.865	382.82
595.286	282.18
595.707	268.14
596.128	373.46
596.549	312.61
596.97	352.4
597.39	336.01
597.811	319.63
598.232	333.67
598.652	293.88
599.073	314.95
599.494	291.54
599.914	303.25
600.334	361.76
600.755	359.42
601.175	314.95
601.595	307.93
602.015	340.69
602.436	324.31
602.856	387.5
603.276	291.54
603.696	371.12
604.115	312.61
604.535	328.99
604.955	261.12
605.375	312.61
605.794	338.35
606.214	284.52
606.634	303.25
607.053	282.18
607.473	293.88
607.892	336.01
608.311	298.56
608.731	354.74
609.15	312.61
609.569	265.8
609.988	282.18
610.407	361.76
610.826	338.35
611.245	293.88
611.664	359.42
612.083	298.56
612.501	226.01
612.92	265.8
613.339	340.69
613.757	275.16
614.176	291.54
614.594	284.52
615.013	368.78
615.431	345.38
615.85	331.33
616.268	350.06
616.686	387.5
617.104	289.2
617.522	324.31
617.94	326.65
618.358	317.29
618.776	317.29
619.194	352.4
619.612	296.22
620.03	291.54
620.447	347.72
620.865	314.95
621.282	343.03
621.7	338.35
622.117	340.69
622.535	373.46
622.952	291.54
623.369	328.99
623.787	340.69
624.204	293.88
624.621	305.59
625.038	275.16
625.455	312.61
625.872	345.38
626.289	289.2
626.706	343.03
627.123	289.2
627.539	293.88
627.956	338.35
628.373	357.08
628.789	338.35
629.206	343.03
629.622	317.29
630.038	340.69
630.455	336.01
630.871	321.97
631.287	296.22
631.703	385.16
632.12	359.42
632.536	328.99
632.952	326.65
633.368	300.91
633.783	345.38
634.199	256.43
634.615	321.97
635.031	310.27
635.446	298.56
635.862	352.4
636.277	275.16
636.693	326.65
637.108	345.38
637.524	361.76
637.939	375.8
638.354	279.84
638.77	324.31
639.185	338.35
639.6	291.54
640.015	298.56
640.43	296.22
640.845	324.31
641.259	321.97
641.674	289.2
642.089	305.59
642.504	291.54
642.918	277.5
643.333	326.65
643.747	357.08
644.162	277.5
644.576	336.01
644.991	305.59
645.405	375.8
645.819	321.97
646.233	347.72
646.647	305.59
647.061	305.59
647.475	331.33
647.889	284.52
648.303	265.8
648.717	296.22
649.131	347.72
649.545	270.48
649.958	289.2
650.372	326.65
650.785	291.54
651.199	350.06
651.612	328.99
652.026	347.72
652.439	375.8
652.852	312.61
653.266	293.88
653.679	368.78
654.092	307.93
654.505	336.01
654.918	401.55
655.331	279.84
655.744	336.01
656.156	371.12
656.569	357.08
656.982	314.95
657.394	277.5
657.807	286.86
658.22	338.35
658.632	336.01
659.044	291.54
659.457	324.31
659.869	305.59
660.281	307.93
660.693	324.31
661.106	275.16
661.518	272.82
661.93	300.91
662.342	263.46
662.754	347.72
663.165	354.74
663.577	279.84
663.989	336.01
664.401	228.35
664.812	321.97
665.224	282.18
665.635	286.86
666.047	263.46
666.458	275.16
666.869	270.48
667.281	307.93
667.692	328.99
668.103	251.75
668.514	251.75
668.925	328.99
669.336	314.95
669.747	303.25
670.158	324.31
670.569	305.59
670.979	326.65
671.39	272.82
671.801	396.87
672.211	314.95
672.622	352.4
673.032	286.86
673.443	364.1
673.853	251.75
674.263	258.78
674.674	361.76
675.084	272.82
675.494	310.27
675.904	310.27
676.314	333.67
676.724	319.63
677.134	350.06
677.544	331.33
677.953	340.69
678.363	328.99
678.773	392.19
679.182	373.46
679.592	378.14
680.001	279.84
680.411	307.93
680.82	286.86
681.23	291.54
681.639	261.12
682.048	202.6
682.457	291.54
682.866	394.53
683.275	284.52
683.684	328.99
684.093	314.95
684.502	336.01
684.911	261.12
685.32	345.38
685.728	275.16
686.137	244.73
686.546	258.78
686.954	300.91
687.363	263.46
687.771	279.84
688.179	261.12
688.588	300.91
688.996	312.61
689.404	350.06
689.812	333.67
690.22	286.86
690.628	321.97
691.036	312.61
691.444	340.69
691.852	352.4
692.26	296.22
692.667	350.06
693.075	279.84
693.483	289.2
693.89	286.86
694.298	347.72
694.705	233.03
695.112	389.85
695.52	310.27
695.927	310.27
696.334	303.25
696.741	319.63
697.148	314.95
697.555	340.69
697.962	326.65
698.369	317.29
698.776	326.65
699.183	371.12
699.59	340.69
699.996	296.22
700.403	324.31
700.81	314.95
701.216	333.67
701.623	406.23
702.029	300.91
702.435	338.35
702.842	230.69
703.248	305.59
703.654	303.25
704.06	275.16
704.466	331.33
704.872	305.59
705.278	268.14
705.684	284.52
706.09	336.01
706.496	293.88
706.901	352.4
707.307	338.35
707.712	298.56
708.118	310.27
708.523	289.2
708.929	310.27
709.334	350.06
709.74	305.59
710.145	293.88
710.55	296.22
710.955	354.74
711.36	298.56
711.765	314.95
712.17	354.74
712.575	319.63
712.98	801.78
713.385	333.67
713.789	305.59
714.194	314.95
714.599	321.97
715.003	244.73
715.408	343.03
715.812	324.31
716.217	277.5
716.621	307.93
717.025	298.56
717.429	277.5
717.833	296.22
718.238	366.44
718.642	291.54
719.046	310.27
719.449	333.67
719.853	254.09
720.257	298.56
720.661	340.69
721.065	303.25
721.468	258.78
721.872	284.52
722.275	338.35
722.679	420.27
723.082	321.97
723.485	314.95
723.889	326.65
724.292	293.88
724.695	314.95
725.098	354.74
725.501	328.99
725.904	310.27
726.307	265.8
726.71	244.73
727.113	352.4
727.516	317.29
727.918	307.93
728.321	233.03
728.724	331.33
729.126	286.86
729.529	389.85
729.931	254.09
730.333	338.35
730.736	284.52
731.138	328.99
731.54	338.35
731.942	275.16
732.344	307.93
732.746	359.42
733.148	293.88
733.55	321.97
733.952	312.61
734.354	263.46
734.756	289.2
735.157	298.56
735.559	228.35
735.96	242.39
736.362	307.93
736.763	296.22
737.165	282.18
737.566	251.75
737.967	291.54
738.368	347.72
738.77	357.08
739.171	336.01
739.572	249.41
739.973	359.42
740.374	312.61
740.774	359.42
741.175	333.67
741.576	385.16
741.977	321.97
742.377	326.65
742.778	275.16
743.178	328.99
743.579	336.01
743.979	298.56
744.379	282.18
744.78	340.69
745.18	396.87
745.58	343.03
745.98	324.31
746.38	321.97
746.78	336.01
747.18	387.5
747.58	286.86
747.98	277.5
748.38	326.65
748.779	310.27
749.179	251.75
749.578	286.86
749.978	296.22
750.377	319.63
750.777	303.25
751.176	328.99
751.575	272.82
751.975	319.63
752.374	359.42
752.773	317.29
753.172	312.61
753.571	392.19
753.97	270.48
754.369	345.38
754.768	268.14
755.166	303.25
755.565	282.18
755.964	324.31
756.362	258.78
756.761	300.91
757.159	279.84
757.558	214.31
757.956	291.54
758.354	310.27
758.753	298.56
759.151	258.78
759.549	211.96
759.947	345.38
760.345	275.16
760.743	263.46
761.141	300.91
761.539	333.67
761.936	328.99
762.334	354.74
762.732	321.97
763.129	345.38
763.527	300.91
763.924	326.65
764.322	305.59
