Data from Al_FLMS009871__936__16-19-07-522.txt Node

Date: Fri Mar 08 16:19:07 CST 2024
User: pe5414po
Spectrometer: FLMS00987
Trigger mode: 0
Integration Time (sec): 1.000000E-1
Scans to average: 1
Electric dark correction enabled: true
Nonlinearity correction enabled: false
Boxcar width: 0
XAxis mode: Wavelengths
Number of Pixels in Spectrum: 2048
>>>>>Begin Spectral Data<<<<<
188.938	-107.08
189.409	-107.08
189.879	-107.08
190.349	-130.48
190.819	-114.1
191.29	-107.08
191.76	-88.36
192.23	-50.91
192.7	-29.84
193.17	-13.46
193.64	-139.85
194.109	5.27
194.579	-46.23
195.049	-46.23
195.519	9.95
195.988	77.82
196.458	47.4
196.927	59.1
197.397	101.23
197.866	115.27
198.336	105.91
198.805	152.72
199.274	176.13
199.744	169.1
200.213	194.85
200.682	204.21
201.151	218.25
201.62	253.36
202.089	222.94
202.558	262.73
203.027	215.91
203.495	255.7
203.964	251.02
204.433	272.09
204.902	269.75
205.37	293.15
205.839	335.28
206.307	300.17
206.776	293.15
207.244	253.36
207.712	279.11
208.181	234.64
208.649	349.32
209.117	241.66
209.585	307.2
210.053	290.81
210.521	307.2
210.989	283.79
211.457	244
211.925	201.87
212.393	246.34
212.861	281.45
213.328	368.05
213.796	325.92
214.264	295.49
214.731	255.7
215.199	260.38
215.666	241.66
216.133	229.96
216.601	286.13
217.068	236.98
217.535	276.77
218.003	286.13
218.47	300.17
218.937	300.17
219.404	246.34
219.871	351.67
220.338	281.45
220.805	293.15
221.271	251.02
221.738	330.6
222.205	281.45
222.671	246.34
223.138	227.62
223.605	248.68
224.071	269.75
224.538	269.75
225.004	265.07
225.47	302.51
225.937	225.28
226.403	258.04
226.869	253.36
227.335	251.02
227.801	246.34
228.267	265.07
228.733	253.36
229.199	288.47
229.665	295.49
230.131	288.47
230.597	321.24
231.062	302.51
231.528	225.28
231.994	244
232.459	215.91
232.925	204.21
233.39	265.07
233.856	279.11
234.321	279.11
234.786	241.66
235.252	220.6
235.717	316.56
236.182	286.13
236.647	248.68
237.112	253.36
237.577	258.04
238.042	267.41
238.507	356.35
238.972	267.41
239.436	241.66
239.901	332.94
240.366	332.94
240.83	241.66
241.295	286.13
241.76	286.13
242.224	281.45
242.688	272.09
243.153	314.22
243.617	272.09
244.081	295.49
244.545	339.96
245.01	307.2
245.474	290.81
245.938	246.34
246.402	300.17
246.866	311.88
247.33	342.3
247.793	293.15
248.257	246.34
248.721	283.79
249.185	274.43
249.648	337.62
250.112	316.56
250.575	255.7
251.039	199.53
251.502	265.07
251.965	236.98
252.429	248.68
252.892	269.75
253.355	246.34
253.818	311.88
254.281	307.2
254.744	220.6
255.207	239.32
255.67	297.83
256.133	274.43
256.596	239.32
257.059	253.36
257.522	332.94
257.984	290.81
258.447	255.7
258.909	220.6
259.372	293.15
259.834	225.28
260.297	307.2
260.759	293.15
261.221	253.36
261.684	260.38
262.146	246.34
262.608	267.41
263.07	297.83
263.532	274.43
263.994	295.49
264.456	255.7
264.918	295.49
265.38	286.13
265.842	321.24
266.303	276.77
266.765	283.79
267.227	276.77
267.688	229.96
268.15	307.2
268.611	272.09
269.072	255.7
269.534	234.64
269.995	244
270.456	262.73
270.918	302.51
271.379	283.79
271.84	283.79
272.301	368.05
272.762	251.02
273.223	265.07
273.684	265.07
274.144	274.43
274.605	316.56
275.066	258.04
275.527	246.34
275.987	311.88
276.448	283.79
276.908	258.04
277.369	304.85
277.829	246.34
278.289	194.85
278.75	279.11
279.21	314.22
279.67	248.68
280.13	255.7
280.59	262.73
281.05	337.62
281.51	290.81
281.97	309.54
282.43	293.15
282.89	316.56
283.35	339.96
283.809	302.51
284.269	307.2
284.729	213.57
285.188	332.94
285.648	293.15
286.107	325.92
286.567	239.32
287.026	323.58
287.485	323.58
287.944	321.24
288.404	234.64
288.863	262.73
289.322	295.49
289.781	244
290.24	232.3
290.699	260.38
291.158	335.28
291.616	253.36
292.075	302.51
292.534	290.81
292.992	295.49
293.451	318.9
293.91	302.51
294.368	293.15
294.827	297.83
295.285	267.41
295.743	297.83
296.202	265.07
296.66	246.34
297.118	248.68
297.576	309.54
298.034	295.49
298.492	279.11
298.95	288.47
299.408	361.03
299.866	358.69
300.324	276.77
300.781	290.81
301.239	332.94
301.697	295.49
302.154	316.56
302.612	314.22
303.069	269.75
303.527	328.26
303.984	318.9
304.441	323.58
304.899	295.49
305.356	286.13
305.813	335.28
306.27	316.56
306.727	332.94
307.184	309.54
307.641	328.26
308.098	323.58
308.555	272.09
309.012	295.49
309.468	302.51
309.925	307.2
310.382	262.73
310.838	372.73
311.295	276.77
311.751	236.98
312.208	332.94
312.664	293.15
313.12	309.54
313.577	323.58
314.033	297.83
314.489	318.9
314.945	307.2
315.401	354.01
315.857	318.9
316.313	300.17
316.769	274.43
317.225	295.49
317.681	286.13
318.136	274.43
318.592	358.69
319.048	260.38
319.503	314.22
319.959	295.49
320.414	279.11
320.869	288.47
321.325	346.98
321.78	356.35
322.235	328.26
322.691	314.22
323.146	290.81
323.601	293.15
324.056	260.38
324.511	283.79
324.966	318.9
325.421	283.79
325.875	283.79
326.33	351.67
326.785	279.11
327.24	288.47
327.694	279.11
328.149	274.43
328.603	295.49
329.058	356.35
329.512	286.13
329.966	295.49
330.421	302.51
330.875	290.81
331.329	222.94
331.783	286.13
332.237	286.13
332.691	325.92
333.145	265.07
333.599	290.81
334.053	290.81
334.507	309.54
334.96	346.98
335.414	297.83
335.868	302.51
336.321	241.66
336.775	279.11
337.228	316.56
337.682	272.09
338.135	269.75
338.588	300.17
339.042	276.77
339.495	248.68
339.948	330.6
340.401	337.62
340.854	297.83
341.307	281.45
341.76	248.68
342.213	372.73
342.666	311.88
343.119	304.85
343.571	288.47
344.024	276.77
344.477	309.54
344.929	311.88
345.382	286.13
345.834	346.98
346.287	295.49
346.739	274.43
347.191	335.28
347.644	295.49
348.096	302.51
348.548	286.13
349	344.64
349.452	309.54
349.904	318.9
350.356	344.64
350.808	262.73
351.26	290.81
351.711	316.56
352.163	311.88
352.615	337.62
353.066	293.15
353.518	339.96
353.969	342.3
354.421	307.2
354.872	222.94
355.324	283.79
355.775	283.79
356.226	323.58
356.677	314.22
357.128	295.49
357.579	293.15
358.03	265.07
358.481	272.09
358.932	253.36
359.383	328.26
359.834	325.92
360.285	302.51
360.735	321.24
361.186	349.32
361.637	302.51
362.087	318.9
362.538	283.79
362.988	325.92
363.438	358.69
363.889	335.28
364.339	316.56
364.789	297.83
365.239	295.49
365.689	325.92
366.139	290.81
366.589	304.85
367.039	314.22
367.489	304.85
367.939	370.39
368.389	325.92
368.839	337.62
369.288	318.9
369.738	295.49
370.187	290.81
370.637	309.54
371.086	325.92
371.536	339.96
371.985	290.81
372.434	283.79
372.884	269.75
373.333	309.54
373.782	279.11
374.231	358.69
374.68	222.94
375.129	281.45
375.578	283.79
376.027	258.04
376.475	330.6
376.924	281.45
377.373	297.83
377.822	330.6
378.27	300.17
378.719	316.56
379.167	288.47
379.616	309.54
380.064	293.15
380.512	396.14
380.961	234.64
381.409	281.45
381.857	283.79
382.305	363.37
382.753	269.75
383.201	236.98
383.649	297.83
384.097	251.02
384.545	304.85
384.992	295.49
385.44	302.51
385.888	290.81
386.335	346.98
386.783	365.71
387.231	346.98
387.678	330.6
388.125	321.24
388.573	349.32
389.02	344.64
389.467	283.79
389.914	363.37
390.362	316.56
390.809	349.32
391.256	403.16
391.703	311.88
392.15	342.3
392.596	295.49
393.043	311.88
393.49	311.88
393.937	227.62
394.383	295.49
394.83	253.36
395.276	372.73
395.723	232.3
396.169	307.2
396.616	290.81
397.062	311.88
397.508	290.81
397.954	356.35
398.401	375.07
398.847	279.11
399.293	358.69
399.739	288.47
400.185	274.43
400.631	339.96
401.076	295.49
401.522	372.73
401.968	276.77
402.414	279.11
402.859	321.24
403.305	276.77
403.75	304.85
404.196	370.39
404.641	290.81
405.086	344.64
405.532	272.09
405.977	314.22
406.422	342.3
406.867	325.92
407.312	286.13
407.757	349.32
408.202	318.9
408.647	304.85
409.092	309.54
409.537	286.13
409.982	354.01
410.426	349.32
410.871	309.54
411.316	260.38
411.76	323.58
412.205	309.54
412.649	325.92
413.093	274.43
413.538	234.64
413.982	295.49
414.426	354.01
414.87	300.17
415.314	354.01
415.758	288.47
416.202	375.07
416.646	332.94
417.09	330.6
417.534	314.22
417.978	295.49
418.421	293.15
418.865	281.45
419.309	354.01
419.752	328.26
420.196	328.26
420.639	335.28
421.083	311.88
421.526	351.67
421.969	330.6
422.412	293.15
422.856	267.41
423.299	377.41
423.742	356.35
424.185	297.83
424.628	236.98
425.071	262.73
425.513	339.96
425.956	246.34
426.399	300.17
426.842	344.64
427.284	279.11
427.727	293.15
428.169	311.88
428.612	316.56
429.054	337.62
429.497	346.98
429.939	339.96
430.381	283.79
430.823	281.45
431.265	279.11
431.707	288.47
432.149	302.51
432.591	283.79
433.033	321.24
433.475	309.54
433.917	225.28
434.359	358.69
434.8	358.69
435.242	288.47
435.684	358.69
436.125	302.51
436.567	363.37
437.008	288.47
437.449	328.26
437.891	316.56
438.332	283.79
438.773	272.09
439.214	346.98
439.656	363.37
440.097	309.54
440.538	311.88
440.978	325.92
441.419	325.92
441.86	309.54
442.301	297.83
442.742	288.47
443.182	403.16
443.623	318.9
444.063	349.32
444.504	262.73
444.944	323.58
445.385	283.79
445.825	321.24
446.265	265.07
446.706	316.56
447.146	262.73
447.586	321.24
448.026	269.75
448.466	311.88
448.906	295.49
449.346	325.92
449.786	339.96
450.225	384.43
450.665	349.32
451.105	314.22
451.544	300.17
451.984	283.79
452.424	311.88
452.863	246.34
453.302	332.94
453.742	279.11
454.181	255.7
454.62	307.2
455.059	283.79
455.499	346.98
455.938	351.67
456.377	316.56
456.816	290.81
457.254	339.96
457.693	283.79
458.132	309.54
458.571	239.32
459.01	311.88
459.448	293.15
459.887	307.2
460.325	354.01
460.764	286.13
461.202	302.51
461.641	377.41
462.079	342.3
462.517	300.17
462.955	304.85
463.393	307.2
463.832	321.24
464.27	356.35
464.708	344.64
465.145	346.98
465.583	281.45
466.021	316.56
466.459	302.51
466.897	314.22
467.334	269.75
467.772	274.43
468.209	323.58
468.647	311.88
469.084	337.62
469.522	318.9
469.959	382.09
470.396	276.77
470.833	222.94
471.271	307.2
471.708	265.07
472.145	290.81
472.582	379.75
473.019	272.09
473.456	328.26
473.892	316.56
474.329	358.69
474.766	300.17
475.202	265.07
475.639	377.41
476.076	318.9
476.512	372.73
476.949	330.6
477.385	283.79
477.821	358.69
478.258	316.56
478.694	300.17
479.13	269.75
479.566	297.83
480.002	297.83
480.438	286.13
480.874	293.15
481.31	314.22
481.746	351.67
482.181	234.64
482.617	253.36
483.053	255.7
483.488	281.45
483.924	290.81
484.36	265.07
484.795	288.47
485.23	339.96
485.666	321.24
486.101	354.01
486.536	311.88
486.971	281.45
487.407	279.11
487.842	307.2
488.277	244
488.712	325.92
489.146	293.15
489.581	342.3
490.016	346.98
490.451	269.75
490.885	290.81
491.32	349.32
491.755	365.71
492.189	382.09
492.624	323.58
493.058	330.6
493.492	265.07
493.927	302.51
494.361	295.49
494.795	393.8
495.229	283.79
495.663	283.79
496.097	321.24
496.531	328.26
496.965	321.24
497.399	325.92
497.833	339.96
498.266	311.88
498.7	316.56
499.134	372.73
499.567	286.13
500.001	419.54
500.434	307.2
500.868	328.26
501.301	248.68
501.734	332.94
502.168	314.22
502.601	318.9
503.034	325.92
503.467	323.58
503.9	342.3
504.333	290.81
504.766	283.79
505.199	295.49
505.632	262.73
506.064	318.9
506.497	293.15
506.93	269.75
507.362	290.81
507.795	274.43
508.227	321.24
508.66	297.83
509.092	323.58
509.524	377.41
509.956	283.79
510.389	335.28
510.821	309.54
511.253	346.98
511.685	251.02
512.117	316.56
512.549	253.36
512.981	311.88
513.412	260.38
513.844	342.3
514.276	248.68
514.707	274.43
515.139	293.15
515.571	328.26
516.002	248.68
516.433	276.77
516.865	274.43
517.296	321.24
517.727	344.64
518.159	398.48
518.59	304.85
519.021	330.6
519.452	325.92
519.883	281.45
520.314	300.17
520.744	328.26
521.175	311.88
521.606	370.39
522.037	265.07
522.467	288.47
522.898	321.24
523.328	354.01
523.759	295.49
524.189	269.75
524.62	323.58
525.05	325.92
525.48	342.3
525.91	314.22
526.341	318.9
526.771	258.04
527.201	356.35
527.631	361.03
528.061	286.13
528.49	260.38
528.92	300.17
529.35	288.47
529.78	309.54
530.209	370.39
530.639	253.36
531.068	307.2
531.498	281.45
531.927	269.75
532.357	332.94
532.786	269.75
533.215	290.81
533.644	297.83
534.074	403.16
534.503	290.81
534.932	290.81
535.361	321.24
535.79	248.68
536.218	339.96
536.647	288.47
537.076	363.37
537.505	330.6
537.933	286.13
538.362	325.92
538.79	281.45
539.219	398.48
539.647	325.92
540.076	304.85
540.504	286.13
540.932	260.38
541.36	332.94
541.788	346.98
542.217	351.67
542.645	304.85
543.073	375.07
543.5	351.67
543.928	330.6
544.356	267.41
544.784	290.81
545.211	269.75
545.639	309.54
546.067	288.47
546.494	328.26
546.922	358.69
547.349	365.71
547.776	283.79
548.204	309.54
548.631	293.15
549.058	330.6
549.485	354.01
549.912	311.88
550.339	358.69
550.766	330.6
551.193	297.83
551.62	290.81
552.047	339.96
552.474	339.96
552.9	311.88
553.327	389.11
553.754	307.2
554.18	316.56
554.607	344.64
555.033	307.2
555.459	286.13
555.886	351.67
556.312	318.9
556.738	314.22
557.164	290.81
557.59	253.36
558.016	346.98
558.442	311.88
558.868	258.04
559.294	330.6
559.72	339.96
560.145	335.28
560.571	269.75
560.997	309.54
561.422	339.96
561.848	316.56
562.273	281.45
562.699	286.13
563.124	354.01
563.549	325.92
563.974	328.26
564.4	293.15
564.825	384.43
565.25	272.09
565.675	323.58
566.1	236.98
566.525	269.75
566.95	283.79
567.374	269.75
567.799	337.62
568.224	325.92
568.648	253.36
569.073	339.96
569.497	384.43
569.922	325.92
570.346	328.26
570.771	279.11
571.195	321.24
571.619	311.88
572.043	295.49
572.467	246.34
572.891	314.22
573.315	307.2
573.739	279.11
574.163	314.22
574.587	358.69
575.011	304.85
575.435	318.9
575.858	314.22
576.282	286.13
576.705	354.01
577.129	342.3
577.552	382.09
577.976	342.3
578.399	375.07
578.822	323.58
579.245	276.77
579.669	309.54
580.092	304.85
580.515	307.2
580.938	244
581.361	328.26
581.784	302.51
582.206	342.3
582.629	272.09
583.052	325.92
583.474	311.88
583.897	316.56
584.32	300.17
584.742	279.11
585.165	323.58
585.587	368.05
586.009	286.13
586.431	349.32
586.854	309.54
587.276	281.45
587.698	354.01
588.12	300.17
588.542	330.6
588.964	274.43
589.386	311.88
589.807	290.81
590.229	236.98
590.651	335.28
591.073	316.56
591.494	335.28
591.916	349.32
592.337	269.75
592.759	323.58
593.18	304.85
593.601	286.13
594.022	288.47
594.444	393.8
594.865	328.26
595.286	300.17
595.707	304.85
596.128	309.54
596.549	297.83
596.97	288.47
597.39	321.24
597.811	328.26
598.232	344.64
598.652	272.09
599.073	272.09
599.494	349.32
599.914	279.11
600.334	323.58
600.755	297.83
601.175	325.92
601.595	265.07
602.015	337.62
602.436	323.58
602.856	431.24
603.276	384.43
603.696	297.83
604.115	288.47
604.535	342.3
604.955	354.01
605.375	283.79
605.794	361.03
606.214	290.81
606.634	272.09
607.053	323.58
607.473	349.32
607.892	281.45
608.311	358.69
608.731	354.01
609.15	323.58
609.569	288.47
609.988	307.2
610.407	293.15
610.826	304.85
611.245	286.13
611.664	290.81
612.083	262.73
612.501	293.15
612.92	393.8
613.339	295.49
613.757	279.11
614.176	302.51
614.594	372.73
615.013	293.15
615.431	351.67
615.85	244
616.268	396.14
616.686	356.35
617.104	293.15
617.522	332.94
617.94	297.83
618.358	354.01
618.776	344.64
619.194	302.51
619.612	295.49
620.03	300.17
620.447	309.54
620.865	365.71
621.282	372.73
621.7	398.48
622.117	311.88
622.535	316.56
622.952	288.47
623.369	262.73
623.787	318.9
624.204	251.02
624.621	323.58
625.038	361.03
625.455	349.32
625.872	260.38
626.289	318.9
626.706	370.39
627.123	258.04
627.539	213.57
627.956	375.07
628.373	335.28
628.789	356.35
629.206	304.85
629.622	337.62
630.038	297.83
630.455	295.49
630.871	382.09
631.287	244
631.703	274.43
632.12	365.71
632.536	318.9
632.952	332.94
633.368	283.79
633.783	316.56
634.199	316.56
634.615	279.11
635.031	328.26
635.446	297.83
635.862	323.58
636.277	309.54
636.693	361.03
637.108	325.92
637.524	365.71
637.939	361.03
638.354	335.28
638.77	286.13
639.185	361.03
639.6	321.24
640.015	276.77
640.43	239.32
640.845	276.77
641.259	314.22
641.674	311.88
642.089	304.85
642.504	318.9
642.918	304.85
643.333	281.45
643.747	325.92
644.162	389.11
644.576	414.86
644.991	290.81
645.405	265.07
645.819	318.9
646.233	290.81
646.647	339.96
647.061	330.6
647.475	396.14
647.889	344.64
648.303	339.96
648.717	297.83
649.131	386.77
649.545	302.51
649.958	276.77
650.372	311.88
650.785	276.77
651.199	321.24
651.612	288.47
652.026	332.94
652.439	269.75
652.852	286.13
653.266	302.51
653.679	384.43
654.092	370.39
654.505	276.77
654.918	365.71
655.331	246.34
655.744	330.6
656.156	290.81
656.569	262.73
656.982	325.92
657.394	283.79
657.807	335.28
658.22	363.37
658.632	349.32
659.044	337.62
659.457	330.6
659.869	351.67
660.281	276.77
660.693	297.83
661.106	349.32
661.518	354.01
661.93	393.8
662.342	342.3
662.754	314.22
663.165	283.79
663.577	398.48
663.989	330.6
664.401	351.67
664.812	332.94
665.224	330.6
665.635	337.62
666.047	288.47
666.458	318.9
666.869	323.58
667.281	368.05
667.692	368.05
668.103	304.85
668.514	279.11
668.925	276.77
669.336	241.66
669.747	288.47
670.158	323.58
670.569	262.73
670.979	314.22
671.39	295.49
671.801	300.17
672.211	384.43
672.622	321.24
673.032	314.22
673.443	295.49
673.853	293.15
674.263	227.62
674.674	269.75
675.084	262.73
675.494	309.54
675.904	344.64
676.314	297.83
676.724	309.54
677.134	255.7
677.544	363.37
677.953	314.22
678.363	328.26
678.773	386.77
679.182	302.51
679.592	295.49
680.001	328.26
680.411	293.15
680.82	368.05
681.23	288.47
681.639	304.85
682.048	344.64
682.457	297.83
682.866	283.79
683.275	258.04
683.684	318.9
684.093	281.45
684.502	272.09
684.911	265.07
685.32	304.85
685.728	358.69
686.137	269.75
686.546	339.96
686.954	232.3
687.363	234.64
687.771	316.56
688.179	286.13
688.588	363.37
688.996	272.09
689.404	349.32
689.812	351.67
690.22	286.13
690.628	351.67
691.036	354.01
691.444	255.7
691.852	258.04
692.26	318.9
692.667	361.03
693.075	346.98
693.483	335.28
693.89	290.81
694.298	316.56
694.705	290.81
695.112	297.83
695.52	351.67
695.927	316.56
696.334	304.85
696.741	288.47
697.148	356.35
697.555	323.58
697.962	323.58
698.369	314.22
698.776	309.54
699.183	335.28
699.59	267.41
699.996	281.45
700.403	361.03
700.81	321.24
701.216	323.58
701.623	304.85
702.029	297.83
702.435	342.3
702.842	316.56
703.248	323.58
703.654	286.13
704.06	304.85
704.466	262.73
704.872	314.22
705.278	253.36
705.684	375.07
706.09	351.67
706.496	302.51
706.901	309.54
707.307	307.2
707.712	297.83
708.118	328.26
708.523	302.51
708.929	339.96
709.334	337.62
709.74	267.41
710.145	232.3
710.55	339.96
710.955	335.28
711.36	330.6
711.765	290.81
712.17	290.81
712.575	283.79
712.98	889.99
713.385	372.73
713.789	321.24
714.194	325.92
714.599	274.43
715.003	293.15
715.408	318.9
715.812	330.6
716.217	281.45
716.621	335.28
717.025	265.07
717.429	316.56
717.833	335.28
718.238	302.51
718.642	286.13
719.046	297.83
719.449	300.17
719.853	337.62
720.257	335.28
720.661	309.54
721.065	332.94
721.468	339.96
721.872	311.88
722.275	304.85
722.679	302.51
723.082	276.77
723.485	297.83
723.889	302.51
724.292	295.49
724.695	311.88
725.098	300.17
725.501	295.49
725.904	255.7
726.307	295.49
726.71	330.6
727.113	321.24
727.516	318.9
727.918	339.96
728.321	375.07
728.724	316.56
729.126	283.79
729.529	377.41
729.931	316.56
730.333	344.64
730.736	318.9
731.138	293.15
731.54	302.51
731.942	295.49
732.344	290.81
732.746	349.32
733.148	311.88
733.55	344.64
733.952	318.9
734.354	265.07
734.756	302.51
735.157	354.01
735.559	323.58
735.96	349.32
736.362	344.64
736.763	246.34
737.165	328.26
737.566	323.58
737.967	283.79
738.368	244
738.77	208.89
739.171	325.92
739.572	328.26
739.973	325.92
740.374	335.28
740.774	251.02
741.175	337.62
741.576	368.05
741.977	351.67
742.377	304.85
742.778	337.62
743.178	293.15
743.579	372.73
743.979	351.67
744.379	332.94
744.78	330.6
745.18	274.43
745.58	332.94
745.98	309.54
746.38	328.26
746.78	283.79
747.18	302.51
747.58	361.03
747.98	354.01
748.38	349.32
748.779	354.01
749.179	274.43
749.578	286.13
749.978	314.22
750.377	325.92
750.777	290.81
751.176	297.83
751.575	309.54
751.975	286.13
752.374	318.9
752.773	288.47
753.172	370.39
753.571	316.56
753.97	304.85
754.369	274.43
754.768	290.81
755.166	318.9
755.565	342.3
755.964	384.43
756.362	279.11
756.761	325.92
757.159	293.15
757.558	309.54
757.956	279.11
758.354	332.94
758.753	272.09
759.151	297.83
759.549	288.47
759.947	365.71
760.345	332.94
760.743	279.11
761.141	342.3
761.539	286.13
761.936	349.32
762.334	295.49
762.732	309.54
763.129	323.58
763.527	295.49
763.924	307.2
764.322	239.32
764.719	311.88
765.117	295.49
765.514	300.17
