Data from Al_FLMS009871__920__16-19-05-922.txt Node

Date: Fri Mar 08 16:19:05 CST 2024
User: pe5414po
Spectrometer: FLMS00987
Trigger mode: 0
Integration Time (sec): 1.000000E-1
Scans to average: 1
Electric dark correction enabled: true
Nonlinearity correction enabled: false
Boxcar width: 0
XAxis mode: Wavelengths
Number of Pixels in Spectrum: 2048
>>>>>Begin Spectral Data<<<<<
188.938	-54.12
189.409	-54.12
189.879	-54.12
190.349	-72.85
190.819	-107.96
191.29	-131.36
191.76	-119.66
192.23	-98.6
192.7	-89.23
193.17	-65.83
193.64	-44.76
194.109	-19.02
194.579	23.11
195.049	-47.1
195.519	-2.63
195.988	51.2
196.458	62.9
196.927	74.6
197.397	53.54
197.866	217.38
198.336	135.46
198.805	156.52
199.274	184.61
199.744	142.48
200.213	229.08
200.682	191.63
201.151	287.59
201.62	184.61
202.089	322.7
202.558	229.08
203.027	280.57
203.495	278.23
203.964	320.36
204.433	289.93
204.902	271.21
205.37	240.78
205.839	292.27
206.307	257.17
206.776	301.64
207.244	226.74
207.712	334.4
208.181	346.11
208.649	299.3
209.117	313.34
209.585	271.21
210.053	273.55
210.521	315.68
210.989	325.04
211.457	299.3
211.925	203.33
212.393	285.25
212.861	268.87
213.328	254.83
213.796	250.14
214.264	245.46
214.731	275.89
215.199	254.83
215.666	280.57
216.133	287.59
216.601	205.67
217.068	271.21
217.535	266.53
218.003	240.78
218.47	268.87
218.937	296.96
219.404	259.51
219.871	257.17
220.338	184.61
220.805	212.7
221.271	292.27
221.738	268.87
222.205	266.53
222.671	231.42
223.138	245.46
223.605	289.93
224.071	231.42
224.538	224.4
225.004	217.38
225.47	252.49
225.937	268.87
226.403	250.14
226.869	222.06
227.335	266.53
227.801	268.87
228.267	301.64
228.733	311
229.199	287.59
229.665	285.25
230.131	212.7
230.597	266.53
231.062	229.08
231.528	282.91
231.994	294.61
232.459	259.51
232.925	289.93
233.39	336.74
233.856	205.67
234.321	247.8
234.786	306.32
235.252	306.32
235.717	320.36
236.182	282.91
236.647	271.21
237.112	282.91
237.577	315.68
238.042	313.34
238.507	299.3
238.972	254.83
239.436	266.53
239.901	357.81
240.366	243.12
240.83	231.42
241.295	285.25
241.76	299.3
242.224	341.43
242.688	250.14
243.153	268.87
243.617	233.76
244.081	264.19
244.545	289.93
245.01	273.55
245.474	273.55
245.938	320.36
246.402	289.93
246.866	282.91
247.33	275.89
247.793	233.76
248.257	252.49
248.721	250.14
249.185	318.02
249.648	238.44
250.112	325.04
250.575	278.23
251.039	315.68
251.502	273.55
251.965	332.06
252.429	250.14
252.892	259.51
253.355	320.36
253.818	271.21
254.281	318.02
254.744	254.83
255.207	250.14
255.67	285.25
256.133	306.32
256.596	278.23
257.059	285.25
257.522	282.91
257.984	210.36
258.447	315.68
258.909	278.23
259.372	303.98
259.834	233.76
260.297	285.25
260.759	292.27
261.221	278.23
261.684	318.02
262.146	268.87
262.608	266.53
263.07	318.02
263.532	357.81
263.994	301.64
264.456	311
264.918	285.25
265.38	311
265.842	289.93
266.303	289.93
266.765	332.06
267.227	238.44
267.688	346.11
268.15	296.96
268.611	268.87
269.072	308.66
269.534	275.89
269.995	292.27
270.456	250.14
270.918	273.55
271.379	320.36
271.84	299.3
272.301	299.3
272.762	334.4
273.223	275.89
273.684	243.12
274.144	217.38
274.605	287.59
275.066	292.27
275.527	266.53
275.987	334.4
276.448	308.66
276.908	329.72
277.369	289.93
277.829	303.98
278.289	334.4
278.75	278.23
279.21	275.89
279.67	278.23
280.13	289.93
280.59	311
281.05	264.19
281.51	229.08
281.97	301.64
282.43	268.87
282.89	336.74
283.35	243.12
283.809	332.06
284.269	299.3
284.729	278.23
285.188	278.23
285.648	254.83
286.107	322.7
286.567	315.68
287.026	292.27
287.485	264.19
287.944	346.11
288.404	402.28
288.863	254.83
289.322	313.34
289.781	266.53
290.24	282.91
290.699	311
291.158	402.28
291.616	308.66
292.075	285.25
292.534	299.3
292.992	327.38
293.451	325.04
293.91	325.04
294.368	275.89
294.827	264.19
295.285	259.51
295.743	325.04
296.202	287.59
296.66	322.7
297.118	369.51
297.576	254.83
298.034	339.09
298.492	287.59
298.95	341.43
299.408	336.74
299.866	308.66
300.324	257.17
300.781	292.27
301.239	327.38
301.697	334.4
302.154	282.91
302.612	341.43
303.069	332.06
303.527	287.59
303.984	367.17
304.441	327.38
304.899	299.3
305.356	350.79
305.813	287.59
306.27	280.57
306.727	287.59
307.184	231.42
307.641	271.21
308.098	320.36
308.555	259.51
309.012	292.27
309.468	343.77
309.925	376.53
310.382	341.43
310.838	306.32
311.295	294.61
311.751	325.04
312.208	285.25
312.664	289.93
313.12	334.4
313.577	280.57
314.033	339.09
314.489	336.74
314.945	320.36
315.401	292.27
315.857	301.64
316.313	332.06
316.769	343.77
317.225	285.25
317.681	360.15
318.136	224.4
318.592	322.7
319.048	278.23
319.503	280.57
319.959	280.57
320.414	357.81
320.869	285.25
321.325	311
321.78	278.23
322.235	278.23
322.691	280.57
323.146	350.79
323.601	261.85
324.056	278.23
324.511	264.19
324.966	250.14
325.421	303.98
325.875	315.68
326.33	226.74
326.785	336.74
327.24	311
327.694	266.53
328.149	273.55
328.603	257.17
329.058	399.94
329.512	322.7
329.966	252.49
330.421	280.57
330.875	318.02
331.329	362.49
331.783	346.11
332.237	325.04
332.691	343.77
333.145	325.04
333.599	282.91
334.053	292.27
334.507	301.64
334.96	282.91
335.414	306.32
335.868	327.38
336.321	271.21
336.775	308.66
337.228	271.21
337.682	254.83
338.135	353.13
338.588	311
339.042	250.14
339.495	329.72
339.948	318.02
340.401	301.64
340.854	364.83
341.307	264.19
341.76	294.61
342.213	339.09
342.666	247.8
343.119	311
343.571	355.47
344.024	318.02
344.477	318.02
344.929	275.89
345.382	299.3
345.834	268.87
346.287	296.96
346.739	320.36
347.191	341.43
347.644	306.32
348.096	357.81
348.548	296.96
349	308.66
349.452	364.83
349.904	296.96
350.356	318.02
350.808	306.32
351.26	334.4
351.711	320.36
352.163	306.32
352.615	329.72
353.066	357.81
353.518	381.21
353.969	346.11
354.421	268.87
354.872	374.19
355.324	294.61
355.775	292.27
356.226	343.77
356.677	381.21
357.128	287.59
357.579	238.44
358.03	285.25
358.481	315.68
358.932	348.45
359.383	381.21
359.834	322.7
360.285	313.34
360.735	282.91
361.186	294.61
361.637	287.59
362.087	275.89
362.538	289.93
362.988	350.79
363.438	294.61
363.889	334.4
364.339	280.57
364.789	357.81
365.239	299.3
365.689	261.85
366.139	282.91
366.589	306.32
367.039	421
367.489	334.4
367.939	325.04
368.389	360.15
368.839	320.36
369.288	306.32
369.738	306.32
370.187	301.64
370.637	318.02
371.086	341.43
371.536	315.68
371.985	301.64
372.434	252.49
372.884	325.04
373.333	294.61
373.782	329.72
374.231	308.66
374.68	329.72
375.129	376.53
375.578	341.43
376.027	332.06
376.475	273.55
376.924	275.89
377.373	346.11
377.822	275.89
378.27	364.83
378.719	327.38
379.167	294.61
379.616	259.51
380.064	303.98
380.512	226.74
380.961	306.32
381.409	346.11
381.857	362.49
382.305	336.74
382.753	313.34
383.201	273.55
383.649	343.77
384.097	357.81
384.545	339.09
384.992	285.25
385.44	308.66
385.888	311
386.335	294.61
386.783	322.7
387.231	308.66
387.678	357.81
388.125	336.74
388.573	285.25
389.02	322.7
389.467	357.81
389.914	280.57
390.362	311
390.809	378.87
391.256	299.3
391.703	299.3
392.15	367.17
392.596	271.21
393.043	327.38
393.49	292.27
393.937	329.72
394.383	332.06
394.83	250.14
395.276	306.32
395.723	360.15
396.169	294.61
396.616	336.74
397.062	325.04
397.508	282.91
397.954	280.57
398.401	327.38
398.847	329.72
399.293	315.68
399.739	336.74
400.185	282.91
400.631	339.09
401.076	303.98
401.522	315.68
401.968	301.64
402.414	303.98
402.859	313.34
403.305	341.43
403.75	268.87
404.196	299.3
404.641	308.66
405.086	392.92
405.532	313.34
405.977	362.49
406.422	264.19
406.867	353.13
407.312	311
407.757	303.98
408.202	301.64
408.647	275.89
409.092	311
409.537	332.06
409.982	275.89
410.426	392.92
410.871	346.11
411.316	299.3
411.76	341.43
412.205	350.79
412.649	353.13
413.093	329.72
413.538	268.87
413.982	318.02
414.426	327.38
414.87	311
415.314	336.74
415.758	329.72
416.202	334.4
416.646	259.51
417.09	299.3
417.534	301.64
417.978	336.74
418.421	329.72
418.865	339.09
419.309	273.55
419.752	378.87
420.196	315.68
420.639	364.83
421.083	346.11
421.526	308.66
421.969	289.93
422.412	320.36
422.856	320.36
423.299	278.23
423.742	367.17
424.185	296.96
424.628	289.93
425.071	294.61
425.513	334.4
425.956	383.56
426.399	292.27
426.842	334.4
427.284	336.74
427.727	329.72
428.169	315.68
428.612	341.43
429.054	362.49
429.497	367.17
429.939	299.3
430.381	325.04
430.823	308.66
431.265	339.09
431.707	313.34
432.149	353.13
432.591	343.77
433.033	329.72
433.475	332.06
433.917	318.02
434.359	357.81
434.8	320.36
435.242	360.15
435.684	322.7
436.125	273.55
436.567	341.43
437.008	266.53
437.449	369.51
437.891	322.7
438.332	289.93
438.773	280.57
439.214	289.93
439.656	355.47
440.097	350.79
440.538	343.77
440.978	240.78
441.419	334.4
441.86	357.81
442.301	355.47
442.742	329.72
443.182	343.77
443.623	301.64
444.063	303.98
444.504	376.53
444.944	299.3
445.385	311
445.825	341.43
446.265	332.06
446.706	322.7
447.146	376.53
447.586	341.43
448.026	364.83
448.466	318.02
448.906	364.83
449.346	322.7
449.786	308.66
450.225	254.83
450.665	385.9
451.105	268.87
451.544	336.74
451.984	254.83
452.424	327.38
452.863	346.11
453.302	334.4
453.742	311
454.181	346.11
454.62	315.68
455.059	264.19
455.499	301.64
455.938	355.47
456.377	301.64
456.816	292.27
457.254	322.7
457.693	327.38
458.132	362.49
458.571	289.93
459.01	327.38
459.448	275.89
459.887	287.59
460.325	329.72
460.764	245.46
461.202	353.13
461.641	322.7
462.079	198.65
462.517	313.34
462.955	346.11
463.393	306.32
463.832	350.79
464.27	406.96
464.708	369.51
465.145	343.77
465.583	348.45
466.021	294.61
466.459	313.34
466.897	271.21
467.334	334.4
467.772	271.21
468.209	318.02
468.647	303.98
469.084	259.51
469.522	320.36
469.959	325.04
470.396	292.27
470.833	341.43
471.271	254.83
471.708	341.43
472.145	334.4
472.582	327.38
473.019	374.19
473.456	303.98
473.892	271.21
474.329	250.14
474.766	334.4
475.202	320.36
475.639	341.43
476.076	306.32
476.512	353.13
476.949	325.04
477.385	355.47
477.821	238.44
478.258	334.4
478.694	301.64
479.13	296.96
479.566	306.32
480.002	327.38
480.438	311
480.874	318.02
481.31	385.9
481.746	343.77
482.181	315.68
482.617	355.47
483.053	325.04
483.488	285.25
483.924	301.64
484.36	325.04
484.795	334.4
485.23	278.23
485.666	341.43
486.101	318.02
486.536	306.32
486.971	348.45
487.407	334.4
487.842	350.79
488.277	268.87
488.712	334.4
489.146	360.15
489.581	334.4
490.016	243.12
490.451	311
490.885	315.68
491.32	308.66
491.755	311
492.189	334.4
492.624	322.7
493.058	315.68
493.492	315.68
493.927	303.98
494.361	371.85
494.795	355.47
495.229	343.77
495.663	329.72
496.097	341.43
496.531	320.36
496.965	245.46
497.399	287.59
497.833	318.02
498.266	303.98
498.7	257.17
499.134	360.15
499.567	367.17
500.001	367.17
500.434	313.34
500.868	378.87
501.301	313.34
501.734	266.53
502.168	318.02
502.601	289.93
503.034	275.89
503.467	350.79
503.9	313.34
504.333	320.36
504.766	287.59
505.199	252.49
505.632	318.02
506.064	336.74
506.497	332.06
506.93	306.32
507.362	287.59
507.795	367.17
508.227	315.68
508.66	346.11
509.092	282.91
509.524	357.81
509.956	322.7
510.389	273.55
510.821	282.91
511.253	266.53
511.685	327.38
512.117	224.4
512.549	275.89
512.981	299.3
513.412	280.57
513.844	311
514.276	296.96
514.707	346.11
515.139	334.4
515.571	273.55
516.002	289.93
516.433	320.36
516.865	282.91
517.296	367.17
517.727	322.7
518.159	329.72
518.59	303.98
519.021	327.38
519.452	383.56
519.883	322.7
520.314	275.89
520.744	313.34
521.175	287.59
521.606	306.32
522.037	435.05
522.467	313.34
522.898	322.7
523.328	329.72
523.759	339.09
524.189	341.43
524.62	364.83
525.05	346.11
525.48	266.53
525.91	261.85
526.341	257.17
526.771	353.13
527.201	357.81
527.631	332.06
528.061	329.72
528.49	327.38
528.92	315.68
529.35	257.17
529.78	318.02
530.209	308.66
530.639	278.23
531.068	315.68
531.498	332.06
531.927	325.04
532.357	315.68
532.786	367.17
533.215	320.36
533.644	341.43
534.074	334.4
534.503	287.59
534.932	388.24
535.361	294.61
535.79	336.74
536.218	381.21
536.647	362.49
537.076	294.61
537.505	261.85
537.933	306.32
538.362	306.32
538.79	273.55
539.219	341.43
539.647	329.72
540.076	278.23
540.504	245.46
540.932	327.38
541.36	350.79
541.788	303.98
542.217	264.19
542.645	374.19
543.073	325.04
543.5	271.21
543.928	224.4
544.356	313.34
544.784	268.87
545.211	264.19
545.639	306.32
546.067	259.51
546.494	308.66
546.922	273.55
547.349	350.79
547.776	343.77
548.204	325.04
548.631	325.04
549.058	308.66
549.485	299.3
549.912	282.91
550.339	371.85
550.766	325.04
551.193	339.09
551.62	259.51
552.047	261.85
552.474	278.23
552.9	334.4
553.327	369.51
553.754	334.4
554.18	311
554.607	268.87
555.033	268.87
555.459	332.06
555.886	334.4
556.312	318.02
556.738	296.96
557.164	348.45
557.59	318.02
558.016	250.14
558.442	320.36
558.868	311
559.294	374.19
559.72	348.45
560.145	329.72
560.571	313.34
560.997	275.89
561.422	264.19
561.848	336.74
562.273	350.79
562.699	271.21
563.124	341.43
563.549	327.38
563.974	334.4
564.4	275.89
564.825	339.09
565.25	303.98
565.675	348.45
566.1	334.4
566.525	383.56
566.95	294.61
567.374	303.98
567.799	369.51
568.224	362.49
568.648	292.27
569.073	313.34
569.497	303.98
569.922	318.02
570.346	348.45
570.771	322.7
571.195	402.28
571.619	247.8
572.043	381.21
572.467	318.02
572.891	261.85
573.315	320.36
573.739	332.06
574.163	296.96
574.587	278.23
575.011	357.81
575.435	299.3
575.858	289.93
576.282	282.91
576.705	259.51
577.129	346.11
577.552	287.59
577.976	264.19
578.399	303.98
578.822	268.87
579.245	268.87
579.669	311
580.092	303.98
580.515	322.7
580.938	329.72
581.361	381.21
581.784	303.98
582.206	327.38
582.629	308.66
583.052	346.11
583.474	282.91
583.897	289.93
584.32	264.19
584.742	311
585.165	348.45
585.587	332.06
586.009	311
586.431	332.06
586.854	364.83
587.276	327.38
587.698	383.56
588.12	275.89
588.542	364.83
588.964	329.72
589.386	296.96
589.807	315.68
590.229	332.06
590.651	362.49
591.073	275.89
591.494	325.04
591.916	264.19
592.337	327.38
592.759	268.87
593.18	350.79
593.601	296.96
594.022	275.89
594.444	353.13
594.865	311
595.286	435.05
595.707	339.09
596.128	346.11
596.549	334.4
596.97	392.92
597.39	252.49
597.811	332.06
598.232	306.32
598.652	278.23
599.073	301.64
599.494	254.83
599.914	341.43
600.334	315.68
600.755	250.14
601.175	336.74
601.595	327.38
602.015	341.43
602.436	311
602.856	442.07
603.276	325.04
603.696	315.68
604.115	289.93
604.535	285.25
604.955	233.76
605.375	296.96
605.794	334.4
606.214	306.32
606.634	360.15
607.053	325.04
607.473	385.9
607.892	301.64
608.311	339.09
608.731	318.02
609.15	268.87
609.569	289.93
609.988	318.02
610.407	336.74
610.826	311
611.245	287.59
611.664	325.04
612.083	231.42
612.501	334.4
612.92	299.3
613.339	409.3
613.757	343.77
614.176	376.53
614.594	320.36
615.013	325.04
615.431	329.72
615.85	306.32
616.268	341.43
616.686	327.38
617.104	329.72
617.522	346.11
617.94	287.59
618.358	299.3
618.776	278.23
619.194	285.25
619.612	376.53
620.03	296.96
620.447	311
620.865	339.09
621.282	355.47
621.7	313.34
622.117	385.9
622.535	294.61
622.952	247.8
623.369	268.87
623.787	299.3
624.204	266.53
624.621	360.15
625.038	261.85
625.455	287.59
625.872	343.77
626.289	280.57
626.706	327.38
627.123	292.27
627.539	296.96
627.956	282.91
628.373	325.04
628.789	343.77
629.206	285.25
629.622	301.64
630.038	350.79
630.455	320.36
630.871	320.36
631.287	350.79
631.703	261.85
632.12	266.53
632.536	299.3
632.952	327.38
633.368	322.7
633.783	259.51
634.199	313.34
634.615	306.32
635.031	287.59
635.446	350.79
635.862	348.45
636.277	355.47
636.693	301.64
637.108	334.4
637.524	374.19
637.939	360.15
638.354	357.81
638.77	308.66
639.185	381.21
639.6	311
640.015	303.98
640.43	322.7
640.845	381.21
641.259	376.53
641.674	308.66
642.089	303.98
642.504	257.17
642.918	273.55
643.333	327.38
643.747	306.32
644.162	350.79
644.576	322.7
644.991	336.74
645.405	329.72
645.819	320.36
646.233	327.38
646.647	303.98
647.061	329.72
647.475	346.11
647.889	322.7
648.303	268.87
648.717	332.06
649.131	280.57
649.545	296.96
649.958	346.11
650.372	320.36
650.785	289.93
651.199	278.23
651.612	282.91
652.026	306.32
652.439	308.66
652.852	334.4
653.266	292.27
653.679	374.19
654.092	348.45
654.505	282.91
654.918	264.19
655.331	303.98
655.744	329.72
656.156	238.44
656.569	341.43
656.982	303.98
657.394	271.21
657.807	327.38
658.22	392.92
658.632	332.06
659.044	346.11
659.457	296.96
659.869	329.72
660.281	301.64
660.693	332.06
661.106	273.55
661.518	320.36
661.93	364.83
662.342	364.83
662.754	369.51
663.165	318.02
663.577	350.79
663.989	343.77
664.401	292.27
664.812	322.7
665.224	311
665.635	257.17
666.047	311
666.458	346.11
666.869	289.93
667.281	289.93
667.692	411.64
668.103	303.98
668.514	311
668.925	329.72
669.336	334.4
669.747	259.51
670.158	285.25
670.569	350.79
670.979	327.38
671.39	306.32
671.801	339.09
672.211	322.7
672.622	308.66
673.032	371.85
673.443	353.13
673.853	360.15
674.263	374.19
674.674	348.45
675.084	301.64
675.494	353.13
675.904	299.3
676.314	343.77
676.724	294.61
677.134	271.21
677.544	306.32
677.953	334.4
678.363	296.96
678.773	327.38
679.182	311
679.592	390.58
680.001	320.36
680.411	296.96
680.82	320.36
681.23	299.3
681.639	404.62
682.048	252.49
682.457	287.59
682.866	383.56
683.275	301.64
683.684	364.83
684.093	339.09
684.502	282.91
684.911	268.87
685.32	336.74
685.728	268.87
686.137	303.98
686.546	247.8
686.954	353.13
687.363	329.72
687.771	320.36
688.179	327.38
688.588	322.7
688.996	353.13
689.404	318.02
689.812	289.93
690.22	353.13
690.628	318.02
691.036	306.32
691.444	376.53
691.852	315.68
692.26	287.59
692.667	339.09
693.075	315.68
693.483	313.34
693.89	282.91
694.298	231.42
694.705	308.66
695.112	390.58
695.52	364.83
695.927	266.53
696.334	264.19
696.741	311
697.148	329.72
697.555	348.45
697.962	318.02
698.369	360.15
698.776	346.11
699.183	350.79
699.59	322.7
699.996	301.64
700.403	299.3
700.81	329.72
701.216	350.79
701.623	275.89
702.029	285.25
702.435	353.13
702.842	303.98
703.248	247.8
703.654	280.57
704.06	318.02
704.466	311
704.872	374.19
705.278	299.3
705.684	353.13
706.09	329.72
706.496	332.06
706.901	306.32
707.307	282.91
707.712	315.68
708.118	299.3
708.523	322.7
708.929	268.87
709.334	280.57
709.74	301.64
710.145	329.72
710.55	280.57
710.955	292.27
711.36	296.96
711.765	332.06
712.17	406.96
712.575	301.64
712.98	832.94
713.385	357.81
713.789	369.51
714.194	275.89
714.599	289.93
715.003	353.13
715.408	355.47
715.812	285.25
716.217	275.89
716.621	268.87
717.025	320.36
717.429	311
717.833	313.34
718.238	322.7
718.642	329.72
719.046	299.3
719.449	238.44
719.853	341.43
720.257	327.38
720.661	280.57
721.065	217.38
721.468	299.3
721.872	336.74
722.275	367.17
722.679	329.72
723.082	346.11
723.485	296.96
723.889	278.23
724.292	336.74
724.695	308.66
725.098	306.32
725.501	376.53
725.904	301.64
726.307	320.36
726.71	325.04
727.113	320.36
727.516	378.87
727.918	299.3
728.321	275.89
728.724	254.83
729.126	275.89
729.529	252.49
729.931	264.19
730.333	388.24
730.736	332.06
731.138	303.98
731.54	278.23
731.942	322.7
732.344	308.66
732.746	299.3
733.148	332.06
733.55	282.91
733.952	266.53
734.354	362.49
734.756	362.49
735.157	252.49
735.559	308.66
735.96	332.06
736.362	348.45
736.763	339.09
737.165	320.36
737.566	264.19
737.967	308.66
738.368	318.02
738.77	303.98
739.171	350.79
739.572	318.02
739.973	320.36
740.374	287.59
740.774	332.06
741.175	336.74
741.576	282.91
741.977	313.34
742.377	315.68
742.778	308.66
743.178	306.32
743.579	318.02
743.979	374.19
744.379	311
744.78	371.85
745.18	315.68
745.58	287.59
745.98	292.27
746.38	257.17
746.78	296.96
747.18	287.59
747.58	329.72
747.98	289.93
748.38	322.7
748.779	348.45
749.179	259.51
749.578	299.3
749.978	381.21
750.377	318.02
750.777	341.43
751.176	385.9
751.575	268.87
751.975	296.96
752.374	301.64
752.773	294.61
753.172	318.02
753.571	282.91
753.97	329.72
754.369	308.66
754.768	355.47
755.166	287.59
755.565	313.34
755.964	346.11
756.362	292.27
756.761	273.55
757.159	278.23
757.558	313.34
757.956	311
758.354	402.28
758.753	299.3
759.151	254.83
759.549	308.66
759.947	327.38
760.345	348.45
760.743	268.87
761.141	378.87
761.539	268.87
761.936	311
762.334	322.7
762.732	311
763.129	275.89
763.527	315.68
763.924	308.66
764.322	346.11
764.719	332.06
765.117	318.02
765.514	282.91
765.911	339.09
766.308	348.45
766.705	313.34
767.102	357.81
767.499	346.11
767.896	360.15
768.293	313.34
