Data from Al_FLMS009871__938__16-19-07-722.txt Node

Date: Fri Mar 08 16:19:07 CST 2024
User: pe5414po
Spectrometer: FLMS00987
Trigger mode: 0
Integration Time (sec): 1.000000E-1
Scans to average: 1
Electric dark correction enabled: true
Nonlinearity correction enabled: false
Boxcar width: 0
XAxis mode: Wavelengths
Number of Pixels in Spectrum: 2048
>>>>>Begin Spectral Data<<<<<
188.938	-81.92
189.409	-81.92
189.879	-81.92
190.349	-84.26
190.819	-138.09
191.29	-128.73
191.76	-30.43
192.23	-93.62
192.7	-72.56
193.17	-39.79
193.64	-35.11
194.109	-46.81
194.579	-53.83
195.049	30.43
195.519	14.04
195.988	39.79
196.458	35.11
196.927	81.92
197.397	49.15
197.866	65.54
198.336	184.9
198.805	126.39
199.274	220.01
199.744	156.82
200.213	184.9
200.682	168.52
201.151	187.24
201.62	220.01
202.089	276.18
202.558	187.24
203.027	283.2
203.495	208.31
203.964	327.68
204.433	318.31
204.902	278.52
205.37	264.48
205.839	306.61
206.307	292.57
206.776	297.25
207.244	299.59
207.712	245.76
208.181	313.63
208.649	273.84
209.117	294.91
209.585	287.89
210.053	358.1
210.521	271.5
210.989	353.42
211.457	294.91
211.925	318.31
212.393	315.97
212.861	292.57
213.328	304.27
213.796	369.8
214.264	198.95
214.731	290.23
215.199	315.97
215.666	318.31
216.133	285.55
216.601	250.44
217.068	231.71
217.535	238.73
218.003	236.39
218.47	290.23
218.937	215.33
219.404	210.65
219.871	280.86
220.338	264.48
220.805	241.08
221.271	292.57
221.738	248.1
222.205	180.22
222.671	217.67
223.138	276.18
223.605	250.44
224.071	271.5
224.538	245.76
225.004	241.08
225.47	252.78
225.937	252.78
226.403	222.35
226.869	217.67
227.335	229.37
227.801	255.12
228.267	259.8
228.733	285.55
229.199	278.52
229.665	285.55
230.131	245.76
230.597	271.5
231.062	280.86
231.528	177.88
231.994	304.27
232.459	259.8
232.925	227.03
233.39	236.39
233.856	250.44
234.321	262.14
234.786	294.91
235.252	273.84
235.717	208.31
236.182	308.95
236.647	320.65
237.112	252.78
237.577	241.08
238.042	259.8
238.507	203.63
238.972	311.29
239.436	325.33
239.901	234.05
240.366	266.82
240.83	276.18
241.295	203.63
241.76	299.59
242.224	259.8
242.688	285.55
243.153	234.05
243.617	248.1
244.081	273.84
244.545	290.23
245.01	266.82
245.474	297.25
245.938	271.5
246.402	269.16
246.866	348.74
247.33	271.5
247.793	238.73
248.257	278.52
248.721	294.91
249.185	325.33
249.648	292.57
250.112	257.46
250.575	294.91
251.039	271.5
251.502	266.82
251.965	250.44
252.429	271.5
252.892	327.68
253.355	301.93
253.818	243.42
254.281	238.73
254.744	236.39
255.207	301.93
255.67	278.52
256.133	255.12
256.596	290.23
257.059	259.8
257.522	301.93
257.984	215.33
258.447	306.61
258.909	287.89
259.372	308.95
259.834	269.16
260.297	189.58
260.759	365.12
261.221	252.78
261.684	283.2
262.146	252.78
262.608	236.39
263.07	259.8
263.532	315.97
263.994	273.84
264.456	306.61
264.918	301.93
265.38	262.14
265.842	252.78
266.303	264.48
266.765	234.05
267.227	273.84
267.688	198.95
268.15	273.84
268.611	273.84
269.072	315.97
269.534	264.48
269.995	245.76
270.456	287.89
270.918	348.74
271.379	322.99
271.84	292.57
272.301	330.02
272.762	280.86
273.223	259.8
273.684	322.99
274.144	292.57
274.605	311.29
275.066	222.35
275.527	252.78
275.987	332.36
276.448	255.12
276.908	264.48
277.369	290.23
277.829	255.12
278.289	308.95
278.75	330.02
279.21	259.8
279.67	283.2
280.13	301.93
280.59	283.2
281.05	227.03
281.51	322.99
281.97	269.16
282.43	320.65
282.89	278.52
283.35	241.08
283.809	266.82
284.269	280.86
284.729	315.97
285.188	308.95
285.648	280.86
286.107	313.63
286.567	250.44
287.026	271.5
287.485	297.25
287.944	301.93
288.404	271.5
288.863	318.31
289.322	278.52
289.781	290.23
290.24	311.29
290.699	278.52
291.158	264.48
291.616	294.91
292.075	325.33
292.534	283.2
292.992	318.31
293.451	330.02
293.91	294.91
294.368	276.18
294.827	292.57
295.285	259.8
295.743	283.2
296.202	262.14
296.66	285.55
297.118	283.2
297.576	280.86
298.034	287.89
298.492	283.2
298.95	276.18
299.408	231.71
299.866	283.2
300.324	299.59
300.781	339.38
301.239	355.76
301.697	285.55
302.154	264.48
302.612	292.57
303.069	344.06
303.527	315.97
303.984	369.8
304.441	325.33
304.899	236.39
305.356	271.5
305.813	304.27
306.27	290.23
306.727	299.59
307.184	395.55
307.641	330.02
308.098	327.68
308.555	255.12
309.012	269.16
309.468	264.48
309.925	301.93
310.382	278.52
310.838	344.06
311.295	290.23
311.751	259.8
312.208	283.2
312.664	271.5
313.12	299.59
313.577	241.08
314.033	257.46
314.489	273.84
314.945	250.44
315.401	259.8
315.857	290.23
316.313	318.31
316.769	320.65
317.225	285.55
317.681	290.23
318.136	283.2
318.592	255.12
319.048	325.33
319.503	280.86
319.959	311.29
320.414	236.39
320.869	334.7
321.325	318.31
321.78	301.93
322.235	287.89
322.691	339.38
323.146	313.63
323.601	372.15
324.056	400.23
324.511	243.42
324.966	292.57
325.421	243.42
325.875	290.23
326.33	276.18
326.785	344.06
327.24	306.61
327.694	264.48
328.149	330.02
328.603	248.1
329.058	229.37
329.512	308.95
329.966	311.29
330.421	259.8
330.875	341.72
331.329	299.59
331.783	311.29
332.237	292.57
332.691	337.04
333.145	304.27
333.599	330.02
334.053	269.16
334.507	306.61
334.96	297.25
335.414	313.63
335.868	292.57
336.321	266.82
336.775	248.1
337.228	248.1
337.682	313.63
338.135	306.61
338.588	262.14
339.042	360.44
339.495	355.76
339.948	360.44
340.401	355.76
340.854	325.33
341.307	299.59
341.76	278.52
342.213	276.18
342.666	348.74
343.119	313.63
343.571	283.2
344.024	294.91
344.477	355.76
344.929	287.89
345.382	308.95
345.834	372.15
346.287	299.59
346.739	292.57
347.191	276.18
347.644	255.12
348.096	299.59
348.548	297.25
349	283.2
349.452	266.82
349.904	278.52
350.356	212.99
350.808	360.44
351.26	306.61
351.711	313.63
352.163	271.5
352.615	327.68
353.066	252.78
353.518	332.36
353.969	276.18
354.421	269.16
354.872	278.52
355.324	287.89
355.775	304.27
356.226	341.72
356.677	262.14
357.128	308.95
357.579	327.68
358.03	374.49
358.481	280.86
358.932	264.48
359.383	334.7
359.834	283.2
360.285	269.16
360.735	273.84
361.186	283.2
361.637	327.68
362.087	259.8
362.538	313.63
362.988	344.06
363.438	297.25
363.889	297.25
364.339	266.82
364.789	252.78
365.239	374.49
365.689	346.4
366.139	318.31
366.589	266.82
367.039	287.89
367.489	325.33
367.939	330.02
368.389	330.02
368.839	337.04
369.288	220.01
369.738	337.04
370.187	297.25
370.637	344.06
371.086	311.29
371.536	248.1
371.985	297.25
372.434	294.91
372.884	304.27
373.333	367.46
373.782	280.86
374.231	299.59
374.68	341.72
375.129	304.27
375.578	372.15
376.027	311.29
376.475	325.33
376.924	238.73
377.373	220.01
377.822	332.36
378.27	353.42
378.719	341.72
379.167	351.08
379.616	299.59
380.064	322.99
380.512	346.4
380.961	280.86
381.409	280.86
381.857	273.84
382.305	341.72
382.753	358.1
383.201	353.42
383.649	334.7
384.097	306.61
384.545	257.46
384.992	344.06
385.44	285.55
385.888	332.36
386.335	318.31
386.783	337.04
387.231	360.44
387.678	308.95
388.125	318.31
388.573	292.57
389.02	311.29
389.467	322.99
389.914	339.38
390.362	334.7
390.809	320.65
391.256	325.33
391.703	374.49
392.15	325.33
392.596	290.23
393.043	362.78
393.49	355.76
393.937	297.25
394.383	290.23
394.83	320.65
395.276	327.68
395.723	367.46
396.169	313.63
396.616	353.42
397.062	330.02
397.508	358.1
397.954	320.65
398.401	332.36
398.847	271.5
399.293	325.33
399.739	301.93
400.185	325.33
400.631	332.36
401.076	287.89
401.522	313.63
401.968	325.33
402.414	322.99
402.859	332.36
403.305	304.27
403.75	332.36
404.196	332.36
404.641	374.49
405.086	266.82
405.532	262.14
405.977	285.55
406.422	332.36
406.867	292.57
407.312	304.27
407.757	287.89
408.202	257.46
408.647	280.86
409.092	231.71
409.537	313.63
409.982	266.82
410.426	308.95
410.871	278.52
411.316	337.04
411.76	327.68
412.205	327.68
412.649	376.83
413.093	299.59
413.538	283.2
413.982	283.2
414.426	287.89
414.87	339.38
415.314	297.25
415.758	297.25
416.202	283.2
416.646	365.12
417.09	330.02
417.534	337.04
417.978	304.27
418.421	278.52
418.865	376.83
419.309	273.84
419.752	306.61
420.196	332.36
420.639	308.95
421.083	362.78
421.526	273.84
421.969	276.18
422.412	318.31
422.856	376.83
423.299	337.04
423.742	367.46
424.185	351.08
424.628	320.65
425.071	362.78
425.513	395.55
425.956	367.46
426.399	276.18
426.842	287.89
427.284	299.59
427.727	315.97
428.169	334.7
428.612	327.68
429.054	341.72
429.497	292.57
429.939	351.08
430.381	299.59
430.823	301.93
431.265	276.18
431.707	297.25
432.149	322.99
432.591	283.2
433.033	278.52
433.475	271.5
433.917	360.44
434.359	411.93
434.8	306.61
435.242	294.91
435.684	330.02
436.125	327.68
436.567	287.89
437.008	290.23
437.449	337.04
437.891	264.48
438.332	320.65
438.773	299.59
439.214	334.7
439.656	353.42
440.097	278.52
440.538	264.48
440.978	301.93
441.419	322.99
441.86	276.18
442.301	313.63
442.742	273.84
443.182	315.97
443.623	341.72
444.063	229.37
444.504	341.72
444.944	311.29
445.385	308.95
445.825	351.08
446.265	327.68
446.706	337.04
447.146	283.2
447.586	372.15
448.026	299.59
448.466	301.93
448.906	306.61
449.346	325.33
449.786	332.36
450.225	353.42
450.665	344.06
451.105	365.12
451.544	397.89
451.984	266.82
452.424	294.91
452.863	383.85
453.302	227.03
453.742	369.8
454.181	318.31
454.62	257.46
455.059	306.61
455.499	292.57
455.938	290.23
456.377	301.93
456.816	369.8
457.254	285.55
457.693	339.38
458.132	330.02
458.571	301.93
459.01	294.91
459.448	322.99
459.887	320.65
460.325	283.2
460.764	287.89
461.202	318.31
461.641	355.76
462.079	306.61
462.517	269.16
462.955	341.72
463.393	339.38
463.832	292.57
464.27	266.82
464.708	299.59
465.145	299.59
465.583	381.51
466.021	362.78
466.459	266.82
466.897	325.33
467.334	358.1
467.772	294.91
468.209	322.99
468.647	276.18
469.084	294.91
469.522	301.93
469.959	332.36
470.396	327.68
470.833	365.12
471.271	262.14
471.708	339.38
472.145	313.63
472.582	306.61
473.019	334.7
473.456	306.61
473.892	301.93
474.329	318.31
474.766	299.59
475.202	308.95
475.639	341.72
476.076	297.25
476.512	358.1
476.949	269.16
477.385	264.48
477.821	327.68
478.258	294.91
478.694	311.29
479.13	322.99
479.566	311.29
480.002	334.7
480.438	243.42
480.874	362.78
481.31	299.59
481.746	297.25
482.181	322.99
482.617	381.51
483.053	365.12
483.488	409.59
483.924	332.36
484.36	304.27
484.795	234.05
485.23	287.89
485.666	369.8
486.101	308.95
486.536	271.5
486.971	287.89
487.407	299.59
487.842	252.78
488.277	339.38
488.712	287.89
489.146	304.27
489.581	381.51
490.016	372.15
490.451	306.61
490.885	360.44
491.32	322.99
491.755	337.04
492.189	341.72
492.624	238.73
493.058	280.86
493.492	346.4
493.927	334.7
494.361	351.08
494.795	337.04
495.229	311.29
495.663	330.02
496.097	322.99
496.531	262.14
496.965	292.57
497.399	330.02
497.833	306.61
498.266	351.08
498.7	306.61
499.134	297.25
499.567	320.65
500.001	346.4
500.434	308.95
500.868	308.95
501.301	313.63
501.734	330.02
502.168	320.65
502.601	320.65
503.034	297.25
503.467	290.23
503.9	334.7
504.333	301.93
504.766	362.78
505.199	341.72
505.632	297.25
506.064	318.31
506.497	273.84
506.93	276.18
507.362	294.91
507.795	332.36
508.227	259.8
508.66	358.1
509.092	332.36
509.524	304.27
509.956	332.36
510.389	327.68
510.821	344.06
511.253	327.68
511.685	337.04
512.117	276.18
512.549	381.51
512.981	337.04
513.412	278.52
513.844	297.25
514.276	322.99
514.707	355.76
515.139	344.06
515.571	304.27
516.002	276.18
516.433	337.04
516.865	269.16
517.296	313.63
517.727	299.59
518.159	425.98
518.59	348.74
519.021	318.31
519.452	322.99
519.883	334.7
520.314	290.23
520.744	269.16
521.175	330.02
521.606	355.76
522.037	322.99
522.467	320.65
522.898	271.5
523.328	301.93
523.759	334.7
524.189	332.36
524.62	339.38
525.05	292.57
525.48	334.7
525.91	322.99
526.341	355.76
526.771	358.1
527.201	245.76
527.631	243.42
528.061	294.91
528.49	273.84
528.92	283.2
529.35	269.16
529.78	283.2
530.209	346.4
530.639	353.42
531.068	311.29
531.498	337.04
531.927	255.12
532.357	311.29
532.786	332.36
533.215	334.7
533.644	325.33
534.074	320.65
534.503	315.97
534.932	271.5
535.361	341.72
535.79	327.68
536.218	231.71
536.647	313.63
537.076	311.29
537.505	294.91
537.933	301.93
538.362	327.68
538.79	308.95
539.219	245.76
539.647	290.23
540.076	311.29
540.504	330.02
540.932	301.93
541.36	353.42
541.788	367.46
542.217	287.89
542.645	250.44
543.073	241.08
543.5	276.18
543.928	320.65
544.356	248.1
544.784	388.53
545.211	304.27
545.639	266.82
546.067	339.38
546.494	318.31
546.922	308.95
547.349	294.91
547.776	280.86
548.204	353.42
548.631	292.57
549.058	301.93
549.485	327.68
549.912	348.74
550.339	337.04
550.766	287.89
551.193	367.46
551.62	372.15
552.047	301.93
552.474	287.89
552.9	318.31
553.327	315.97
553.754	327.68
554.18	292.57
554.607	285.55
555.033	301.93
555.459	332.36
555.886	259.8
556.312	362.78
556.738	332.36
557.164	283.2
557.59	285.55
558.016	276.18
558.442	308.95
558.868	266.82
559.294	292.57
559.72	290.23
560.145	304.27
560.571	330.02
560.997	294.91
561.422	278.52
561.848	306.61
562.273	266.82
562.699	306.61
563.124	351.08
563.549	337.04
563.974	290.23
564.4	299.59
564.825	332.36
565.25	327.68
565.675	287.89
566.1	358.1
566.525	306.61
566.95	299.59
567.374	311.29
567.799	327.68
568.224	330.02
568.648	304.27
569.073	330.02
569.497	320.65
569.922	283.2
570.346	297.25
570.771	327.68
571.195	353.42
571.619	227.03
572.043	292.57
572.467	337.04
572.891	372.15
573.315	351.08
573.739	297.25
574.163	306.61
574.587	264.48
575.011	341.72
575.435	332.36
575.858	313.63
576.282	360.44
576.705	367.46
577.129	294.91
577.552	280.86
577.976	351.08
578.399	299.59
578.822	339.38
579.245	294.91
579.669	344.06
580.092	365.12
580.515	334.7
580.938	325.33
581.361	299.59
581.784	304.27
582.206	306.61
582.629	351.08
583.052	360.44
583.474	311.29
583.897	294.91
584.32	271.5
584.742	290.23
585.165	304.27
585.587	320.65
586.009	322.99
586.431	292.57
586.854	334.7
587.276	360.44
587.698	315.97
588.12	337.04
588.542	320.65
588.964	313.63
589.386	280.86
589.807	271.5
590.229	301.93
590.651	292.57
591.073	290.23
591.494	376.83
591.916	297.25
592.337	255.12
592.759	315.97
593.18	320.65
593.601	315.97
594.022	271.5
594.444	283.2
594.865	308.95
595.286	297.25
595.707	332.36
596.128	297.25
596.549	264.48
596.97	269.16
597.39	379.17
597.811	341.72
598.232	318.31
598.652	320.65
599.073	308.95
599.494	313.63
599.914	280.86
600.334	255.12
600.755	301.93
601.175	315.97
601.595	308.95
602.015	241.08
602.436	325.33
602.856	456.4
603.276	294.91
603.696	292.57
604.115	294.91
604.535	285.55
604.955	341.72
605.375	294.91
605.794	390.87
606.214	318.31
606.634	280.86
607.053	266.82
607.473	285.55
607.892	266.82
608.311	287.89
608.731	278.52
609.15	243.42
609.569	337.04
609.988	322.99
610.407	285.55
610.826	262.14
611.245	344.06
611.664	348.74
612.083	257.46
612.501	299.59
612.92	325.33
613.339	318.31
613.757	367.46
614.176	332.36
614.594	255.12
615.013	290.23
615.431	315.97
615.85	306.61
616.268	308.95
616.686	269.16
617.104	297.25
617.522	290.23
617.94	346.4
618.358	297.25
618.776	322.99
619.194	290.23
619.612	297.25
620.03	255.12
620.447	308.95
620.865	276.18
621.282	297.25
621.7	276.18
622.117	362.78
622.535	334.7
622.952	224.69
623.369	318.31
623.787	280.86
624.204	280.86
624.621	346.4
625.038	381.51
625.455	301.93
625.872	330.02
626.289	320.65
626.706	273.84
627.123	332.36
627.539	283.2
627.956	353.42
628.373	330.02
628.789	330.02
629.206	304.27
629.622	339.38
630.038	290.23
630.455	334.7
630.871	315.97
631.287	299.59
631.703	339.38
632.12	344.06
632.536	332.36
632.952	276.18
633.368	301.93
633.783	348.74
634.199	322.99
634.615	290.23
635.031	299.59
635.446	344.06
635.862	330.02
636.277	360.44
636.693	348.74
637.108	325.33
637.524	304.27
637.939	339.38
638.354	262.14
638.77	330.02
639.185	318.31
639.6	280.86
640.015	315.97
640.43	292.57
640.845	250.44
641.259	273.84
641.674	306.61
642.089	238.73
642.504	334.7
642.918	304.27
643.333	320.65
643.747	299.59
644.162	280.86
644.576	346.4
644.991	374.49
645.405	334.7
645.819	306.61
646.233	297.25
646.647	255.12
647.061	330.02
647.475	304.27
647.889	341.72
648.303	308.95
648.717	311.29
649.131	278.52
649.545	290.23
649.958	341.72
650.372	362.78
650.785	297.25
651.199	299.59
651.612	315.97
652.026	355.76
652.439	285.55
652.852	294.91
653.266	325.33
653.679	280.86
654.092	348.74
654.505	285.55
654.918	313.63
655.331	341.72
655.744	334.7
656.156	315.97
656.569	374.49
656.982	313.63
657.394	383.85
657.807	351.08
658.22	327.68
658.632	358.1
659.044	248.1
659.457	301.93
659.869	369.8
660.281	287.89
660.693	311.29
661.106	351.08
661.518	241.08
661.93	280.86
662.342	313.63
662.754	334.7
663.165	332.36
663.577	299.59
663.989	269.16
664.401	285.55
664.812	308.95
665.224	365.12
665.635	306.61
666.047	383.85
666.458	304.27
666.869	362.78
667.281	315.97
667.692	308.95
668.103	414.27
668.514	327.68
668.925	276.18
669.336	290.23
669.747	292.57
670.158	301.93
670.569	330.02
670.979	308.95
671.39	311.29
671.801	348.74
672.211	250.44
672.622	297.25
673.032	292.57
673.443	292.57
673.853	311.29
674.263	332.36
674.674	308.95
675.084	264.48
675.494	278.52
675.904	292.57
676.314	313.63
676.724	353.42
677.134	306.61
677.544	322.99
677.953	297.25
678.363	337.04
678.773	374.49
679.182	294.91
679.592	308.95
680.001	299.59
680.411	320.65
680.82	236.39
681.23	341.72
681.639	278.52
682.048	320.65
682.457	306.61
682.866	306.61
683.275	304.27
683.684	299.59
684.093	311.29
684.502	271.5
684.911	299.59
685.32	294.91
685.728	320.65
686.137	353.42
686.546	330.02
686.954	301.93
687.363	313.63
687.771	259.8
688.179	290.23
688.588	217.67
688.996	283.2
689.404	351.08
689.812	290.23
690.22	306.61
690.628	362.78
691.036	348.74
691.444	355.76
691.852	264.48
692.26	313.63
692.667	285.55
693.075	306.61
693.483	325.33
693.89	320.65
694.298	351.08
694.705	290.23
695.112	313.63
695.52	322.99
695.927	358.1
696.334	318.31
696.741	306.61
697.148	337.04
697.555	360.44
697.962	315.97
698.369	334.7
698.776	327.68
699.183	362.78
699.59	280.86
699.996	215.33
700.403	369.8
700.81	362.78
701.216	360.44
701.623	269.16
702.029	325.33
702.435	234.05
702.842	351.08
703.248	290.23
703.654	322.99
704.06	294.91
704.466	301.93
704.872	290.23
705.278	287.89
705.684	337.04
706.09	337.04
706.496	315.97
706.901	358.1
707.307	304.27
707.712	287.89
708.118	273.84
708.523	322.99
708.929	292.57
709.334	355.76
709.74	285.55
710.145	250.44
710.55	290.23
710.955	283.2
711.36	278.52
711.765	308.95
712.17	304.27
712.575	362.78
712.98	835.57
713.385	327.68
713.789	269.16
714.194	327.68
714.599	224.69
715.003	320.65
715.408	330.02
715.812	346.4
716.217	344.06
716.621	348.74
717.025	311.29
717.429	301.93
717.833	297.25
718.238	290.23
718.642	320.65
719.046	287.89
719.449	320.65
719.853	322.99
720.257	320.65
720.661	330.02
721.065	332.36
721.468	283.2
721.872	327.68
722.275	344.06
722.679	339.38
723.082	262.14
723.485	376.83
723.889	353.42
724.292	318.31
724.695	311.29
725.098	297.25
725.501	376.83
725.904	337.04
726.307	325.33
726.71	344.06
727.113	308.95
727.516	301.93
727.918	311.29
728.321	290.23
728.724	322.99
729.126	362.78
729.529	301.93
729.931	283.2
730.333	311.29
730.736	337.04
731.138	280.86
731.54	330.02
731.942	320.65
732.344	315.97
732.746	344.06
733.148	283.2
733.55	283.2
733.952	320.65
734.354	271.5
734.756	327.68
735.157	339.38
735.559	400.23
735.96	292.57
736.362	381.51
736.763	325.33
737.165	348.74
737.566	332.36
737.967	381.51
738.368	318.31
738.77	313.63
739.171	297.25
739.572	346.4
739.973	271.5
740.374	283.2
740.774	337.04
741.175	304.27
741.576	297.25
741.977	292.57
742.377	325.33
742.778	315.97
743.178	299.59
743.579	290.23
743.979	217.67
744.379	285.55
744.78	299.59
745.18	334.7
745.58	339.38
745.98	292.57
746.38	280.86
746.78	245.76
747.18	308.95
747.58	311.29
747.98	320.65
748.38	273.84
748.779	297.25
749.179	315.97
749.578	283.2
749.978	334.7
750.377	315.97
750.777	318.31
751.176	308.95
751.575	358.1
751.975	337.04
752.374	341.72
752.773	259.8
753.172	315.97
753.571	311.29
753.97	372.15
754.369	313.63
754.768	280.86
755.166	322.99
755.565	264.48
755.964	308.95
756.362	346.4
756.761	339.38
757.159	327.68
757.558	306.61
757.956	315.97
758.354	301.93
758.753	330.02
759.151	311.29
759.549	327.68
759.947	294.91
760.345	287.89
760.743	311.29
761.141	334.7
761.539	344.06
761.936	332.36
762.334	369.8
762.732	330.02
763.129	346.4
763.527	234.05
763.924	299.59
764.322	332.36
764.719	311.29
765.117	334.7
765.514	236.39
