Data from Al_FLMS009871__937__16-19-07-622.txt Node

Date: Fri Mar 08 16:19:07 CST 2024
User: pe5414po
Spectrometer: FLMS00987
Trigger mode: 0
Integration Time (sec): 1.000000E-1
Scans to average: 1
Electric dark correction enabled: true
Nonlinearity correction enabled: false
Boxcar width: 0
XAxis mode: Wavelengths
Number of Pixels in Spectrum: 2048
>>>>>Begin Spectral Data<<<<<
188.938	-86.89
189.409	-86.89
189.879	-86.89
190.349	-126.68
190.819	-103.28
191.29	-154.77
191.76	-91.57
192.23	-145.41
192.7	-30.72
193.17	-112.64
193.64	-68.17
194.109	16.09
194.579	16.09
195.049	60.56
195.519	-33.06
195.988	-4.97
196.458	74.6
196.927	130.78
197.397	86.31
197.866	142.48
198.336	114.39
198.805	116.73
199.274	172.91
199.744	226.74
200.213	175.25
200.682	264.19
201.151	245.46
201.62	226.74
202.089	231.42
202.558	238.44
203.027	264.19
203.495	264.19
203.964	245.46
204.433	299.3
204.902	250.14
205.37	254.83
205.839	189.29
206.307	329.72
206.776	322.7
207.244	266.53
207.712	268.87
208.181	282.91
208.649	367.17
209.117	296.96
209.585	325.04
210.053	336.74
210.521	273.55
210.989	287.59
211.457	336.74
211.925	294.61
212.393	303.98
212.861	278.23
213.328	280.57
213.796	229.08
214.264	315.68
214.731	264.19
215.199	275.89
215.666	233.76
216.133	329.72
216.601	247.8
217.068	287.59
217.535	240.78
218.003	257.17
218.47	287.59
218.937	268.87
219.404	252.49
219.871	294.61
220.338	236.1
220.805	238.44
221.271	252.49
221.738	261.85
222.205	306.32
222.671	236.1
223.138	250.14
223.605	247.8
224.071	318.02
224.538	271.21
225.004	236.1
225.47	205.67
225.937	184.61
226.403	280.57
226.869	318.02
227.335	175.25
227.801	285.25
228.267	280.57
228.733	261.85
229.199	252.49
229.665	285.25
230.131	264.19
230.597	266.53
231.062	257.17
231.528	285.25
231.994	282.91
232.459	245.46
232.925	264.19
233.39	240.78
233.856	311
234.321	282.91
234.786	240.78
235.252	240.78
235.717	252.49
236.182	240.78
236.647	282.91
237.112	271.21
237.577	233.76
238.042	322.7
238.507	261.85
238.972	222.06
239.436	247.8
239.901	229.08
240.366	245.46
240.83	285.25
241.295	308.66
241.76	343.77
242.224	287.59
242.688	287.59
243.153	287.59
243.617	247.8
244.081	299.3
244.545	271.21
245.01	271.21
245.474	238.44
245.938	264.19
246.402	308.66
246.866	313.34
247.33	299.3
247.793	296.96
248.257	259.51
248.721	243.12
249.185	287.59
249.648	271.21
250.112	303.98
250.575	219.72
251.039	299.3
251.502	303.98
251.965	322.7
252.429	264.19
252.892	231.42
253.355	308.66
253.818	282.91
254.281	203.33
254.744	268.87
255.207	219.72
255.67	294.61
256.133	348.45
256.596	308.66
257.059	261.85
257.522	292.27
257.984	325.04
258.447	348.45
258.909	261.85
259.372	308.66
259.834	250.14
260.297	322.7
260.759	217.38
261.221	261.85
261.684	374.19
262.146	308.66
262.608	217.38
263.07	282.91
263.532	313.34
263.994	346.11
264.456	252.49
264.918	259.51
265.38	278.23
265.842	273.55
266.303	322.7
266.765	229.08
267.227	322.7
267.688	243.12
268.15	353.13
268.611	254.83
269.072	282.91
269.534	306.32
269.995	303.98
270.456	266.53
270.918	264.19
271.379	268.87
271.84	285.25
272.301	254.83
272.762	273.55
273.223	273.55
273.684	285.25
274.144	292.27
274.605	311
275.066	264.19
275.527	259.51
275.987	226.74
276.448	245.46
276.908	273.55
277.369	231.42
277.829	303.98
278.289	264.19
278.75	259.51
279.21	245.46
279.67	252.49
280.13	296.96
280.59	287.59
281.05	313.34
281.51	245.46
281.97	299.3
282.43	261.85
282.89	247.8
283.35	287.59
283.809	306.32
284.269	318.02
284.729	346.11
285.188	268.87
285.648	266.53
286.107	299.3
286.567	280.57
287.026	229.08
287.485	210.36
287.944	259.51
288.404	280.57
288.863	346.11
289.322	325.04
289.781	292.27
290.24	327.38
290.699	294.61
291.158	332.06
291.616	322.7
292.075	287.59
292.534	294.61
292.992	250.14
293.451	287.59
293.91	278.23
294.368	266.53
294.827	278.23
295.285	299.3
295.743	332.06
296.202	336.74
296.66	306.32
297.118	289.93
297.576	285.25
298.034	306.32
298.492	275.89
298.95	341.43
299.408	299.3
299.866	320.36
300.324	261.85
300.781	254.83
301.239	315.68
301.697	303.98
302.154	245.46
302.612	289.93
303.069	329.72
303.527	299.3
303.984	245.46
304.441	282.91
304.899	308.66
305.356	306.32
305.813	252.49
306.27	334.4
306.727	315.68
307.184	313.34
307.641	322.7
308.098	355.47
308.555	303.98
309.012	261.85
309.468	268.87
309.925	315.68
310.382	229.08
310.838	245.46
311.295	350.79
311.751	350.79
312.208	318.02
312.664	278.23
313.12	306.32
313.577	301.64
314.033	320.36
314.489	261.85
314.945	346.11
315.401	266.53
315.857	311
316.313	296.96
316.769	289.93
317.225	322.7
317.681	385.9
318.136	287.59
318.592	252.49
319.048	285.25
319.503	334.4
319.959	273.55
320.414	341.43
320.869	294.61
321.325	320.36
321.78	289.93
322.235	311
322.691	189.29
323.146	320.36
323.601	339.09
324.056	294.61
324.511	287.59
324.966	329.72
325.421	259.51
325.875	292.27
326.33	325.04
326.785	313.34
327.24	325.04
327.694	341.43
328.149	278.23
328.603	360.15
329.058	287.59
329.512	243.12
329.966	339.09
330.421	252.49
330.875	254.83
331.329	280.57
331.783	275.89
332.237	278.23
332.691	308.66
333.145	282.91
333.599	346.11
334.053	353.13
334.507	397.6
334.96	261.85
335.414	311
335.868	313.34
336.321	322.7
336.775	311
337.228	257.17
337.682	320.36
338.135	329.72
338.588	395.26
339.042	301.64
339.495	315.68
339.948	287.59
340.401	325.04
340.854	273.55
341.307	320.36
341.76	266.53
342.213	303.98
342.666	271.21
343.119	287.59
343.571	306.32
344.024	334.4
344.477	296.96
344.929	383.56
345.382	303.98
345.834	299.3
346.287	369.51
346.739	327.38
347.191	336.74
347.644	315.68
348.096	299.3
348.548	325.04
349	280.57
349.452	360.15
349.904	285.25
350.356	219.72
350.808	369.51
351.26	275.89
351.711	282.91
352.163	278.23
352.615	311
353.066	282.91
353.518	367.17
353.969	325.04
354.421	318.02
354.872	325.04
355.324	170.57
355.775	343.77
356.226	303.98
356.677	341.43
357.128	299.3
357.579	320.36
358.03	318.02
358.481	306.32
358.932	306.32
359.383	341.43
359.834	282.91
360.285	303.98
360.735	299.3
361.186	318.02
361.637	240.78
362.087	311
362.538	325.04
362.988	327.38
363.438	313.34
363.889	313.34
364.339	311
364.789	369.51
365.239	313.34
365.689	334.4
366.139	273.55
366.589	268.87
367.039	296.96
367.489	325.04
367.939	322.7
368.389	268.87
368.839	210.36
369.288	285.25
369.738	388.24
370.187	329.72
370.637	332.06
371.086	301.64
371.536	329.72
371.985	301.64
372.434	259.51
372.884	287.59
373.333	315.68
373.782	320.36
374.231	264.19
374.68	336.74
375.129	289.93
375.578	303.98
376.027	362.49
376.475	301.64
376.924	318.02
377.373	313.34
377.822	254.83
378.27	318.02
378.719	236.1
379.167	308.66
379.616	311
380.064	325.04
380.512	271.21
380.961	325.04
381.409	308.66
381.857	353.13
382.305	313.34
382.753	285.25
383.201	322.7
383.649	257.17
384.097	322.7
384.545	287.59
384.992	320.36
385.44	353.13
385.888	325.04
386.335	292.27
386.783	266.53
387.231	292.27
387.678	336.74
388.125	261.85
388.573	334.4
389.02	254.83
389.467	311
389.914	285.25
390.362	392.92
390.809	303.98
391.256	259.51
391.703	278.23
392.15	311
392.596	322.7
393.043	329.72
393.49	346.11
393.937	280.57
394.383	357.81
394.83	240.78
395.276	273.55
395.723	280.57
396.169	280.57
396.616	254.83
397.062	341.43
397.508	339.09
397.954	257.17
398.401	266.53
398.847	282.91
399.293	329.72
399.739	282.91
400.185	423.34
400.631	296.96
401.076	367.17
401.522	353.13
401.968	362.49
402.414	339.09
402.859	341.43
403.305	282.91
403.75	313.34
404.196	289.93
404.641	325.04
405.086	339.09
405.532	254.83
405.977	343.77
406.422	336.74
406.867	322.7
407.312	311
407.757	334.4
408.202	271.21
408.647	327.38
409.092	390.58
409.537	315.68
409.982	261.85
410.426	313.34
410.871	243.12
411.316	303.98
411.76	346.11
412.205	308.66
412.649	301.64
413.093	341.43
413.538	259.51
413.982	294.61
414.426	303.98
414.87	315.68
415.314	273.55
415.758	233.76
416.202	282.91
416.646	306.32
417.09	303.98
417.534	325.04
417.978	313.34
418.421	282.91
418.865	346.11
419.309	306.32
419.752	346.11
420.196	311
420.639	325.04
421.083	285.25
421.526	285.25
421.969	327.38
422.412	287.59
422.856	238.44
423.299	371.85
423.742	296.96
424.185	355.47
424.628	280.57
425.071	259.51
425.513	313.34
425.956	341.43
426.399	266.53
426.842	360.15
427.284	341.43
427.727	282.91
428.169	287.59
428.612	315.68
429.054	348.45
429.497	292.27
429.939	348.45
430.381	299.3
430.823	350.79
431.265	278.23
431.707	296.96
432.149	301.64
432.591	280.57
433.033	315.68
433.475	289.93
433.917	275.89
434.359	315.68
434.8	271.21
435.242	350.79
435.684	341.43
436.125	301.64
436.567	327.38
437.008	327.38
437.449	325.04
437.891	348.45
438.332	320.36
438.773	261.85
439.214	285.25
439.656	332.06
440.097	311
440.538	278.23
440.978	322.7
441.419	325.04
441.86	353.13
442.301	287.59
442.742	289.93
443.182	245.46
443.623	303.98
444.063	346.11
444.504	252.49
444.944	308.66
445.385	292.27
445.825	273.55
446.265	275.89
446.706	322.7
447.146	266.53
447.586	264.19
448.026	311
448.466	296.96
448.906	315.68
449.346	268.87
449.786	282.91
450.225	292.27
450.665	308.66
451.105	322.7
451.544	261.85
451.984	376.53
452.424	278.23
452.863	332.06
453.302	301.64
453.742	318.02
454.181	367.17
454.62	303.98
455.059	311
455.499	273.55
455.938	285.25
456.377	296.96
456.816	315.68
457.254	362.49
457.693	343.77
458.132	339.09
458.571	313.34
459.01	303.98
459.448	369.51
459.887	322.7
460.325	315.68
460.764	343.77
461.202	301.64
461.641	311
462.079	348.45
462.517	313.34
462.955	355.47
463.393	306.32
463.832	296.96
464.27	259.51
464.708	311
465.145	308.66
465.583	299.3
466.021	313.34
466.459	275.89
466.897	301.64
467.334	346.11
467.772	322.7
468.209	273.55
468.647	329.72
469.084	268.87
469.522	402.28
469.959	311
470.396	329.72
470.833	278.23
471.271	313.34
471.708	341.43
472.145	250.14
472.582	339.09
473.019	332.06
473.456	320.36
473.892	306.32
474.329	303.98
474.766	325.04
475.202	325.04
475.639	325.04
476.076	369.51
476.512	376.53
476.949	332.06
477.385	336.74
477.821	318.02
478.258	301.64
478.694	320.36
479.13	273.55
479.566	299.3
480.002	313.34
480.438	287.59
480.874	259.51
481.31	306.32
481.746	308.66
482.181	343.77
482.617	318.02
483.053	322.7
483.488	341.43
483.924	280.57
484.36	350.79
484.795	289.93
485.23	385.9
485.666	264.19
486.101	313.34
486.536	339.09
486.971	360.15
487.407	385.9
487.842	381.21
488.277	292.27
488.712	264.19
489.146	339.09
489.581	268.87
490.016	313.34
490.451	343.77
490.885	292.27
491.32	390.58
491.755	327.38
492.189	315.68
492.624	303.98
493.058	329.72
493.492	336.74
493.927	308.66
494.361	332.06
494.795	264.19
495.229	287.59
495.663	341.43
496.097	299.3
496.531	325.04
496.965	371.85
497.399	275.89
497.833	306.32
498.266	355.47
498.7	322.7
499.134	341.43
499.567	315.68
500.001	294.61
500.434	275.89
500.868	282.91
501.301	315.68
501.734	266.53
502.168	236.1
502.601	273.55
503.034	306.32
503.467	303.98
503.9	278.23
504.333	348.45
504.766	287.59
505.199	299.3
505.632	311
506.064	336.74
506.497	329.72
506.93	294.61
507.362	318.02
507.795	315.68
508.227	308.66
508.66	348.45
509.092	287.59
509.524	280.57
509.956	289.93
510.389	303.98
510.821	292.27
511.253	383.56
511.685	383.56
512.117	341.43
512.549	301.64
512.981	315.68
513.412	275.89
513.844	275.89
514.276	311
514.707	353.13
515.139	327.38
515.571	315.68
516.002	320.36
516.433	315.68
516.865	271.21
517.296	294.61
517.727	322.7
518.159	348.45
518.59	299.3
519.021	336.74
519.452	320.36
519.883	301.64
520.314	367.17
520.744	318.02
521.175	313.34
521.606	315.68
522.037	320.36
522.467	296.96
522.898	271.21
523.328	306.32
523.759	313.34
524.189	311
524.62	332.06
525.05	285.25
525.48	322.7
525.91	296.96
526.341	371.85
526.771	325.04
527.201	301.64
527.631	282.91
528.061	275.89
528.49	266.53
528.92	280.57
529.35	245.46
529.78	320.36
530.209	311
530.639	325.04
531.068	313.34
531.498	339.09
531.927	329.72
532.357	296.96
532.786	332.06
533.215	282.91
533.644	273.55
534.074	320.36
534.503	261.85
534.932	306.32
535.361	311
535.79	339.09
536.218	320.36
536.647	369.51
537.076	406.96
537.505	339.09
537.933	250.14
538.362	339.09
538.79	325.04
539.219	362.49
539.647	357.81
540.076	350.79
540.504	287.59
540.932	271.21
541.36	378.87
541.788	282.91
542.217	296.96
542.645	374.19
543.073	294.61
543.5	343.77
543.928	301.64
544.356	294.61
544.784	327.38
545.211	292.27
545.639	313.34
546.067	306.32
546.494	381.21
546.922	243.12
547.349	273.55
547.776	296.96
548.204	360.15
548.631	374.19
549.058	271.21
549.485	339.09
549.912	346.11
550.339	357.81
550.766	346.11
551.193	303.98
551.62	287.59
552.047	294.61
552.474	325.04
552.9	261.85
553.327	311
553.754	327.38
554.18	325.04
554.607	318.02
555.033	355.47
555.459	259.51
555.886	332.06
556.312	257.17
556.738	275.89
557.164	280.57
557.59	341.43
558.016	264.19
558.442	278.23
558.868	315.68
559.294	346.11
559.72	301.64
560.145	245.46
560.571	332.06
560.997	313.34
561.422	275.89
561.848	339.09
562.273	343.77
562.699	287.59
563.124	296.96
563.549	306.32
563.974	348.45
564.4	243.12
564.825	280.57
565.25	294.61
565.675	341.43
566.1	329.72
566.525	303.98
566.95	308.66
567.374	343.77
567.799	353.13
568.224	320.36
568.648	339.09
569.073	322.7
569.497	350.79
569.922	257.17
570.346	334.4
570.771	325.04
571.195	268.87
571.619	311
572.043	301.64
572.467	247.8
572.891	318.02
573.315	285.25
573.739	325.04
574.163	287.59
574.587	287.59
575.011	350.79
575.435	311
575.858	308.66
576.282	303.98
576.705	322.7
577.129	339.09
577.552	301.64
577.976	388.24
578.399	376.53
578.822	334.4
579.245	343.77
579.669	292.27
580.092	311
580.515	329.72
580.938	294.61
581.361	266.53
581.784	282.91
582.206	320.36
582.629	353.13
583.052	376.53
583.474	259.51
583.897	301.64
584.32	273.55
584.742	369.51
585.165	250.14
585.587	308.66
586.009	296.96
586.431	254.83
586.854	315.68
587.276	308.66
587.698	318.02
588.12	303.98
588.542	311
588.964	308.66
589.386	303.98
589.807	257.17
590.229	325.04
590.651	278.23
591.073	271.21
591.494	343.77
591.916	357.81
592.337	243.12
592.759	285.25
593.18	341.43
593.601	289.93
594.022	339.09
594.444	322.7
594.865	236.1
595.286	367.17
595.707	341.43
596.128	250.14
596.549	325.04
596.97	329.72
597.39	292.27
597.811	348.45
598.232	308.66
598.652	299.3
599.073	334.4
599.494	390.58
599.914	348.45
600.334	322.7
600.755	327.38
601.175	275.89
601.595	289.93
602.015	264.19
602.436	306.32
602.856	477.18
603.276	287.59
603.696	308.66
604.115	282.91
604.535	252.49
604.955	308.66
605.375	369.51
605.794	303.98
606.214	334.4
606.634	294.61
607.053	285.25
607.473	282.91
607.892	301.64
608.311	332.06
608.731	325.04
609.15	329.72
609.569	367.17
609.988	334.4
610.407	334.4
610.826	294.61
611.245	226.74
611.664	320.36
612.083	383.56
612.501	360.15
612.92	315.68
613.339	329.72
613.757	278.23
614.176	289.93
614.594	362.49
615.013	341.43
615.431	334.4
615.85	289.93
616.268	308.66
616.686	294.61
617.104	334.4
617.522	280.57
617.94	294.61
618.358	299.3
618.776	362.49
619.194	299.3
619.612	294.61
620.03	343.77
620.447	397.6
620.865	275.89
621.282	322.7
621.7	296.96
622.117	294.61
622.535	292.27
622.952	292.27
623.369	371.85
623.787	322.7
624.204	301.64
624.621	268.87
625.038	418.66
625.455	369.51
625.872	329.72
626.289	287.59
626.706	318.02
627.123	299.3
627.539	250.14
627.956	325.04
628.373	266.53
628.789	303.98
629.206	243.12
629.622	341.43
630.038	308.66
630.455	376.53
630.871	264.19
631.287	205.67
631.703	334.4
632.12	350.79
632.536	320.36
632.952	315.68
633.368	346.11
633.783	336.74
634.199	273.55
634.615	315.68
635.031	322.7
635.446	346.11
635.862	275.89
636.277	311
636.693	243.12
637.108	306.32
637.524	369.51
637.939	329.72
638.354	315.68
638.77	374.19
639.185	322.7
639.6	329.72
640.015	325.04
640.43	308.66
640.845	360.15
641.259	315.68
641.674	311
642.089	336.74
642.504	322.7
642.918	367.17
643.333	303.98
643.747	278.23
644.162	341.43
644.576	320.36
644.991	329.72
645.405	296.96
645.819	346.11
646.233	329.72
646.647	306.32
647.061	311
647.475	355.47
647.889	294.61
648.303	315.68
648.717	332.06
649.131	334.4
649.545	313.34
649.958	268.87
650.372	280.57
650.785	292.27
651.199	332.06
651.612	292.27
652.026	308.66
652.439	303.98
652.852	292.27
653.266	268.87
653.679	268.87
654.092	275.89
654.505	339.09
654.918	329.72
655.331	346.11
655.744	346.11
656.156	292.27
656.569	320.36
656.982	311
657.394	294.61
657.807	322.7
658.22	292.27
658.632	348.45
659.044	292.27
659.457	296.96
659.869	315.68
660.281	311
660.693	301.64
661.106	329.72
661.518	364.83
661.93	271.21
662.342	268.87
662.754	348.45
663.165	306.32
663.577	332.06
663.989	350.79
664.401	332.06
664.812	282.91
665.224	243.12
665.635	320.36
666.047	348.45
666.458	268.87
666.869	315.68
667.281	336.74
667.692	325.04
668.103	306.32
668.514	238.44
668.925	332.06
669.336	364.83
669.747	313.34
670.158	350.79
670.569	329.72
670.979	348.45
671.39	360.15
671.801	376.53
672.211	268.87
672.622	311
673.032	325.04
673.443	385.9
673.853	296.96
674.263	294.61
674.674	362.49
675.084	355.47
675.494	212.7
675.904	350.79
676.314	273.55
676.724	289.93
677.134	336.74
677.544	313.34
677.953	311
678.363	250.14
678.773	318.02
679.182	289.93
679.592	311
680.001	240.78
680.411	299.3
680.82	355.47
681.23	266.53
681.639	325.04
682.048	303.98
682.457	313.34
682.866	303.98
683.275	320.36
683.684	266.53
684.093	362.49
684.502	301.64
684.911	292.27
685.32	292.27
685.728	315.68
686.137	294.61
686.546	296.96
686.954	282.91
687.363	296.96
687.771	303.98
688.179	357.81
688.588	266.53
688.996	278.23
689.404	252.49
689.812	320.36
690.22	320.36
690.628	325.04
691.036	322.7
691.444	327.38
691.852	282.91
692.26	296.96
692.667	215.04
693.075	292.27
693.483	271.21
693.89	287.59
694.298	360.15
694.705	238.44
695.112	278.23
695.52	266.53
695.927	266.53
696.334	367.17
696.741	282.91
697.148	261.85
697.555	320.36
697.962	301.64
698.369	282.91
698.776	343.77
699.183	313.34
699.59	287.59
699.996	259.51
700.403	301.64
700.81	294.61
701.216	329.72
701.623	327.38
702.029	364.83
702.435	353.13
702.842	334.4
703.248	315.68
703.654	350.79
704.06	336.74
704.466	289.93
704.872	289.93
705.278	294.61
705.684	306.32
706.09	313.34
706.496	271.21
706.901	327.38
707.307	348.45
707.712	369.51
708.118	315.68
708.523	303.98
708.929	280.57
709.334	296.96
709.74	357.81
710.145	275.89
710.55	282.91
710.955	313.34
711.36	285.25
711.765	287.59
712.17	315.68
712.575	367.17
712.98	821.24
713.385	390.58
713.789	350.79
714.194	350.79
714.599	325.04
715.003	257.17
715.408	313.34
715.812	343.77
716.217	381.21
716.621	322.7
717.025	250.14
717.429	296.96
717.833	322.7
718.238	299.3
718.642	240.78
719.046	247.8
719.449	294.61
719.853	287.59
720.257	289.93
720.661	247.8
721.065	264.19
721.468	296.96
721.872	271.21
722.275	289.93
722.679	362.49
723.082	292.27
723.485	308.66
723.889	289.93
724.292	289.93
724.695	336.74
725.098	292.27
725.501	280.57
725.904	280.57
726.307	318.02
726.71	299.3
727.113	325.04
727.516	271.21
727.918	289.93
728.321	257.17
728.724	299.3
729.126	313.34
729.529	308.66
729.931	322.7
730.333	362.49
730.736	388.24
731.138	311
731.54	346.11
731.942	273.55
732.344	243.12
732.746	325.04
733.148	282.91
733.55	299.3
733.952	339.09
734.354	308.66
734.756	308.66
735.157	320.36
735.559	261.85
735.96	353.13
736.362	299.3
736.763	346.11
737.165	376.53
737.566	318.02
737.967	238.44
738.368	322.7
738.77	275.89
739.171	357.81
739.572	313.34
739.973	287.59
740.374	306.32
740.774	315.68
741.175	292.27
741.576	296.96
741.977	299.3
742.377	355.47
742.778	332.06
743.178	282.91
743.579	336.74
743.979	346.11
744.379	318.02
744.78	259.51
745.18	282.91
745.58	318.02
745.98	350.79
746.38	308.66
746.78	322.7
747.18	296.96
747.58	275.89
747.98	381.21
748.38	364.83
748.779	339.09
749.179	257.17
749.578	236.1
749.978	313.34
750.377	299.3
750.777	325.04
751.176	282.91
751.575	282.91
751.975	348.45
752.374	336.74
752.773	313.34
753.172	292.27
753.571	334.4
753.97	311
754.369	299.3
754.768	282.91
755.166	339.09
755.565	303.98
755.964	329.72
756.362	332.06
756.761	264.19
757.159	334.4
757.558	306.32
757.956	301.64
758.354	320.36
758.753	278.23
759.151	257.17
759.549	229.08
759.947	334.4
760.345	292.27
760.743	303.98
761.141	311
761.539	306.32
761.936	308.66
762.334	296.96
762.732	268.87
763.129	292.27
763.527	322.7
763.924	392.92
764.322	294.61
764.719	299.3
765.117	325.04
765.514	296.96
765.911	257.17
766.308	292.27
766.705	299.3
767.102	350.79
767.499	336.74
767.896	362.49
