Data from Al_FLMS009871__922__16-19-06-122.txt Node

Date: Fri Mar 08 16:19:06 CST 2024
User: pe5414po
Spectrometer: FLMS00987
Trigger mode: 0
Integration Time (sec): 1.000000E-1
Scans to average: 1
Electric dark correction enabled: true
Nonlinearity correction enabled: false
Boxcar width: 0
XAxis mode: Wavelengths
Number of Pixels in Spectrum: 2048
>>>>>Begin Spectral Data<<<<<
188.938	-92.6
189.409	-92.6
189.879	-92.6
190.349	-116
190.819	-31.74
191.29	-90.26
191.76	-116
192.23	-78.55
192.7	-120.68
193.17	-69.19
193.64	-10.68
194.109	-36.42
194.579	-3.66
195.049	12.73
195.519	1.02
195.988	47.83
196.458	36.13
196.927	52.52
197.397	78.26
197.866	162.52
198.336	134.43
198.805	192.95
199.274	164.86
199.744	171.88
200.213	181.25
200.682	214.01
201.151	225.72
201.62	249.12
202.089	256.14
202.558	246.78
203.027	244.44
203.495	256.14
203.964	281.89
204.433	284.23
204.902	265.5
205.37	279.55
205.839	302.95
206.307	270.19
206.776	223.37
207.244	270.19
207.712	281.89
208.181	345.08
208.649	295.93
209.117	352.1
209.585	342.74
210.053	340.4
210.521	305.29
210.989	319.34
211.457	328.7
211.925	249.12
212.393	242.1
212.861	253.8
213.328	298.27
213.796	302.95
214.264	319.34
214.731	272.53
215.199	246.78
215.666	389.55
216.133	321.68
216.601	279.55
217.068	293.59
217.535	279.55
218.003	305.29
218.47	246.78
218.937	263.16
219.404	260.82
219.871	272.53
220.338	277.21
220.805	312.32
221.271	260.82
221.738	281.89
222.205	284.23
222.671	258.48
223.138	312.32
223.605	281.89
224.071	279.55
224.538	274.87
225.004	249.12
225.47	265.5
225.937	288.91
226.403	253.8
226.869	214.01
227.335	267.85
227.801	288.91
228.267	300.61
228.733	228.06
229.199	211.67
229.665	291.25
230.131	309.97
230.597	317
231.062	317
231.528	267.85
231.994	270.19
232.459	274.87
232.925	338.06
233.39	291.25
233.856	291.25
234.321	291.25
234.786	256.14
235.252	260.82
235.717	307.63
236.182	270.19
236.647	373.17
237.112	260.82
237.577	300.61
238.042	295.93
238.507	258.48
238.972	277.21
239.436	309.97
239.901	302.95
240.366	300.61
240.83	263.16
241.295	295.93
241.76	279.55
242.224	265.5
242.688	298.27
243.153	251.46
243.617	352.1
244.081	300.61
244.545	274.87
245.01	338.06
245.474	295.93
245.938	286.57
246.402	242.1
246.866	293.59
247.33	349.76
247.793	221.03
248.257	253.8
248.721	328.7
249.185	298.27
249.648	288.91
250.112	295.93
250.575	288.91
251.039	293.59
251.502	305.29
251.965	314.66
252.429	338.06
252.892	291.25
253.355	228.06
253.818	258.48
254.281	333.38
254.744	223.37
255.207	260.82
255.67	307.63
256.133	277.21
256.596	295.93
257.059	286.57
257.522	324.02
257.984	300.61
258.447	263.16
258.909	253.8
259.372	300.61
259.834	314.66
260.297	317
260.759	274.87
261.221	317
261.684	293.59
262.146	291.25
262.608	253.8
263.07	288.91
263.532	267.85
263.994	307.63
264.456	270.19
264.918	317
265.38	309.97
265.842	319.34
266.303	309.97
266.765	309.97
267.227	309.97
267.688	312.32
268.15	317
268.611	298.27
269.072	288.91
269.534	265.5
269.995	279.55
270.456	324.02
270.918	281.89
271.379	319.34
271.84	307.63
272.301	253.8
272.762	277.21
273.223	288.91
273.684	335.72
274.144	221.03
274.605	265.5
275.066	319.34
275.527	267.85
275.987	258.48
276.448	324.02
276.908	274.87
277.369	284.23
277.829	281.89
278.289	295.93
278.75	314.66
279.21	270.19
279.67	317
280.13	331.04
280.59	338.06
281.05	338.06
281.51	314.66
281.97	338.06
282.43	312.32
282.89	242.1
283.35	349.76
283.809	286.57
284.269	284.23
284.729	326.36
285.188	267.85
285.648	312.32
286.107	305.29
286.567	288.91
287.026	295.93
287.485	324.02
287.944	335.72
288.404	258.48
288.863	277.21
289.322	370.83
289.781	291.25
290.24	286.57
290.699	277.21
291.158	342.74
291.616	305.29
292.075	284.23
292.534	263.16
292.992	291.25
293.451	244.44
293.91	295.93
294.368	251.46
294.827	335.72
295.285	312.32
295.743	293.59
296.202	309.97
296.66	319.34
297.118	286.57
297.576	340.4
298.034	302.95
298.492	274.87
298.95	368.49
299.408	356.79
299.866	345.08
300.324	293.59
300.781	312.32
301.239	363.81
301.697	321.68
302.154	333.38
302.612	345.08
303.069	270.19
303.527	328.7
303.984	317
304.441	267.85
304.899	295.93
305.356	361.47
305.813	335.72
306.27	314.66
306.727	309.97
307.184	324.02
307.641	319.34
308.098	319.34
308.555	352.1
309.012	359.13
309.468	300.61
309.925	317
310.382	321.68
310.838	281.89
311.295	302.95
311.751	331.04
312.208	333.38
312.664	246.78
313.12	223.37
313.577	326.36
314.033	368.49
314.489	291.25
314.945	279.55
315.401	281.89
315.857	291.25
316.313	284.23
316.769	317
317.225	300.61
317.681	260.82
318.136	256.14
318.592	293.59
319.048	356.79
319.503	312.32
319.959	384.87
320.414	293.59
320.869	331.04
321.325	317
321.78	312.32
322.235	279.55
322.691	349.76
323.146	317
323.601	319.34
324.056	312.32
324.511	333.38
324.966	302.95
325.421	300.61
325.875	321.68
326.33	298.27
326.785	305.29
327.24	349.76
327.694	185.93
328.149	363.81
328.603	291.25
329.058	305.29
329.512	302.95
329.966	263.16
330.421	319.34
330.875	331.04
331.329	352.1
331.783	312.32
332.237	382.53
332.691	326.36
333.145	317
333.599	286.57
334.053	228.06
334.507	347.42
334.96	253.8
335.414	328.7
335.868	342.74
336.321	335.72
336.775	307.63
337.228	331.04
337.682	387.21
338.135	356.79
338.588	319.34
339.042	328.7
339.495	307.63
339.948	331.04
340.401	307.63
340.854	284.23
341.307	335.72
341.76	291.25
342.213	382.53
342.666	319.34
343.119	345.08
343.571	300.61
344.024	317
344.477	277.21
344.929	298.27
345.382	338.06
345.834	354.44
346.287	314.66
346.739	305.29
347.191	314.66
347.644	270.19
348.096	333.38
348.548	281.89
349	291.25
349.452	314.66
349.904	309.97
350.356	370.83
350.808	363.81
351.26	335.72
351.711	324.02
352.163	288.91
352.615	352.1
353.066	352.1
353.518	295.93
353.969	324.02
354.421	244.44
354.872	333.38
355.324	333.38
355.775	328.7
356.226	300.61
356.677	307.63
357.128	319.34
357.579	300.61
358.03	302.95
358.481	298.27
358.932	324.02
359.383	331.04
359.834	312.32
360.285	345.08
360.735	338.06
361.186	314.66
361.637	274.87
362.087	312.32
362.538	309.97
362.988	331.04
363.438	328.7
363.889	218.69
364.339	288.91
364.789	302.95
365.239	312.32
365.689	340.4
366.139	363.81
366.589	300.61
367.039	387.21
367.489	331.04
367.939	382.53
368.389	370.83
368.839	354.44
369.288	321.68
369.738	326.36
370.187	319.34
370.637	281.89
371.086	333.38
371.536	335.72
371.985	319.34
372.434	288.91
372.884	321.68
373.333	309.97
373.782	394.23
374.231	326.36
374.68	263.16
375.129	349.76
375.578	354.44
376.027	251.46
376.475	319.34
376.924	312.32
377.373	345.08
377.822	295.93
378.27	314.66
378.719	307.63
379.167	288.91
379.616	291.25
380.064	286.57
380.512	309.97
380.961	291.25
381.409	277.21
381.857	256.14
382.305	235.08
382.753	317
383.201	349.76
383.649	342.74
384.097	335.72
384.545	331.04
384.992	300.61
385.44	321.68
385.888	286.57
386.335	319.34
386.783	354.44
387.231	302.95
387.678	270.19
388.125	295.93
388.573	331.04
389.02	309.97
389.467	307.63
389.914	319.34
390.362	295.93
390.809	349.76
391.256	321.68
391.703	300.61
392.15	321.68
392.596	356.79
393.043	284.23
393.49	288.91
393.937	359.13
394.383	340.4
394.83	382.53
395.276	307.63
395.723	314.66
396.169	284.23
396.616	354.44
397.062	380.19
397.508	286.57
397.954	347.42
398.401	256.14
398.847	277.21
399.293	356.79
399.739	347.42
400.185	326.36
400.631	354.44
401.076	338.06
401.522	307.63
401.968	377.85
402.414	338.06
402.859	347.42
403.305	270.19
403.75	272.53
404.196	349.76
404.641	331.04
405.086	307.63
405.532	305.29
405.977	363.81
406.422	265.5
406.867	302.95
407.312	314.66
407.757	352.1
408.202	324.02
408.647	265.5
409.092	284.23
409.537	309.97
409.982	291.25
410.426	342.74
410.871	349.76
411.316	368.49
411.76	298.27
412.205	237.42
412.649	314.66
413.093	288.91
413.538	302.95
413.982	338.06
414.426	317
414.87	342.74
415.314	305.29
415.758	288.91
416.202	279.55
416.646	324.02
417.09	347.42
417.534	333.38
417.978	352.1
418.421	286.57
418.865	295.93
419.309	298.27
419.752	319.34
420.196	314.66
420.639	338.06
421.083	338.06
421.526	338.06
421.969	340.4
422.412	305.29
422.856	377.85
423.299	321.68
423.742	260.82
424.185	284.23
424.628	342.74
425.071	317
425.513	312.32
425.956	319.34
426.399	368.49
426.842	324.02
427.284	328.7
427.727	340.4
428.169	335.72
428.612	340.4
429.054	319.34
429.497	298.27
429.939	340.4
430.381	324.02
430.823	274.87
431.265	373.17
431.707	309.97
432.149	270.19
432.591	309.97
433.033	302.95
433.475	281.89
433.917	321.68
434.359	342.74
434.8	265.5
435.242	359.13
435.684	298.27
436.125	298.27
436.567	370.83
437.008	331.04
437.449	312.32
437.891	338.06
438.332	291.25
438.773	309.97
439.214	256.14
439.656	405.94
440.097	382.53
440.538	354.44
440.978	288.91
441.419	335.72
441.86	354.44
442.301	324.02
442.742	356.79
443.182	333.38
443.623	291.25
444.063	249.12
444.504	356.79
444.944	284.23
445.385	309.97
445.825	307.63
446.265	314.66
446.706	401.26
447.146	335.72
447.586	298.27
448.026	300.61
448.466	328.7
448.906	291.25
449.346	338.06
449.786	249.12
450.225	288.91
450.665	373.17
451.105	321.68
451.544	331.04
451.984	384.87
452.424	305.29
452.863	319.34
453.302	260.82
453.742	279.55
454.181	382.53
454.62	338.06
455.059	326.36
455.499	286.57
455.938	333.38
456.377	342.74
456.816	340.4
457.254	347.42
457.693	333.38
458.132	352.1
458.571	352.1
459.01	302.95
459.448	298.27
459.887	333.38
460.325	221.03
460.764	267.85
461.202	279.55
461.641	342.74
462.079	295.93
462.517	347.42
462.955	295.93
463.393	309.97
463.832	352.1
464.27	314.66
464.708	284.23
465.145	328.7
465.583	326.36
466.021	281.89
466.459	398.92
466.897	354.44
467.334	405.94
467.772	370.83
468.209	354.44
468.647	295.93
469.084	291.25
469.522	312.32
469.959	295.93
470.396	309.97
470.833	300.61
471.271	302.95
471.708	312.32
472.145	333.38
472.582	368.49
473.019	279.55
473.456	307.63
473.892	331.04
474.329	281.89
474.766	354.44
475.202	384.87
475.639	375.51
476.076	326.36
476.512	368.49
476.949	366.15
477.385	368.49
477.821	302.95
478.258	389.55
478.694	326.36
479.13	354.44
479.566	265.5
480.002	321.68
480.438	309.97
480.874	333.38
481.31	244.44
481.746	363.81
482.181	312.32
482.617	363.81
483.053	338.06
483.488	377.85
483.924	305.29
484.36	349.76
484.795	300.61
485.23	321.68
485.666	359.13
486.101	375.51
486.536	349.76
486.971	326.36
487.407	321.68
487.842	298.27
488.277	288.91
488.712	279.55
489.146	361.47
489.581	317
490.016	277.21
490.451	295.93
490.885	347.42
491.32	352.1
491.755	398.92
492.189	249.12
492.624	295.93
493.058	331.04
493.492	300.61
493.927	309.97
494.361	272.53
494.795	333.38
495.229	340.4
495.663	349.76
496.097	359.13
496.531	354.44
496.965	384.87
497.399	335.72
497.833	359.13
498.266	345.08
498.7	272.53
499.134	302.95
499.567	347.42
500.001	321.68
500.434	314.66
500.868	312.32
501.301	340.4
501.734	317
502.168	312.32
502.601	305.29
503.034	317
503.467	326.36
503.9	263.16
504.333	373.17
504.766	300.61
505.199	338.06
505.632	370.83
506.064	382.53
506.497	338.06
506.93	317
507.362	298.27
507.795	314.66
508.227	352.1
508.66	331.04
509.092	305.29
509.524	319.34
509.956	352.1
510.389	347.42
510.821	321.68
511.253	319.34
511.685	377.85
512.117	305.29
512.549	321.68
512.981	279.55
513.412	326.36
513.844	302.95
514.276	380.19
514.707	340.4
515.139	300.61
515.571	389.55
516.002	293.59
516.433	319.34
516.865	293.59
517.296	288.91
517.727	328.7
518.159	317
518.59	349.76
519.021	326.36
519.452	333.38
519.883	391.89
520.314	225.72
520.744	307.63
521.175	225.72
521.606	249.12
522.037	309.97
522.467	307.63
522.898	272.53
523.328	321.68
523.759	338.06
524.189	345.08
524.62	328.7
525.05	265.5
525.48	340.4
525.91	331.04
526.341	295.93
526.771	335.72
527.201	284.23
527.631	363.81
528.061	335.72
528.49	295.93
528.92	300.61
529.35	326.36
529.78	277.21
530.209	338.06
530.639	314.66
531.068	317
531.498	342.74
531.927	342.74
532.357	391.89
532.786	272.53
533.215	361.47
533.644	305.29
534.074	291.25
534.503	300.61
534.932	326.36
535.361	309.97
535.79	277.21
536.218	298.27
536.647	368.49
537.076	328.7
537.505	349.76
537.933	324.02
538.362	342.74
538.79	359.13
539.219	368.49
539.647	284.23
540.076	319.34
540.504	356.79
540.932	335.72
541.36	321.68
541.788	359.13
542.217	270.19
542.645	312.32
543.073	281.89
543.5	302.95
543.928	307.63
544.356	328.7
544.784	331.04
545.211	345.08
545.639	340.4
546.067	319.34
546.494	401.26
546.922	354.44
547.349	277.21
547.776	307.63
548.204	321.68
548.631	342.74
549.058	333.38
549.485	366.15
549.912	338.06
550.339	317
550.766	319.34
551.193	300.61
551.62	359.13
552.047	321.68
552.474	328.7
552.9	335.72
553.327	410.62
553.754	377.85
554.18	340.4
554.607	349.76
555.033	253.8
555.459	366.15
555.886	340.4
556.312	354.44
556.738	345.08
557.164	359.13
557.59	298.27
558.016	331.04
558.442	356.79
558.868	309.97
559.294	298.27
559.72	347.42
560.145	331.04
560.571	302.95
560.997	326.36
561.422	291.25
561.848	302.95
562.273	270.19
562.699	382.53
563.124	291.25
563.549	345.08
563.974	298.27
564.4	347.42
564.825	422.32
565.25	312.32
565.675	370.83
566.1	314.66
566.525	265.5
566.95	359.13
567.374	279.55
567.799	291.25
568.224	333.38
568.648	298.27
569.073	321.68
569.497	281.89
569.922	307.63
570.346	389.55
570.771	338.06
571.195	359.13
571.619	331.04
572.043	295.93
572.467	291.25
572.891	302.95
573.315	368.49
573.739	312.32
574.163	295.93
574.587	363.81
575.011	288.91
575.435	410.62
575.858	321.68
576.282	352.1
576.705	356.79
577.129	338.06
577.552	370.83
577.976	265.5
578.399	300.61
578.822	298.27
579.245	312.32
579.669	314.66
580.092	312.32
580.515	373.17
580.938	324.02
581.361	279.55
581.784	319.34
582.206	340.4
582.629	352.1
583.052	319.34
583.474	370.83
583.897	288.91
584.32	288.91
584.742	319.34
585.165	419.98
585.587	366.15
586.009	324.02
586.431	356.79
586.854	368.49
587.276	309.97
587.698	293.59
588.12	356.79
588.542	415.3
588.964	335.72
589.386	307.63
589.807	410.62
590.229	293.59
590.651	326.36
591.073	389.55
591.494	361.47
591.916	319.34
592.337	349.76
592.759	277.21
593.18	281.89
593.601	324.02
594.022	260.82
594.444	331.04
594.865	370.83
595.286	279.55
595.707	352.1
596.128	366.15
596.549	298.27
596.97	366.15
597.39	319.34
597.811	309.97
598.232	354.44
598.652	342.74
599.073	335.72
599.494	335.72
599.914	265.5
600.334	356.79
600.755	352.1
601.175	352.1
601.595	314.66
602.015	312.32
602.436	377.85
602.856	417.64
603.276	356.79
603.696	319.34
604.115	387.21
604.535	293.59
604.955	342.74
605.375	307.63
605.794	265.5
606.214	307.63
606.634	284.23
607.053	361.47
607.473	342.74
607.892	288.91
608.311	305.29
608.731	340.4
609.15	342.74
609.569	370.83
609.988	328.7
610.407	342.74
610.826	354.44
611.245	333.38
611.664	370.83
612.083	396.57
612.501	309.97
612.92	338.06
613.339	398.92
613.757	300.61
614.176	298.27
614.594	326.36
615.013	321.68
615.431	244.44
615.85	335.72
616.268	333.38
616.686	347.42
617.104	317
617.522	424.66
617.94	314.66
618.358	319.34
618.776	284.23
619.194	309.97
619.612	274.87
620.03	309.97
620.447	298.27
620.865	349.76
621.282	326.36
621.7	317
622.117	279.55
622.535	380.19
622.952	302.95
623.369	342.74
623.787	384.87
624.204	328.7
624.621	370.83
625.038	387.21
625.455	324.02
625.872	274.87
626.289	321.68
626.706	277.21
627.123	298.27
627.539	324.02
627.956	349.76
628.373	363.81
628.789	338.06
629.206	347.42
629.622	324.02
630.038	312.32
630.455	295.93
630.871	321.68
631.287	345.08
631.703	319.34
632.12	326.36
632.536	319.34
632.952	335.72
633.368	384.87
633.783	349.76
634.199	319.34
634.615	354.44
635.031	286.57
635.446	396.57
635.862	331.04
636.277	345.08
636.693	277.21
637.108	286.57
637.524	368.49
637.939	298.27
638.354	347.42
638.77	309.97
639.185	300.61
639.6	317
640.015	286.57
640.43	317
640.845	326.36
641.259	232.74
641.674	333.38
642.089	342.74
642.504	324.02
642.918	272.53
643.333	370.83
643.747	314.66
644.162	324.02
644.576	328.7
644.991	307.63
645.405	291.25
645.819	305.29
646.233	314.66
646.647	317
647.061	366.15
647.475	363.81
647.889	309.97
648.303	295.93
648.717	277.21
649.131	345.08
649.545	342.74
649.958	302.95
650.372	300.61
650.785	328.7
651.199	338.06
651.612	338.06
652.026	335.72
652.439	359.13
652.852	321.68
653.266	382.53
653.679	307.63
654.092	347.42
654.505	307.63
654.918	335.72
655.331	319.34
655.744	352.1
656.156	298.27
656.569	338.06
656.982	333.38
657.394	335.72
657.807	319.34
658.22	295.93
658.632	284.23
659.044	295.93
659.457	314.66
659.869	354.44
660.281	375.51
660.693	265.5
661.106	277.21
661.518	263.16
661.93	338.06
662.342	274.87
662.754	279.55
663.165	375.51
663.577	312.32
663.989	349.76
664.401	321.68
664.812	328.7
665.224	387.21
665.635	293.59
666.047	293.59
666.458	359.13
666.869	321.68
667.281	274.87
667.692	354.44
668.103	298.27
668.514	349.76
668.925	335.72
669.336	363.81
669.747	342.74
670.158	328.7
670.569	302.95
670.979	412.96
671.39	361.47
671.801	267.85
672.211	293.59
672.622	349.76
673.032	354.44
673.443	281.89
673.853	319.34
674.263	368.49
674.674	312.32
675.084	300.61
675.494	293.59
675.904	331.04
676.314	331.04
676.724	354.44
677.134	382.53
677.544	293.59
677.953	368.49
678.363	265.5
678.773	408.28
679.182	427
679.592	326.36
680.001	391.89
680.411	307.63
680.82	305.29
681.23	291.25
681.639	295.93
682.048	328.7
682.457	291.25
682.866	394.23
683.275	363.81
683.684	347.42
684.093	359.13
684.502	331.04
684.911	284.23
685.32	328.7
685.728	279.55
686.137	270.19
686.546	293.59
686.954	345.08
687.363	317
687.771	295.93
688.179	352.1
688.588	307.63
688.996	384.87
689.404	328.7
689.812	338.06
690.22	352.1
690.628	347.42
691.036	373.17
691.444	359.13
691.852	260.82
692.26	333.38
692.667	293.59
693.075	366.15
693.483	326.36
693.89	319.34
694.298	309.97
694.705	345.08
695.112	270.19
695.52	263.16
695.927	312.32
696.334	293.59
696.741	333.38
697.148	328.7
697.555	331.04
697.962	354.44
698.369	307.63
698.776	324.02
699.183	335.72
699.59	293.59
699.996	324.02
700.403	295.93
700.81	314.66
701.216	300.61
701.623	340.4
702.029	249.12
702.435	319.34
702.842	309.97
703.248	256.14
703.654	302.95
704.06	249.12
704.466	302.95
704.872	242.1
705.278	317
705.684	345.08
706.09	300.61
706.496	340.4
706.901	281.89
707.307	342.74
707.712	314.66
708.118	293.59
708.523	335.72
708.929	312.32
709.334	384.87
709.74	389.55
710.145	279.55
710.55	305.29
710.955	321.68
711.36	293.59
711.765	272.53
712.17	295.93
712.575	347.42
712.98	803.83
713.385	387.21
713.789	354.44
714.194	281.89
714.599	345.08
715.003	361.47
715.408	307.63
715.812	277.21
716.217	345.08
716.621	286.57
717.025	300.61
717.429	328.7
717.833	370.83
718.238	366.15
718.642	300.61
719.046	326.36
719.449	242.1
719.853	305.29
720.257	326.36
720.661	373.17
721.065	286.57
721.468	328.7
721.872	352.1
722.275	295.93
722.679	380.19
723.082	324.02
723.485	335.72
723.889	309.97
724.292	333.38
724.695	319.34
725.098	347.42
725.501	253.8
725.904	317
726.307	352.1
726.71	312.32
727.113	293.59
727.516	359.13
727.918	412.96
728.321	352.1
728.724	298.27
729.126	312.32
729.529	302.95
729.931	359.13
730.333	324.02
730.736	338.06
731.138	312.32
731.54	354.44
731.942	293.59
732.344	319.34
732.746	382.53
733.148	274.87
733.55	305.29
733.952	246.78
734.354	279.55
734.756	314.66
735.157	354.44
735.559	328.7
735.96	298.27
736.362	342.74
736.763	347.42
737.165	380.19
737.566	345.08
737.967	281.89
738.368	324.02
738.77	270.19
739.171	370.83
739.572	394.23
739.973	302.95
740.374	300.61
740.774	347.42
741.175	319.34
741.576	359.13
741.977	349.76
742.377	317
742.778	288.91
743.178	298.27
743.579	312.32
743.979	363.81
744.379	295.93
744.78	300.61
745.18	263.16
745.58	312.32
745.98	328.7
746.38	253.8
746.78	312.32
747.18	349.76
747.58	340.4
747.98	317
748.38	251.46
748.779	335.72
749.179	335.72
749.578	293.59
749.978	319.34
750.377	300.61
750.777	328.7
751.176	333.38
751.575	354.44
751.975	307.63
752.374	288.91
752.773	321.68
753.172	412.96
753.571	291.25
753.97	277.21
754.369	295.93
754.768	331.04
755.166	284.23
755.565	284.23
755.964	384.87
756.362	309.97
756.761	279.55
757.159	335.72
757.558	298.27
757.956	331.04
758.354	307.63
758.753	286.57
759.151	342.74
759.549	319.34
759.947	298.27
760.345	295.93
760.743	352.1
761.141	328.7
761.539	298.27
761.936	305.29
762.334	389.55
762.732	314.66
763.129	270.19
763.527	309.97
763.924	380.19
764.322	352.1
764.719	328.7
765.117	347.42
765.514	419.98
765.911	267.85
766.308	342.74
766.705	288.91
767.102	284.23
767.499	319.34
