Data from Al_FLMS009871__924__16-19-06-322.txt Node

Date: Fri Mar 08 16:19:06 CST 2024
User: pe5414po
Spectrometer: FLMS00987
Trigger mode: 0
Integration Time (sec): 1.000000E-1
Scans to average: 1
Electric dark correction enabled: true
Nonlinearity correction enabled: false
Boxcar width: 0
XAxis mode: Wavelengths
Number of Pixels in Spectrum: 2048
>>>>>Begin Spectral Data<<<<<
188.938	-55.3
189.409	-55.3
189.879	-55.3
190.349	-125.51
190.819	-62.32
191.29	-116.15
191.76	-62.32
192.23	-132.53
192.7	-10.82
193.17	-95.08
193.64	-76.36
194.109	17.26
194.579	-8.48
195.049	10.24
195.519	19.6
195.988	47.69
196.458	61.73
196.927	61.73
197.397	89.82
197.866	108.54
198.336	85.14
198.805	138.97
199.274	120.25
199.744	237.27
200.213	167.06
200.682	155.35
201.151	216.21
201.62	206.84
202.089	251.32
202.558	295.79
203.027	265.36
203.495	258.34
203.964	225.57
204.433	281.74
204.902	270.04
205.37	307.49
205.839	298.13
206.307	319.19
206.776	295.79
207.244	248.97
207.712	314.51
208.181	263.02
208.649	267.7
209.117	284.08
209.585	312.17
210.053	302.81
210.521	253.66
210.989	293.44
211.457	349.62
211.925	316.85
212.393	227.91
212.861	286.42
213.328	237.27
213.796	330.89
214.264	295.79
214.731	293.44
215.199	284.08
215.666	232.59
216.133	307.49
216.601	251.32
217.068	293.44
217.535	246.63
218.003	248.97
218.47	248.97
218.937	216.21
219.404	316.85
219.871	237.27
220.338	204.5
220.805	321.53
221.271	197.48
221.738	206.84
222.205	270.04
222.671	206.84
223.138	270.04
223.605	267.7
224.071	272.38
224.538	347.28
225.004	234.93
225.47	206.84
225.937	237.27
226.403	305.15
226.869	295.79
227.335	277.06
227.801	277.06
228.267	302.81
228.733	223.23
229.199	237.27
229.665	274.72
230.131	279.4
230.597	251.32
231.062	248.97
231.528	256
231.994	307.49
232.459	239.61
232.925	272.38
233.39	241.95
233.856	284.08
234.321	253.66
234.786	232.59
235.252	305.15
235.717	244.29
236.182	246.63
236.647	248.97
237.112	267.7
237.577	241.95
238.042	234.93
238.507	326.21
238.972	265.36
239.436	260.68
239.901	300.47
240.366	253.66
240.83	277.06
241.295	241.95
241.76	248.97
242.224	281.74
242.688	272.38
243.153	312.17
243.617	300.47
244.081	326.21
244.545	300.47
245.01	234.93
245.474	279.4
245.938	319.19
246.402	314.51
246.866	253.66
247.33	305.15
247.793	286.42
248.257	267.7
248.721	274.72
249.185	239.61
249.648	326.21
250.112	288.76
250.575	284.08
251.039	246.63
251.502	204.5
251.965	305.15
252.429	267.7
252.892	223.23
253.355	232.59
253.818	300.47
254.281	316.85
254.744	302.81
255.207	337.91
255.67	244.29
256.133	291.1
256.596	267.7
257.059	288.76
257.522	286.42
257.984	263.02
258.447	305.15
258.909	363.66
259.372	234.93
259.834	321.53
260.297	258.34
260.759	260.68
261.221	277.06
261.684	263.02
262.146	251.32
262.608	251.32
263.07	319.19
263.532	256
263.994	211.53
264.456	291.1
264.918	314.51
265.38	272.38
265.842	232.59
266.303	237.27
266.765	351.96
267.227	260.68
267.688	277.06
268.15	277.06
268.611	312.17
269.072	237.27
269.534	244.29
269.995	279.4
270.456	227.91
270.918	335.57
271.379	279.4
271.84	351.96
272.301	319.19
272.762	274.72
273.223	281.74
273.684	267.7
274.144	246.63
274.605	272.38
275.066	270.04
275.527	314.51
275.987	260.68
276.448	241.95
276.908	295.79
277.369	281.74
277.829	260.68
278.289	347.28
278.75	351.96
279.21	260.68
279.67	267.7
280.13	305.15
280.59	272.38
281.05	260.68
281.51	281.74
281.97	241.95
282.43	335.57
282.89	267.7
283.35	333.23
283.809	258.34
284.269	300.47
284.729	244.29
285.188	321.53
285.648	270.04
286.107	279.4
286.567	291.1
287.026	300.47
287.485	270.04
287.944	309.83
288.404	258.34
288.863	295.79
289.322	263.02
289.781	258.34
290.24	281.74
290.699	344.94
291.158	312.17
291.616	258.34
292.075	279.4
292.534	263.02
292.992	286.42
293.451	265.36
293.91	246.63
294.368	333.23
294.827	286.42
295.285	270.04
295.743	344.94
296.202	251.32
296.66	284.08
297.118	260.68
297.576	337.91
298.034	347.28
298.492	305.15
298.95	284.08
299.408	319.19
299.866	253.66
300.324	267.7
300.781	279.4
301.239	326.21
301.697	342.6
302.154	272.38
302.612	246.63
303.069	253.66
303.527	267.7
303.984	265.36
304.441	234.93
304.899	270.04
305.356	295.79
305.813	330.89
306.27	330.89
306.727	314.51
307.184	272.38
307.641	326.21
308.098	246.63
308.555	284.08
309.012	302.81
309.468	291.1
309.925	248.97
310.382	354.3
310.838	279.4
311.295	307.49
311.751	356.64
312.208	373.02
312.664	295.79
313.12	361.32
313.577	323.87
314.033	347.28
314.489	263.02
314.945	358.98
315.401	326.21
315.857	293.44
316.313	370.68
316.769	263.02
317.225	349.62
317.681	323.87
318.136	288.76
318.592	330.89
319.048	333.23
319.503	340.26
319.959	326.21
320.414	333.23
320.869	354.3
321.325	293.44
321.78	232.59
322.235	319.19
322.691	340.26
323.146	286.42
323.601	321.53
324.056	342.6
324.511	351.96
324.966	335.57
325.421	335.57
325.875	274.72
326.33	298.13
326.785	298.13
327.24	337.91
327.694	253.66
328.149	344.94
328.603	309.83
329.058	384.73
329.512	323.87
329.966	342.6
330.421	319.19
330.875	305.15
331.329	267.7
331.783	274.72
332.237	241.95
332.691	300.47
333.145	312.17
333.599	312.17
334.053	335.57
334.507	188.12
334.96	305.15
335.414	237.27
335.868	298.13
336.321	337.91
336.775	337.91
337.228	321.53
337.682	335.57
338.135	384.73
338.588	337.91
339.042	328.55
339.495	284.08
339.948	342.6
340.401	309.83
340.854	272.38
341.307	309.83
341.76	302.81
342.213	284.08
342.666	351.96
343.119	356.64
343.571	342.6
344.024	335.57
344.477	302.81
344.929	335.57
345.382	314.51
345.834	298.13
346.287	267.7
346.739	321.53
347.191	258.34
347.644	288.76
348.096	328.55
348.548	358.98
349	316.85
349.452	284.08
349.904	370.68
350.356	366
350.808	340.26
351.26	351.96
351.711	349.62
352.163	330.89
352.615	295.79
353.066	312.17
353.518	288.76
353.969	330.89
354.421	340.26
354.872	340.26
355.324	312.17
355.775	305.15
356.226	330.89
356.677	373.02
357.128	330.89
357.579	321.53
358.03	349.62
358.481	270.04
358.932	319.19
359.383	284.08
359.834	354.3
360.285	298.13
360.735	384.73
361.186	263.02
361.637	312.17
362.087	309.83
362.538	309.83
362.988	366
363.438	314.51
363.889	288.76
364.339	319.19
364.789	351.96
365.239	309.83
365.689	307.49
366.139	337.91
366.589	305.15
367.039	326.21
367.489	347.28
367.939	351.96
368.389	314.51
368.839	237.27
369.288	356.64
369.738	319.19
370.187	326.21
370.637	284.08
371.086	288.76
371.536	351.96
371.985	225.57
372.434	328.55
372.884	274.72
373.333	323.87
373.782	270.04
374.231	328.55
374.68	366
375.129	316.85
375.578	335.57
376.027	333.23
376.475	323.87
376.924	309.83
377.373	337.91
377.822	300.47
378.27	368.34
378.719	312.17
379.167	361.32
379.616	286.42
380.064	323.87
380.512	246.63
380.961	307.49
381.409	302.81
381.857	274.72
382.305	260.68
382.753	298.13
383.201	267.7
383.649	326.21
384.097	358.98
384.545	370.68
384.992	347.28
385.44	326.21
385.888	314.51
386.335	321.53
386.783	335.57
387.231	323.87
387.678	305.15
388.125	284.08
388.573	330.89
389.02	314.51
389.467	354.3
389.914	326.21
390.362	270.04
390.809	274.72
391.256	307.49
391.703	309.83
392.15	366
392.596	314.51
393.043	288.76
393.49	281.74
393.937	342.6
394.383	309.83
394.83	316.85
395.276	305.15
395.723	366
396.169	368.34
396.616	309.83
397.062	319.19
397.508	307.49
397.954	230.25
398.401	270.04
398.847	309.83
399.293	398.77
399.739	314.51
400.185	302.81
400.631	305.15
401.076	272.38
401.522	298.13
401.968	302.81
402.414	302.81
402.859	241.95
403.305	263.02
403.75	225.57
404.196	335.57
404.641	335.57
405.086	319.19
405.532	347.28
405.977	305.15
406.422	333.23
406.867	328.55
407.312	267.7
407.757	342.6
408.202	260.68
408.647	316.85
409.092	291.1
409.537	284.08
409.982	274.72
410.426	356.64
410.871	305.15
411.316	323.87
411.76	279.4
412.205	358.98
412.649	244.29
413.093	293.44
413.538	302.81
413.982	300.47
414.426	260.68
414.87	309.83
415.314	363.66
415.758	312.17
416.202	305.15
416.646	281.74
417.09	291.1
417.534	300.47
417.978	288.76
418.421	321.53
418.865	305.15
419.309	286.42
419.752	314.51
420.196	347.28
420.639	288.76
421.083	354.3
421.526	335.57
421.969	335.57
422.412	314.51
422.856	380.04
423.299	337.91
423.742	366
424.185	342.6
424.628	349.62
425.071	316.85
425.513	314.51
425.956	305.15
426.399	260.68
426.842	302.81
427.284	295.79
427.727	316.85
428.169	321.53
428.612	295.79
429.054	330.89
429.497	288.76
429.939	295.79
430.381	340.26
430.823	330.89
431.265	373.02
431.707	263.02
432.149	368.34
432.591	302.81
433.033	298.13
433.475	295.79
433.917	328.55
434.359	340.26
434.8	354.3
435.242	281.74
435.684	316.85
436.125	328.55
436.567	307.49
437.008	291.1
437.449	300.47
437.891	319.19
438.332	300.47
438.773	314.51
439.214	295.79
439.656	244.29
440.097	263.02
440.538	295.79
440.978	330.89
441.419	293.44
441.86	319.19
442.301	351.96
442.742	316.85
443.182	373.02
443.623	312.17
444.063	314.51
444.504	358.98
444.944	366
445.385	295.79
445.825	344.94
446.265	438.56
446.706	335.57
447.146	272.38
447.586	316.85
448.026	366
448.466	295.79
448.906	389.41
449.346	328.55
449.786	370.68
450.225	281.74
450.665	284.08
451.105	293.44
451.544	333.23
451.984	344.94
452.424	314.51
452.863	354.3
453.302	288.76
453.742	330.89
454.181	286.42
454.62	358.98
455.059	347.28
455.499	305.15
455.938	354.3
456.377	256
456.816	307.49
457.254	319.19
457.693	307.49
458.132	314.51
458.571	284.08
459.01	337.91
459.448	291.1
459.887	342.6
460.325	321.53
460.764	307.49
461.202	351.96
461.641	342.6
462.079	298.13
462.517	330.89
462.955	375.36
463.393	316.85
463.832	321.53
464.27	333.23
464.708	387.07
465.145	300.47
465.583	305.15
466.021	256
466.459	312.17
466.897	316.85
467.334	323.87
467.772	349.62
468.209	349.62
468.647	298.13
469.084	333.23
469.522	307.49
469.959	321.53
470.396	307.49
470.833	337.91
471.271	270.04
471.708	356.64
472.145	344.94
472.582	286.42
473.019	328.55
473.456	347.28
473.892	389.41
474.329	342.6
474.766	293.44
475.202	319.19
475.639	328.55
476.076	358.98
476.512	312.17
476.949	382.39
477.385	281.74
477.821	323.87
478.258	321.53
478.694	298.13
479.13	305.15
479.566	323.87
480.002	377.7
480.438	307.49
480.874	277.06
481.31	298.13
481.746	298.13
482.181	340.26
482.617	384.73
483.053	335.57
483.488	309.83
483.924	295.79
484.36	293.44
484.795	286.42
485.23	267.7
485.666	309.83
486.101	302.81
486.536	260.68
486.971	265.36
487.407	391.75
487.842	314.51
488.277	241.95
488.712	309.83
489.146	298.13
489.581	351.96
490.016	358.98
490.451	337.91
490.885	342.6
491.32	347.28
491.755	344.94
492.189	316.85
492.624	337.91
493.058	349.62
493.492	277.06
493.927	333.23
494.361	333.23
494.795	309.83
495.229	340.26
495.663	326.21
496.097	396.43
496.531	284.08
496.965	314.51
497.399	256
497.833	305.15
498.266	307.49
498.7	415.15
499.134	340.26
499.567	349.62
500.001	326.21
500.434	309.83
500.868	293.44
501.301	288.76
501.734	302.81
502.168	291.1
502.601	286.42
503.034	349.62
503.467	295.79
503.9	307.49
504.333	342.6
504.766	363.66
505.199	349.62
505.632	302.81
506.064	319.19
506.497	330.89
506.93	328.55
507.362	326.21
507.795	330.89
508.227	272.38
508.66	251.32
509.092	295.79
509.524	333.23
509.956	312.17
510.389	309.83
510.821	375.36
511.253	302.81
511.685	312.17
512.117	265.36
512.549	337.91
512.981	295.79
513.412	302.81
513.844	288.76
514.276	302.81
514.707	267.7
515.139	279.4
515.571	298.13
516.002	319.19
516.433	349.62
516.865	270.04
517.296	328.55
517.727	328.55
518.159	319.19
518.59	298.13
519.021	314.51
519.452	314.51
519.883	342.6
520.314	314.51
520.744	356.64
521.175	293.44
521.606	340.26
522.037	265.36
522.467	373.02
522.898	291.1
523.328	335.57
523.759	373.02
524.189	373.02
524.62	281.74
525.05	314.51
525.48	295.79
525.91	295.79
526.341	234.93
526.771	328.55
527.201	284.08
527.631	288.76
528.061	288.76
528.49	351.96
528.92	277.06
529.35	302.81
529.78	366
530.209	267.7
530.639	382.39
531.068	326.21
531.498	387.07
531.927	305.15
532.357	330.89
532.786	333.23
533.215	309.83
533.644	279.4
534.074	270.04
534.503	302.81
534.932	302.81
535.361	295.79
535.79	351.96
536.218	239.61
536.647	307.49
537.076	316.85
537.505	335.57
537.933	354.3
538.362	330.89
538.79	351.96
539.219	361.32
539.647	328.55
540.076	370.68
540.504	316.85
540.932	326.21
541.36	312.17
541.788	342.6
542.217	373.02
542.645	286.42
543.073	314.51
543.5	312.17
543.928	340.26
544.356	314.51
544.784	312.17
545.211	335.57
545.639	344.94
546.067	312.17
546.494	237.27
546.922	312.17
547.349	319.19
547.776	323.87
548.204	368.34
548.631	312.17
549.058	321.53
549.485	309.83
549.912	321.53
550.339	232.59
550.766	288.76
551.193	349.62
551.62	375.36
552.047	316.85
552.474	375.36
552.9	277.06
553.327	307.49
553.754	328.55
554.18	356.64
554.607	333.23
555.033	321.53
555.459	384.73
555.886	342.6
556.312	314.51
556.738	312.17
557.164	288.76
557.59	328.55
558.016	330.89
558.442	344.94
558.868	312.17
559.294	366
559.72	314.51
560.145	363.66
560.571	272.38
560.997	298.13
561.422	366
561.848	330.89
562.273	305.15
562.699	291.1
563.124	291.1
563.549	333.23
563.974	293.44
564.4	349.62
564.825	384.73
565.25	375.36
565.675	326.21
566.1	256
566.525	321.53
566.95	342.6
567.374	291.1
567.799	309.83
568.224	349.62
568.648	340.26
569.073	349.62
569.497	314.51
569.922	291.1
570.346	349.62
570.771	335.57
571.195	330.89
571.619	321.53
572.043	356.64
572.467	274.72
572.891	300.47
573.315	330.89
573.739	274.72
574.163	323.87
574.587	321.53
575.011	389.41
575.435	368.34
575.858	321.53
576.282	330.89
576.705	312.17
577.129	246.63
577.552	298.13
577.976	312.17
578.399	321.53
578.822	298.13
579.245	321.53
579.669	328.55
580.092	274.72
580.515	349.62
580.938	272.38
581.361	335.57
581.784	347.28
582.206	312.17
582.629	274.72
583.052	281.74
583.474	295.79
583.897	356.64
584.32	363.66
584.742	326.21
585.165	309.83
585.587	279.4
586.009	366
586.431	319.19
586.854	295.79
587.276	291.1
587.698	319.19
588.12	291.1
588.542	347.28
588.964	368.34
589.386	361.32
589.807	309.83
590.229	309.83
590.651	351.96
591.073	349.62
591.494	293.44
591.916	361.32
592.337	291.1
592.759	232.59
593.18	321.53
593.601	335.57
594.022	293.44
594.444	319.19
594.865	300.47
595.286	316.85
595.707	300.47
596.128	358.98
596.549	319.19
596.97	337.91
597.39	361.32
597.811	347.28
598.232	265.36
598.652	277.06
599.073	319.19
599.494	293.44
599.914	281.74
600.334	330.89
600.755	358.98
601.175	356.64
601.595	349.62
602.015	314.51
602.436	270.04
602.856	438.56
603.276	305.15
603.696	340.26
604.115	335.57
604.535	389.41
604.955	272.38
605.375	293.44
605.794	326.21
606.214	244.29
606.634	335.57
607.053	300.47
607.473	321.53
607.892	319.19
608.311	337.91
608.731	366
609.15	314.51
609.569	302.81
609.988	319.19
610.407	347.28
610.826	309.83
611.245	373.02
611.664	316.85
612.083	258.34
612.501	337.91
612.92	286.42
613.339	291.1
613.757	347.28
614.176	358.98
614.594	370.68
615.013	321.53
615.431	272.38
615.85	277.06
616.268	298.13
616.686	321.53
617.104	279.4
617.522	384.73
617.94	312.17
618.358	295.79
618.776	274.72
619.194	309.83
619.612	277.06
620.03	340.26
620.447	279.4
620.865	391.75
621.282	370.68
621.7	344.94
622.117	265.36
622.535	333.23
622.952	234.93
623.369	241.95
623.787	277.06
624.204	302.81
624.621	284.08
625.038	337.91
625.455	295.79
625.872	312.17
626.289	302.81
626.706	354.3
627.123	319.19
627.539	302.81
627.956	312.17
628.373	293.44
628.789	281.74
629.206	328.55
629.622	298.13
630.038	302.81
630.455	307.49
630.871	272.38
631.287	398.77
631.703	291.1
632.12	298.13
632.536	220.89
632.952	300.47
633.368	274.72
633.783	323.87
634.199	370.68
634.615	279.4
635.031	291.1
635.446	312.17
635.862	284.08
636.277	321.53
636.693	319.19
637.108	314.51
637.524	330.89
637.939	321.53
638.354	368.34
638.77	314.51
639.185	302.81
639.6	382.39
640.015	335.57
640.43	270.04
640.845	316.85
641.259	307.49
641.674	394.09
642.089	319.19
642.504	305.15
642.918	253.66
643.333	267.7
643.747	342.6
644.162	305.15
644.576	326.21
644.991	323.87
645.405	377.7
645.819	321.53
646.233	326.21
646.647	366
647.061	377.7
647.475	316.85
647.889	316.85
648.303	375.36
648.717	267.7
649.131	312.17
649.545	305.15
649.958	309.83
650.372	366
650.785	298.13
651.199	307.49
651.612	256
652.026	281.74
652.439	295.79
652.852	319.19
653.266	389.41
653.679	256
654.092	281.74
654.505	373.02
654.918	333.23
655.331	330.89
655.744	312.17
656.156	375.36
656.569	328.55
656.982	298.13
657.394	293.44
657.807	340.26
658.22	286.42
658.632	295.79
659.044	295.79
659.457	377.7
659.869	340.26
660.281	335.57
660.693	312.17
661.106	298.13
661.518	340.26
661.93	293.44
662.342	323.87
662.754	279.4
663.165	337.91
663.577	340.26
663.989	335.57
664.401	293.44
664.812	230.25
665.224	361.32
665.635	302.81
666.047	314.51
666.458	293.44
666.869	330.89
667.281	256
667.692	316.85
668.103	298.13
668.514	354.3
668.925	251.32
669.336	284.08
669.747	319.19
670.158	277.06
670.569	342.6
670.979	337.91
671.39	265.36
671.801	248.97
672.211	302.81
672.622	298.13
673.032	309.83
673.443	293.44
673.853	270.04
674.263	265.36
674.674	356.64
675.084	309.83
675.494	335.57
675.904	309.83
676.314	382.39
676.724	398.77
677.134	286.42
677.544	323.87
677.953	337.91
678.363	333.23
678.773	363.66
679.182	312.17
679.592	288.76
680.001	291.1
680.411	326.21
680.82	319.19
681.23	312.17
681.639	305.15
682.048	333.23
682.457	263.02
682.866	291.1
683.275	340.26
683.684	302.81
684.093	307.49
684.502	295.79
684.911	263.02
685.32	279.4
685.728	321.53
686.137	323.87
686.546	256
686.954	277.06
687.363	300.47
687.771	312.17
688.179	321.53
688.588	293.44
688.996	326.21
689.404	333.23
689.812	288.76
690.22	340.26
690.628	330.89
691.036	314.51
691.444	302.81
691.852	380.04
692.26	354.3
692.667	237.27
693.075	307.49
693.483	344.94
693.89	284.08
694.298	281.74
694.705	363.66
695.112	323.87
695.52	295.79
695.927	382.39
696.334	333.23
696.741	272.38
697.148	270.04
697.555	302.81
697.962	323.87
698.369	298.13
698.776	351.96
699.183	314.51
699.59	298.13
699.996	312.17
700.403	366
700.81	344.94
701.216	377.7
701.623	300.47
702.029	321.53
702.435	347.28
702.842	272.38
703.248	307.49
703.654	319.19
704.06	260.68
704.466	323.87
704.872	328.55
705.278	291.1
705.684	333.23
706.09	319.19
706.496	344.94
706.901	295.79
707.307	300.47
707.712	335.57
708.118	300.47
708.523	356.64
708.929	270.04
709.334	286.42
709.74	366
710.145	263.02
710.55	291.1
710.955	277.06
711.36	302.81
711.765	337.91
712.17	286.42
712.575	337.91
712.98	738.15
713.385	321.53
713.789	375.36
714.194	307.49
714.599	281.74
715.003	319.19
715.408	316.85
715.812	337.91
716.217	328.55
716.621	356.64
717.025	361.32
717.429	281.74
717.833	272.38
718.238	286.42
718.642	309.83
719.046	288.76
719.449	305.15
719.853	258.34
720.257	284.08
720.661	309.83
721.065	300.47
721.468	312.17
721.872	363.66
722.275	316.85
722.679	319.19
723.082	225.57
723.485	312.17
723.889	309.83
724.292	356.64
724.695	347.28
725.098	347.28
725.501	335.57
725.904	351.96
726.307	244.29
726.71	281.74
727.113	356.64
727.516	309.83
727.918	223.23
728.321	253.66
728.724	342.6
729.126	333.23
729.529	267.7
729.931	230.25
730.333	319.19
730.736	316.85
731.138	391.75
731.54	349.62
731.942	270.04
732.344	380.04
732.746	319.19
733.148	309.83
733.55	302.81
733.952	300.47
734.354	344.94
734.756	277.06
735.157	319.19
735.559	316.85
735.96	333.23
736.362	309.83
736.763	326.21
737.165	328.55
737.566	314.51
737.967	256
738.368	342.6
738.77	291.1
739.171	351.96
739.572	302.81
739.973	265.36
740.374	302.81
740.774	319.19
741.175	340.26
741.576	321.53
741.977	335.57
742.377	307.49
742.778	337.91
743.178	279.4
743.579	326.21
743.979	309.83
744.379	197.48
744.78	281.74
745.18	319.19
745.58	337.91
745.98	342.6
746.38	277.06
746.78	323.87
747.18	314.51
747.58	286.42
747.98	307.49
748.38	288.76
748.779	396.43
749.179	288.76
749.578	349.62
749.978	328.55
750.377	328.55
750.777	298.13
751.176	295.79
751.575	293.44
751.975	328.55
752.374	300.47
752.773	309.83
753.172	270.04
753.571	241.95
753.97	328.55
754.369	309.83
754.768	342.6
755.166	314.51
755.565	305.15
755.964	319.19
756.362	300.47
756.761	330.89
757.159	312.17
757.558	363.66
757.956	328.55
758.354	361.32
758.753	330.89
759.151	354.3
759.549	351.96
759.947	323.87
760.345	349.62
760.743	307.49
761.141	305.15
761.539	293.44
761.936	344.94
762.334	363.66
762.732	328.55
763.129	326.21
763.527	274.72
763.924	295.79
764.322	426.86
764.719	323.87
765.117	333.23
765.514	298.13
765.911	237.27
766.308	344.94
766.705	284.08
