Data from Al_FLMS009871__928__16-19-06-722.txt Node

Date: Fri Mar 08 16:19:06 CST 2024
User: pe5414po
Spectrometer: FLMS00987
Trigger mode: 0
Integration Time (sec): 1.000000E-1
Scans to average: 1
Electric dark correction enabled: true
Nonlinearity correction enabled: false
Boxcar width: 0
XAxis mode: Wavelengths
Number of Pixels in Spectrum: 2048
>>>>>Begin Spectral Data<<<<<
188.938	-63.63
189.409	-63.63
189.879	-63.63
190.349	-122.15
190.819	-54.27
191.29	-87.04
191.76	-133.85
192.23	-119.81
192.7	-98.74
193.17	-49.59
193.64	-65.97
194.109	-89.38
194.579	-63.63
195.049	34.67
195.519	18.29
195.988	79.14
196.458	20.63
196.927	104.89
197.397	130.63
197.866	121.27
198.336	198.51
198.805	170.42
199.274	184.46
199.744	191.49
200.213	233.61
200.682	226.59
201.151	212.55
201.62	210.21
202.089	221.91
202.558	261.7
203.027	235.96
203.495	299.15
203.964	264.04
204.433	299.15
204.902	294.47
205.37	259.36
205.839	285.11
206.307	343.62
206.776	238.3
207.244	292.13
207.712	313.19
208.181	235.96
208.649	214.89
209.117	310.85
209.585	362.34
210.053	278.08
210.521	301.49
210.989	247.66
211.457	292.13
211.925	322.56
212.393	341.28
212.861	371.71
213.328	250
213.796	296.81
214.264	292.13
214.731	245.32
215.199	257.02
215.666	341.28
216.133	228.93
216.601	235.96
217.068	226.59
217.535	296.81
218.003	310.85
218.47	390.43
218.937	217.23
219.404	268.72
219.871	257.02
220.338	287.45
220.805	261.7
221.271	320.21
221.738	228.93
222.205	296.81
222.671	233.61
223.138	294.47
223.605	235.96
224.071	292.13
224.538	200.85
225.004	275.74
225.47	292.13
225.937	240.64
226.403	296.81
226.869	287.45
227.335	240.64
227.801	310.85
228.267	214.89
228.733	285.11
229.199	266.38
229.665	331.92
230.131	282.77
230.597	285.11
231.062	231.27
231.528	231.27
231.994	264.04
232.459	221.91
232.925	264.04
233.39	233.61
233.856	294.47
234.321	254.68
234.786	280.43
235.252	296.81
235.717	355.32
236.182	264.04
236.647	273.4
237.112	257.02
237.577	224.25
238.042	294.47
238.507	296.81
238.972	320.21
239.436	287.45
239.901	303.83
240.366	268.72
240.83	327.24
241.295	273.4
241.76	294.47
242.224	324.9
242.688	299.15
243.153	266.38
243.617	235.96
244.081	264.04
244.545	252.34
245.01	214.89
245.474	310.85
245.938	254.68
246.402	310.85
246.866	331.92
247.33	350.64
247.793	310.85
248.257	268.72
248.721	292.13
249.185	329.58
249.648	282.77
250.112	310.85
250.575	191.49
251.039	287.45
251.502	268.72
251.965	310.85
252.429	268.72
252.892	282.77
253.355	317.87
253.818	238.3
254.281	301.49
254.744	303.83
255.207	292.13
255.67	345.96
256.133	264.04
256.596	301.49
257.059	240.64
257.522	324.9
257.984	289.79
258.447	273.4
258.909	287.45
259.372	336.6
259.834	322.56
260.297	308.51
260.759	278.08
261.221	303.83
261.684	266.38
262.146	259.36
262.608	317.87
263.07	285.11
263.532	320.21
263.994	301.49
264.456	327.24
264.918	266.38
265.38	315.53
265.842	264.04
266.303	343.62
266.765	308.51
267.227	259.36
267.688	331.92
268.15	301.49
268.611	303.83
269.072	317.87
269.534	327.24
269.995	352.98
270.456	324.9
270.918	315.53
271.379	224.25
271.84	322.56
272.301	308.51
272.762	266.38
273.223	345.96
273.684	257.02
274.144	301.49
274.605	294.47
275.066	268.72
275.527	369.37
275.987	282.77
276.448	310.85
276.908	324.9
277.369	331.92
277.829	301.49
278.289	348.3
278.75	254.68
279.21	285.11
279.67	301.49
280.13	301.49
280.59	334.26
281.05	240.64
281.51	362.34
281.97	254.68
282.43	268.72
282.89	294.47
283.35	266.38
283.809	294.47
284.269	315.53
284.729	294.47
285.188	282.77
285.648	259.36
286.107	268.72
286.567	247.66
287.026	264.04
287.485	334.26
287.944	233.61
288.404	341.28
288.863	324.9
289.322	268.72
289.781	317.87
290.24	289.79
290.699	226.59
291.158	360
291.616	238.3
292.075	313.19
292.534	308.51
292.992	282.77
293.451	362.34
293.91	310.85
294.368	310.85
294.827	289.79
295.285	306.17
295.743	308.51
296.202	282.77
296.66	334.26
297.118	397.45
297.576	317.87
298.034	294.47
298.492	334.26
298.95	242.98
299.408	315.53
299.866	275.74
300.324	259.36
300.781	285.11
301.239	303.83
301.697	294.47
302.154	278.08
302.612	360
303.069	268.72
303.527	282.77
303.984	245.32
304.441	336.6
304.899	296.81
305.356	341.28
305.813	301.49
306.27	376.39
306.727	289.79
307.184	294.47
307.641	310.85
308.098	320.21
308.555	273.4
309.012	271.06
309.468	292.13
309.925	292.13
310.382	315.53
310.838	338.94
311.295	336.6
311.751	329.58
312.208	235.96
312.664	345.96
313.12	338.94
313.577	341.28
314.033	296.81
314.489	324.9
314.945	360
315.401	343.62
315.857	282.77
316.313	285.11
316.769	294.47
317.225	306.17
317.681	364.68
318.136	292.13
318.592	315.53
319.048	310.85
319.503	383.41
319.959	345.96
320.414	296.81
320.869	280.43
321.325	357.66
321.78	285.11
322.235	336.6
322.691	308.51
323.146	336.6
323.601	324.9
324.056	334.26
324.511	303.83
324.966	271.06
325.421	289.79
325.875	294.47
326.33	364.68
326.785	320.21
327.24	285.11
327.694	322.56
328.149	381.07
328.603	280.43
329.058	367.03
329.512	348.3
329.966	371.71
330.421	294.47
330.875	280.43
331.329	329.58
331.783	320.21
332.237	289.79
332.691	376.39
333.145	350.64
333.599	306.17
334.053	371.71
334.507	341.28
334.96	315.53
335.414	306.17
335.868	336.6
336.321	327.24
336.775	338.94
337.228	336.6
337.682	322.56
338.135	303.83
338.588	369.37
339.042	315.53
339.495	303.83
339.948	287.45
340.401	334.26
340.854	320.21
341.307	322.56
341.76	268.72
342.213	308.51
342.666	271.06
343.119	334.26
343.571	371.71
344.024	350.64
344.477	317.87
344.929	299.15
345.382	261.7
345.834	275.74
346.287	334.26
346.739	313.19
347.191	280.43
347.644	303.83
348.096	268.72
348.548	275.74
349	329.58
349.452	242.98
349.904	338.94
350.356	364.68
350.808	324.9
351.26	357.66
351.711	308.51
352.163	376.39
352.615	313.19
353.066	327.24
353.518	371.71
353.969	285.11
354.421	334.26
354.872	324.9
355.324	247.66
355.775	294.47
356.226	315.53
356.677	322.56
357.128	331.92
357.579	301.49
358.03	310.85
358.481	313.19
358.932	287.45
359.383	306.17
359.834	381.07
360.285	292.13
360.735	324.9
361.186	364.68
361.637	242.98
362.087	303.83
362.538	362.34
362.988	336.6
363.438	350.64
363.889	383.41
364.339	278.08
364.789	345.96
365.239	345.96
365.689	357.66
366.139	308.51
366.589	317.87
367.039	364.68
367.489	341.28
367.939	315.53
368.389	317.87
368.839	331.92
369.288	285.11
369.738	320.21
370.187	350.64
370.637	299.15
371.086	343.62
371.536	273.4
371.985	301.49
372.434	343.62
372.884	280.43
373.333	299.15
373.782	334.26
374.231	296.81
374.68	369.37
375.129	336.6
375.578	257.02
376.027	308.51
376.475	280.43
376.924	367.03
377.373	360
377.822	315.53
378.27	308.51
378.719	289.79
379.167	301.49
379.616	329.58
380.064	336.6
380.512	378.73
380.961	360
381.409	287.45
381.857	292.13
382.305	299.15
382.753	357.66
383.201	301.49
383.649	308.51
384.097	296.81
384.545	313.19
384.992	296.81
385.44	338.94
385.888	303.83
386.335	327.24
386.783	278.08
387.231	322.56
387.678	315.53
388.125	301.49
388.573	331.92
389.02	257.02
389.467	235.96
389.914	317.87
390.362	315.53
390.809	259.36
391.256	343.62
391.703	343.62
392.15	378.73
392.596	360
393.043	299.15
393.49	299.15
393.937	350.64
394.383	352.98
394.83	334.26
395.276	266.38
395.723	271.06
396.169	250
396.616	294.47
397.062	317.87
397.508	306.17
397.954	313.19
398.401	317.87
398.847	395.11
399.293	271.06
399.739	313.19
400.185	357.66
400.631	331.92
401.076	315.53
401.522	280.43
401.968	367.03
402.414	329.58
402.859	315.53
403.305	266.38
403.75	364.68
404.196	306.17
404.641	352.98
405.086	345.96
405.532	324.9
405.977	327.24
406.422	308.51
406.867	299.15
407.312	374.05
407.757	271.06
408.202	327.24
408.647	388.09
409.092	360
409.537	266.38
409.982	383.41
410.426	378.73
410.871	367.03
411.316	310.85
411.76	315.53
412.205	313.19
412.649	240.64
413.093	381.07
413.538	338.94
413.982	336.6
414.426	301.49
414.87	336.6
415.314	336.6
415.758	306.17
416.202	327.24
416.646	427.88
417.09	289.79
417.534	345.96
417.978	317.87
418.421	388.09
418.865	313.19
419.309	294.47
419.752	257.02
420.196	336.6
420.639	334.26
421.083	301.49
421.526	310.85
421.969	324.9
422.412	313.19
422.856	317.87
423.299	343.62
423.742	362.34
424.185	275.74
424.628	329.58
425.071	299.15
425.513	322.56
425.956	336.6
426.399	250
426.842	352.98
427.284	327.24
427.727	343.62
428.169	341.28
428.612	285.11
429.054	303.83
429.497	308.51
429.939	285.11
430.381	301.49
430.823	306.17
431.265	310.85
431.707	317.87
432.149	315.53
432.591	282.77
433.033	317.87
433.475	367.03
433.917	275.74
434.359	350.64
434.8	324.9
435.242	280.43
435.684	329.58
436.125	352.98
436.567	329.58
437.008	383.41
437.449	336.6
437.891	292.13
438.332	294.47
438.773	292.13
439.214	294.47
439.656	327.24
440.097	334.26
440.538	334.26
440.978	296.81
441.419	329.58
441.86	317.87
442.301	345.96
442.742	317.87
443.182	369.37
443.623	315.53
444.063	285.11
444.504	303.83
444.944	331.92
445.385	278.08
445.825	355.32
446.265	329.58
446.706	329.58
447.146	324.9
447.586	364.68
448.026	322.56
448.466	348.3
448.906	306.17
449.346	322.56
449.786	331.92
450.225	320.21
450.665	334.26
451.105	341.28
451.544	352.98
451.984	343.62
452.424	320.21
452.863	341.28
453.302	324.9
453.742	331.92
454.181	402.13
454.62	254.68
455.059	292.13
455.499	285.11
455.938	306.17
456.377	341.28
456.816	352.98
457.254	338.94
457.693	296.81
458.132	275.74
458.571	427.88
459.01	271.06
459.448	334.26
459.887	360
460.325	310.85
460.764	280.43
461.202	331.92
461.641	336.6
462.079	371.71
462.517	254.68
462.955	308.51
463.393	306.17
463.832	247.66
464.27	388.09
464.708	343.62
465.145	360
465.583	303.83
466.021	268.72
466.459	301.49
466.897	341.28
467.334	338.94
467.772	310.85
468.209	303.83
468.647	315.53
469.084	310.85
469.522	367.03
469.959	376.39
470.396	334.26
470.833	336.6
471.271	310.85
471.708	306.17
472.145	296.81
472.582	308.51
473.019	327.24
473.456	334.26
473.892	313.19
474.329	374.05
474.766	336.6
475.202	308.51
475.639	327.24
476.076	352.98
476.512	308.51
476.949	341.28
477.385	327.24
477.821	317.87
478.258	303.83
478.694	355.32
479.13	296.81
479.566	369.37
480.002	350.64
480.438	301.49
480.874	327.24
481.31	308.51
481.746	278.08
482.181	320.21
482.617	315.53
483.053	345.96
483.488	341.28
483.924	289.79
484.36	371.71
484.795	322.56
485.23	327.24
485.666	287.45
486.101	317.87
486.536	313.19
486.971	315.53
487.407	336.6
487.842	327.24
488.277	345.96
488.712	381.07
489.146	317.87
489.581	294.47
490.016	425.54
490.451	331.92
490.885	331.92
491.32	378.73
491.755	348.3
492.189	334.26
492.624	306.17
493.058	399.79
493.492	324.9
493.927	362.34
494.361	280.43
494.795	383.41
495.229	280.43
495.663	360
496.097	331.92
496.531	317.87
496.965	336.6
497.399	285.11
497.833	306.17
498.266	334.26
498.7	308.51
499.134	331.92
499.567	357.66
500.001	369.37
500.434	355.32
500.868	336.6
501.301	315.53
501.734	292.13
502.168	338.94
502.601	341.28
503.034	308.51
503.467	308.51
503.9	390.43
504.333	278.08
504.766	315.53
505.199	313.19
505.632	360
506.064	271.06
506.497	313.19
506.93	345.96
507.362	381.07
507.795	315.53
508.227	360
508.66	376.39
509.092	303.83
509.524	294.47
509.956	360
510.389	310.85
510.821	338.94
511.253	329.58
511.685	292.13
512.117	348.3
512.549	348.3
512.981	329.58
513.412	310.85
513.844	362.34
514.276	352.98
514.707	254.68
515.139	348.3
515.571	324.9
516.002	261.7
516.433	322.56
516.865	352.98
517.296	329.58
517.727	341.28
518.159	378.73
518.59	329.58
519.021	327.24
519.452	296.81
519.883	371.71
520.314	306.17
520.744	296.81
521.175	317.87
521.606	299.15
522.037	252.34
522.467	374.05
522.898	355.32
523.328	294.47
523.759	341.28
524.189	317.87
524.62	238.3
525.05	289.79
525.48	320.21
525.91	278.08
526.341	299.15
526.771	282.77
527.201	392.77
527.631	329.58
528.061	327.24
528.49	322.56
528.92	273.4
529.35	313.19
529.78	240.64
530.209	308.51
530.639	306.17
531.068	324.9
531.498	250
531.927	336.6
532.357	327.24
532.786	285.11
533.215	341.28
533.644	261.7
534.074	317.87
534.503	360
534.932	376.39
535.361	320.21
535.79	308.51
536.218	289.79
536.647	352.98
537.076	273.4
537.505	320.21
537.933	331.92
538.362	374.05
538.79	313.19
539.219	320.21
539.647	329.58
540.076	357.66
540.504	280.43
540.932	362.34
541.36	306.17
541.788	352.98
542.217	385.75
542.645	313.19
543.073	327.24
543.5	350.64
543.928	299.15
544.356	310.85
544.784	282.77
545.211	294.47
545.639	320.21
546.067	341.28
546.494	282.77
546.922	329.58
547.349	338.94
547.776	348.3
548.204	343.62
548.631	315.53
549.058	320.21
549.485	334.26
549.912	282.77
550.339	416.18
550.766	285.11
551.193	409.15
551.62	294.47
552.047	338.94
552.474	278.08
552.9	371.71
553.327	303.83
553.754	348.3
554.18	324.9
554.607	341.28
555.033	271.06
555.459	287.45
555.886	324.9
556.312	336.6
556.738	324.9
557.164	327.24
557.59	303.83
558.016	350.64
558.442	327.24
558.868	289.79
559.294	294.47
559.72	315.53
560.145	329.58
560.571	313.19
560.997	336.6
561.422	278.08
561.848	317.87
562.273	329.58
562.699	343.62
563.124	322.56
563.549	280.43
563.974	327.24
564.4	282.77
564.825	336.6
565.25	292.13
565.675	345.96
566.1	289.79
566.525	315.53
566.95	303.83
567.374	310.85
567.799	299.15
568.224	341.28
568.648	364.68
569.073	287.45
569.497	348.3
569.922	336.6
570.346	306.17
570.771	360
571.195	313.19
571.619	404.47
572.043	317.87
572.467	303.83
572.891	292.13
573.315	268.72
573.739	287.45
574.163	261.7
574.587	301.49
575.011	310.85
575.435	280.43
575.858	285.11
576.282	303.83
576.705	282.77
577.129	315.53
577.552	299.15
577.976	320.21
578.399	324.9
578.822	362.34
579.245	317.87
579.669	392.77
580.092	315.53
580.515	303.83
580.938	378.73
581.361	331.92
581.784	299.15
582.206	374.05
582.629	343.62
583.052	310.85
583.474	338.94
583.897	350.64
584.32	350.64
584.742	345.96
585.165	324.9
585.587	334.26
586.009	282.77
586.431	264.04
586.854	257.02
587.276	345.96
587.698	355.32
588.12	324.9
588.542	357.66
588.964	324.9
589.386	261.7
589.807	313.19
590.229	360
590.651	273.4
591.073	360
591.494	247.66
591.916	385.75
592.337	348.3
592.759	329.58
593.18	282.77
593.601	343.62
594.022	292.13
594.444	310.85
594.865	338.94
595.286	320.21
595.707	360
596.128	348.3
596.549	395.11
596.97	292.13
597.39	310.85
597.811	320.21
598.232	362.34
598.652	296.81
599.073	334.26
599.494	301.49
599.914	338.94
600.334	336.6
600.755	308.51
601.175	317.87
601.595	287.45
602.015	390.43
602.436	317.87
602.856	434.9
603.276	308.51
603.696	364.68
604.115	331.92
604.535	299.15
604.955	268.72
605.375	308.51
605.794	308.51
606.214	343.62
606.634	271.06
607.053	327.24
607.473	294.47
607.892	275.74
608.311	331.92
608.731	285.11
609.15	360
609.569	296.81
609.988	282.77
610.407	357.66
610.826	371.71
611.245	315.53
611.664	317.87
612.083	320.21
612.501	371.71
612.92	336.6
613.339	317.87
613.757	402.13
614.176	334.26
614.594	350.64
615.013	271.06
615.431	289.79
615.85	336.6
616.268	271.06
616.686	292.13
617.104	350.64
617.522	294.47
617.94	271.06
618.358	345.96
618.776	310.85
619.194	352.98
619.612	334.26
620.03	317.87
620.447	331.92
620.865	310.85
621.282	331.92
621.7	289.79
622.117	383.41
622.535	404.47
622.952	315.53
623.369	362.34
623.787	322.56
624.204	289.79
624.621	352.98
625.038	266.38
625.455	280.43
625.872	320.21
626.289	331.92
626.706	303.83
627.123	264.04
627.539	303.83
627.956	315.53
628.373	324.9
628.789	315.53
629.206	320.21
629.622	310.85
630.038	275.74
630.455	397.45
630.871	378.73
631.287	348.3
631.703	287.45
632.12	352.98
632.536	390.43
632.952	334.26
633.368	315.53
633.783	355.32
634.199	327.24
634.615	289.79
635.031	303.83
635.446	317.87
635.862	360
636.277	317.87
636.693	280.43
637.108	320.21
637.524	360
637.939	338.94
638.354	350.64
638.77	266.38
639.185	367.03
639.6	324.9
640.015	296.81
640.43	268.72
640.845	292.13
641.259	329.58
641.674	341.28
642.089	327.24
642.504	317.87
642.918	306.17
643.333	334.26
643.747	381.07
644.162	341.28
644.576	374.05
644.991	397.45
645.405	313.19
645.819	299.15
646.233	343.62
646.647	322.56
647.061	357.66
647.475	315.53
647.889	336.6
648.303	336.6
648.717	348.3
649.131	357.66
649.545	360
649.958	294.47
650.372	341.28
650.785	310.85
651.199	301.49
651.612	320.21
652.026	301.49
652.439	278.08
652.852	240.64
653.266	329.58
653.679	315.53
654.092	301.49
654.505	289.79
654.918	355.32
655.331	338.94
655.744	224.25
656.156	329.58
656.569	336.6
656.982	341.28
657.394	329.58
657.807	322.56
658.22	385.75
658.632	303.83
659.044	278.08
659.457	315.53
659.869	287.45
660.281	315.53
660.693	334.26
661.106	308.51
661.518	285.11
661.93	285.11
662.342	308.51
662.754	392.77
663.165	331.92
663.577	348.3
663.989	306.17
664.401	308.51
664.812	374.05
665.224	357.66
665.635	292.13
666.047	322.56
666.458	374.05
666.869	257.02
667.281	306.17
667.692	362.34
668.103	348.3
668.514	331.92
668.925	282.77
669.336	317.87
669.747	299.15
670.158	268.72
670.569	357.66
670.979	338.94
671.39	308.51
671.801	322.56
672.211	317.87
672.622	292.13
673.032	296.81
673.443	341.28
673.853	292.13
674.263	303.83
674.674	301.49
675.084	341.28
675.494	338.94
675.904	315.53
676.314	301.49
676.724	250
677.134	343.62
677.544	292.13
677.953	341.28
678.363	385.75
678.773	341.28
679.182	331.92
679.592	282.77
680.001	282.77
680.411	306.17
680.82	315.53
681.23	320.21
681.639	320.21
682.048	273.4
682.457	360
682.866	252.34
683.275	357.66
683.684	334.26
684.093	278.08
684.502	287.45
684.911	313.19
685.32	315.53
685.728	303.83
686.137	355.32
686.546	355.32
686.954	282.77
687.363	313.19
687.771	362.34
688.179	336.6
688.588	317.87
688.996	409.15
689.404	292.13
689.812	378.73
690.22	345.96
690.628	341.28
691.036	331.92
691.444	324.9
691.852	338.94
692.26	383.41
692.667	292.13
693.075	324.9
693.483	285.11
693.89	329.58
694.298	336.6
694.705	292.13
695.112	331.92
695.52	352.98
695.927	324.9
696.334	285.11
696.741	324.9
697.148	301.49
697.555	313.19
697.962	374.05
698.369	292.13
698.776	266.38
699.183	315.53
699.59	315.53
699.996	374.05
700.403	324.9
700.81	306.17
701.216	360
701.623	322.56
702.029	322.56
702.435	313.19
702.842	308.51
703.248	334.26
703.654	278.08
704.06	324.9
704.466	371.71
704.872	275.74
705.278	327.24
705.684	299.15
706.09	294.47
706.496	252.34
706.901	315.53
707.307	345.96
707.712	289.79
708.118	296.81
708.523	331.92
708.929	294.47
709.334	271.06
709.74	308.51
710.145	331.92
710.55	301.49
710.955	301.49
711.36	345.96
711.765	322.56
712.17	376.39
712.575	367.03
712.98	830.45
713.385	327.24
713.789	282.77
714.194	306.17
714.599	343.62
715.003	280.43
715.408	299.15
715.812	343.62
716.217	322.56
716.621	289.79
717.025	336.6
717.429	266.38
717.833	275.74
718.238	352.98
718.642	350.64
719.046	289.79
719.449	310.85
719.853	357.66
720.257	285.11
720.661	362.34
721.065	289.79
721.468	301.49
721.872	385.75
722.275	385.75
722.679	327.24
723.082	345.96
723.485	296.81
723.889	310.85
724.292	371.71
724.695	299.15
725.098	406.81
725.501	336.6
725.904	287.45
726.307	308.51
726.71	313.19
727.113	287.45
727.516	336.6
727.918	397.45
728.321	322.56
728.724	306.17
729.126	275.74
729.529	331.92
729.931	376.39
730.333	324.9
730.736	331.92
731.138	292.13
731.54	292.13
731.942	282.77
732.344	266.38
732.746	320.21
733.148	334.26
733.55	306.17
733.952	324.9
734.354	334.26
734.756	315.53
735.157	313.19
735.559	360
735.96	308.51
736.362	299.15
736.763	271.06
737.165	376.39
737.566	334.26
737.967	271.06
738.368	317.87
738.77	322.56
739.171	348.3
739.572	327.24
739.973	252.34
740.374	331.92
740.774	278.08
741.175	324.9
741.576	336.6
741.977	275.74
742.377	320.21
742.778	303.83
743.178	327.24
743.579	308.51
743.979	245.32
744.379	282.77
744.78	324.9
745.18	303.83
745.58	322.56
745.98	367.03
746.38	268.72
746.78	317.87
747.18	320.21
747.58	320.21
747.98	292.13
748.38	355.32
748.779	331.92
749.179	324.9
749.578	352.98
749.978	371.71
750.377	303.83
750.777	282.77
751.176	266.38
751.575	257.02
751.975	313.19
752.374	310.85
752.773	324.9
753.172	273.4
753.571	371.71
753.97	315.53
754.369	278.08
754.768	303.83
755.166	301.49
755.565	360
755.964	383.41
756.362	360
756.761	357.66
757.159	282.77
757.558	343.62
757.956	322.56
758.354	259.36
758.753	282.77
759.151	282.77
759.549	285.11
759.947	385.75
760.345	355.32
760.743	352.98
761.141	324.9
761.539	320.21
761.936	296.81
762.334	313.19
762.732	336.6
763.129	331.92
763.527	367.03
763.924	294.47
764.322	320.21
764.719	285.11
765.117	287.45
765.514	334.26
765.911	367.03
766.308	357.66
766.705	306.17
767.102	285.11
