Data from Al_FLMS009871__939__16-19-07-822.txt Node

Date: Fri Mar 08 16:19:07 CST 2024
User: pe5414po
Spectrometer: FLMS00987
Trigger mode: 0
Integration Time (sec): 1.000000E-1
Scans to average: 1
Electric dark correction enabled: true
Nonlinearity correction enabled: false
Boxcar width: 0
XAxis mode: Wavelengths
Number of Pixels in Spectrum: 2048
>>>>>Begin Spectral Data<<<<<
188.938	-141.75
189.409	-141.75
189.879	-141.75
190.349	-43.45
190.819	-106.64
191.29	-106.64
191.76	-158.13
192.23	-57.49
192.7	-48.13
193.17	-64.51
193.64	-78.55
194.109	-38.77
194.579	15.07
195.049	38.47
195.519	12.73
195.988	-8.34
196.458	52.52
196.927	71.24
197.397	129.75
197.866	106.35
198.336	134.43
198.805	146.14
199.274	132.09
199.744	155.5
200.213	204.65
200.682	204.65
201.151	206.99
201.62	223.37
202.089	197.63
202.558	263.16
203.027	272.53
203.495	246.78
203.964	291.25
204.433	321.68
204.902	242.1
205.37	307.63
205.839	251.46
206.307	251.46
206.776	279.55
207.244	295.93
207.712	324.02
208.181	342.74
208.649	295.93
209.117	338.06
209.585	319.34
210.053	295.93
210.521	338.06
210.989	267.85
211.457	288.91
211.925	312.32
212.393	361.47
212.861	256.14
213.328	324.02
213.796	263.16
214.264	265.5
214.731	291.25
215.199	279.55
215.666	258.48
216.133	317
216.601	237.42
217.068	302.95
217.535	281.89
218.003	272.53
218.47	225.72
218.937	256.14
219.404	251.46
219.871	298.27
220.338	256.14
220.805	256.14
221.271	260.82
221.738	291.25
222.205	291.25
222.671	237.42
223.138	242.1
223.605	249.12
224.071	260.82
224.538	302.95
225.004	204.65
225.47	267.85
225.937	249.12
226.403	286.57
226.869	288.91
227.335	267.85
227.801	295.93
228.267	253.8
228.733	291.25
229.199	235.08
229.665	239.76
230.131	267.85
230.597	190.61
231.062	260.82
231.528	246.78
231.994	300.61
232.459	225.72
232.925	251.46
233.39	277.21
233.856	270.19
234.321	270.19
234.786	298.27
235.252	281.89
235.717	300.61
236.182	249.12
236.647	291.25
237.112	328.7
237.577	312.32
238.042	284.23
238.507	277.21
238.972	260.82
239.436	354.44
239.901	326.36
240.366	288.91
240.83	319.34
241.295	309.97
241.76	249.12
242.224	319.34
242.688	295.93
243.153	298.27
243.617	251.46
244.081	324.02
244.545	265.5
245.01	309.97
245.474	324.02
245.938	258.48
246.402	291.25
246.866	312.32
247.33	274.87
247.793	258.48
248.257	206.99
248.721	317
249.185	326.36
249.648	232.74
250.112	263.16
250.575	181.25
251.039	267.85
251.502	230.4
251.965	281.89
252.429	274.87
252.892	288.91
253.355	309.97
253.818	221.03
254.281	349.76
254.744	298.27
255.207	314.66
255.67	265.5
256.133	277.21
256.596	274.87
257.059	258.48
257.522	352.1
257.984	298.27
258.447	281.89
258.909	270.19
259.372	235.08
259.834	324.02
260.297	183.59
260.759	298.27
261.221	235.08
261.684	288.91
262.146	300.61
262.608	277.21
263.07	328.7
263.532	302.95
263.994	295.93
264.456	307.63
264.918	249.12
265.38	256.14
265.842	331.04
266.303	225.72
266.765	314.66
267.227	295.93
267.688	302.95
268.15	279.55
268.611	270.19
269.072	206.99
269.534	230.4
269.995	317
270.456	291.25
270.918	314.66
271.379	270.19
271.84	272.53
272.301	305.29
272.762	251.46
273.223	249.12
273.684	272.53
274.144	321.68
274.605	333.38
275.066	324.02
275.527	258.48
275.987	307.63
276.448	363.81
276.908	295.93
277.369	286.57
277.829	319.34
278.289	319.34
278.75	272.53
279.21	272.53
279.67	309.97
280.13	293.59
280.59	312.32
281.05	331.04
281.51	359.13
281.97	265.5
282.43	302.95
282.89	274.87
283.35	232.74
283.809	307.63
284.269	279.55
284.729	293.59
285.188	288.91
285.648	324.02
286.107	244.44
286.567	328.7
287.026	340.4
287.485	253.8
287.944	267.85
288.404	288.91
288.863	354.44
289.322	302.95
289.781	331.04
290.24	328.7
290.699	328.7
291.158	263.16
291.616	293.59
292.075	265.5
292.534	321.68
292.992	293.59
293.451	288.91
293.91	307.63
294.368	298.27
294.827	363.81
295.285	321.68
295.743	309.97
296.202	375.51
296.66	295.93
297.118	361.47
297.576	237.42
298.034	260.82
298.492	317
298.95	286.57
299.408	277.21
299.866	317
300.324	295.93
300.781	281.89
301.239	263.16
301.697	300.61
302.154	375.51
302.612	281.89
303.069	293.59
303.527	335.72
303.984	307.63
304.441	354.44
304.899	312.32
305.356	326.36
305.813	295.93
306.27	286.57
306.727	314.66
307.184	335.72
307.641	300.61
308.098	347.42
308.555	356.79
309.012	324.02
309.468	272.53
309.925	302.95
310.382	302.95
310.838	288.91
311.295	324.02
311.751	298.27
312.208	256.14
312.664	302.95
313.12	300.61
313.577	239.76
314.033	361.47
314.489	279.55
314.945	298.27
315.401	302.95
315.857	272.53
316.313	333.38
316.769	338.06
317.225	272.53
317.681	279.55
318.136	326.36
318.592	295.93
319.048	354.44
319.503	246.78
319.959	244.44
320.414	249.12
320.869	333.38
321.325	277.21
321.78	363.81
322.235	270.19
322.691	314.66
323.146	239.76
323.601	258.48
324.056	258.48
324.511	267.85
324.966	309.97
325.421	258.48
325.875	277.21
326.33	300.61
326.785	328.7
327.24	256.14
327.694	235.08
328.149	267.85
328.603	288.91
329.058	274.87
329.512	335.72
329.966	270.19
330.421	253.8
330.875	305.29
331.329	288.91
331.783	263.16
332.237	263.16
332.691	284.23
333.145	281.89
333.599	347.42
334.053	321.68
334.507	312.32
334.96	335.72
335.414	274.87
335.868	274.87
336.321	312.32
336.775	373.17
337.228	267.85
337.682	396.57
338.135	288.91
338.588	326.36
339.042	263.16
339.495	309.97
339.948	265.5
340.401	319.34
340.854	281.89
341.307	340.4
341.76	293.59
342.213	288.91
342.666	345.08
343.119	340.4
343.571	256.14
344.024	331.04
344.477	300.61
344.929	333.38
345.382	340.4
345.834	293.59
346.287	307.63
346.739	251.46
347.191	333.38
347.644	293.59
348.096	396.57
348.548	356.79
349	328.7
349.452	249.12
349.904	288.91
350.356	331.04
350.808	293.59
351.26	312.32
351.711	338.06
352.163	277.21
352.615	401.26
353.066	387.21
353.518	326.36
353.969	317
354.421	328.7
354.872	202.31
355.324	312.32
355.775	281.89
356.226	300.61
356.677	288.91
357.128	286.57
357.579	307.63
358.03	279.55
358.481	326.36
358.932	319.34
359.383	295.93
359.834	267.85
360.285	291.25
360.735	286.57
361.186	354.44
361.637	291.25
362.087	352.1
362.538	298.27
362.988	375.51
363.438	272.53
363.889	312.32
364.339	338.06
364.789	328.7
365.239	279.55
365.689	312.32
366.139	373.17
366.589	326.36
367.039	335.72
367.489	324.02
367.939	359.13
368.389	309.97
368.839	352.1
369.288	272.53
369.738	300.61
370.187	293.59
370.637	274.87
371.086	319.34
371.536	312.32
371.985	302.95
372.434	274.87
372.884	265.5
373.333	317
373.782	317
374.231	312.32
374.68	256.14
375.129	251.46
375.578	263.16
376.027	286.57
376.475	340.4
376.924	354.44
377.373	235.08
377.822	317
378.27	305.29
378.719	349.76
379.167	272.53
379.616	312.32
380.064	249.12
380.512	319.34
380.961	349.76
381.409	274.87
381.857	377.85
382.305	394.23
382.753	359.13
383.201	307.63
383.649	354.44
384.097	218.69
384.545	354.44
384.992	359.13
385.44	309.97
385.888	295.93
386.335	288.91
386.783	295.93
387.231	326.36
387.678	307.63
388.125	281.89
388.573	338.06
389.02	305.29
389.467	333.38
389.914	295.93
390.362	302.95
390.809	321.68
391.256	342.74
391.703	291.25
392.15	328.7
392.596	293.59
393.043	345.08
393.49	324.02
393.937	340.4
394.383	359.13
394.83	317
395.276	244.44
395.723	263.16
396.169	335.72
396.616	307.63
397.062	384.87
397.508	331.04
397.954	363.81
398.401	370.83
398.847	319.34
399.293	298.27
399.739	354.44
400.185	295.93
400.631	211.67
401.076	274.87
401.522	300.61
401.968	309.97
402.414	267.85
402.859	314.66
403.305	326.36
403.75	293.59
404.196	298.27
404.641	263.16
405.086	366.15
405.532	309.97
405.977	321.68
406.422	333.38
406.867	302.95
407.312	335.72
407.757	284.23
408.202	373.17
408.647	328.7
409.092	284.23
409.537	281.89
409.982	307.63
410.426	309.97
410.871	326.36
411.316	307.63
411.76	307.63
412.205	314.66
412.649	288.91
413.093	286.57
413.538	324.02
413.982	338.06
414.426	342.74
414.87	347.42
415.314	333.38
415.758	291.25
416.202	317
416.646	281.89
417.09	354.44
417.534	342.74
417.978	335.72
418.421	202.31
418.865	312.32
419.309	305.29
419.752	277.21
420.196	319.34
420.639	361.47
421.083	265.5
421.526	286.57
421.969	356.79
422.412	265.5
422.856	309.97
423.299	331.04
423.742	249.12
424.185	302.95
424.628	401.26
425.071	317
425.513	335.72
425.956	305.29
426.399	354.44
426.842	249.12
427.284	356.79
427.727	249.12
428.169	300.61
428.612	277.21
429.054	319.34
429.497	331.04
429.939	366.15
430.381	321.68
430.823	286.57
431.265	345.08
431.707	326.36
432.149	331.04
432.591	270.19
433.033	356.79
433.475	342.74
433.917	319.34
434.359	335.72
434.8	384.87
435.242	298.27
435.684	319.34
436.125	274.87
436.567	291.25
437.008	279.55
437.449	328.7
437.891	260.82
438.332	307.63
438.773	354.44
439.214	319.34
439.656	307.63
440.097	356.79
440.538	249.12
440.978	361.47
441.419	326.36
441.86	305.29
442.301	349.76
442.742	314.66
443.182	314.66
443.623	324.02
444.063	286.57
444.504	345.08
444.944	333.38
445.385	352.1
445.825	291.25
446.265	333.38
446.706	342.74
447.146	291.25
447.586	267.85
448.026	349.76
448.466	305.29
448.906	314.66
449.346	274.87
449.786	342.74
450.225	279.55
450.665	347.42
451.105	324.02
451.544	340.4
451.984	314.66
452.424	309.97
452.863	256.14
453.302	314.66
453.742	302.95
454.181	366.15
454.62	256.14
455.059	321.68
455.499	277.21
455.938	312.32
456.377	312.32
456.816	377.85
457.254	349.76
457.693	370.83
458.132	270.19
458.571	359.13
459.01	321.68
459.448	321.68
459.887	328.7
460.325	272.53
460.764	331.04
461.202	232.74
461.641	326.36
462.079	307.63
462.517	331.04
462.955	265.5
463.393	338.06
463.832	291.25
464.27	286.57
464.708	274.87
465.145	317
465.583	368.49
466.021	284.23
466.459	314.66
466.897	349.76
467.334	305.29
467.772	279.55
468.209	312.32
468.647	267.85
469.084	307.63
469.522	291.25
469.959	328.7
470.396	340.4
470.833	352.1
471.271	295.93
471.708	279.55
472.145	326.36
472.582	363.81
473.019	333.38
473.456	319.34
473.892	333.38
474.329	328.7
474.766	295.93
475.202	324.02
475.639	265.5
476.076	309.97
476.512	293.59
476.949	333.38
477.385	225.72
477.821	312.32
478.258	256.14
478.694	312.32
479.13	309.97
479.566	307.63
480.002	345.08
480.438	382.53
480.874	335.72
481.31	279.55
481.746	281.89
482.181	384.87
482.617	366.15
483.053	249.12
483.488	338.06
483.924	345.08
484.36	326.36
484.795	340.4
485.23	338.06
485.666	307.63
486.101	370.83
486.536	333.38
486.971	265.5
487.407	349.76
487.842	324.02
488.277	338.06
488.712	319.34
489.146	288.91
489.581	288.91
490.016	370.83
490.451	331.04
490.885	274.87
491.32	286.57
491.755	314.66
492.189	324.02
492.624	307.63
493.058	349.76
493.492	305.29
493.927	291.25
494.361	300.61
494.795	333.38
495.229	293.59
495.663	286.57
496.097	326.36
496.531	354.44
496.965	342.74
497.399	302.95
497.833	281.89
498.266	328.7
498.7	338.06
499.134	324.02
499.567	288.91
500.001	317
500.434	326.36
500.868	349.76
501.301	361.47
501.734	295.93
502.168	347.42
502.601	314.66
503.034	293.59
503.467	305.29
503.9	300.61
504.333	396.57
504.766	319.34
505.199	354.44
505.632	319.34
506.064	317
506.497	331.04
506.93	345.08
507.362	352.1
507.795	317
508.227	356.79
508.66	317
509.092	342.74
509.524	305.29
509.956	291.25
510.389	382.53
510.821	300.61
511.253	235.08
511.685	309.97
512.117	331.04
512.549	314.66
512.981	279.55
513.412	354.44
513.844	312.32
514.276	345.08
514.707	324.02
515.139	356.79
515.571	267.85
516.002	391.89
516.433	314.66
516.865	309.97
517.296	326.36
517.727	305.29
518.159	253.8
518.59	366.15
519.021	223.37
519.452	380.19
519.883	328.7
520.314	288.91
520.744	331.04
521.175	267.85
521.606	319.34
522.037	279.55
522.467	295.93
522.898	335.72
523.328	295.93
523.759	340.4
524.189	319.34
524.62	403.6
525.05	291.25
525.48	375.51
525.91	307.63
526.341	335.72
526.771	274.87
527.201	284.23
527.631	321.68
528.061	370.83
528.49	309.97
528.92	345.08
529.35	302.95
529.78	312.32
530.209	389.55
530.639	345.08
531.068	342.74
531.498	354.44
531.927	331.04
532.357	295.93
532.786	338.06
533.215	314.66
533.644	258.48
534.074	363.81
534.503	347.42
534.932	340.4
535.361	352.1
535.79	286.57
536.218	319.34
536.647	345.08
537.076	279.55
537.505	314.66
537.933	309.97
538.362	326.36
538.79	361.47
539.219	281.89
539.647	356.79
540.076	279.55
540.504	295.93
540.932	338.06
541.36	167.2
541.788	293.59
542.217	352.1
542.645	324.02
543.073	284.23
543.5	324.02
543.928	307.63
544.356	314.66
544.784	309.97
545.211	270.19
545.639	366.15
546.067	291.25
546.494	394.23
546.922	298.27
547.349	277.21
547.776	396.57
548.204	312.32
548.631	331.04
549.058	305.29
549.485	291.25
549.912	317
550.339	312.32
550.766	396.57
551.193	286.57
551.62	363.81
552.047	328.7
552.474	387.21
552.9	340.4
553.327	356.79
553.754	286.57
554.18	288.91
554.607	349.76
555.033	307.63
555.459	349.76
555.886	305.29
556.312	361.47
556.738	326.36
557.164	375.51
557.59	279.55
558.016	370.83
558.442	314.66
558.868	366.15
559.294	279.55
559.72	277.21
560.145	384.87
560.571	300.61
560.997	345.08
561.422	291.25
561.848	249.12
562.273	307.63
562.699	331.04
563.124	286.57
563.549	419.98
563.974	272.53
564.4	291.25
564.825	345.08
565.25	305.29
565.675	244.44
566.1	317
566.525	373.17
566.95	319.34
567.374	291.25
567.799	335.72
568.224	333.38
568.648	309.97
569.073	284.23
569.497	340.4
569.922	277.21
570.346	319.34
570.771	293.59
571.195	288.91
571.619	331.04
572.043	319.34
572.467	274.87
572.891	340.4
573.315	291.25
573.739	345.08
574.163	340.4
574.587	326.36
575.011	340.4
575.435	265.5
575.858	309.97
576.282	302.95
576.705	277.21
577.129	331.04
577.552	317
577.976	312.32
578.399	335.72
578.822	267.85
579.245	326.36
579.669	272.53
580.092	302.95
580.515	403.6
580.938	291.25
581.361	272.53
581.784	354.44
582.206	340.4
582.629	349.76
583.052	307.63
583.474	293.59
583.897	305.29
584.32	317
584.742	349.76
585.165	324.02
585.587	256.14
586.009	305.29
586.431	281.89
586.854	279.55
587.276	249.12
587.698	260.82
588.12	281.89
588.542	335.72
588.964	305.29
589.386	314.66
589.807	314.66
590.229	312.32
590.651	309.97
591.073	277.21
591.494	281.89
591.916	384.87
592.337	340.4
592.759	331.04
593.18	361.47
593.601	274.87
594.022	274.87
594.444	293.59
594.865	335.72
595.286	352.1
595.707	354.44
596.128	354.44
596.549	349.76
596.97	314.66
597.39	352.1
597.811	319.34
598.232	328.7
598.652	242.1
599.073	366.15
599.494	314.66
599.914	345.08
600.334	274.87
600.755	281.89
601.175	321.68
601.595	295.93
602.015	319.34
602.436	298.27
602.856	377.85
603.276	321.68
603.696	389.55
604.115	326.36
604.535	398.92
604.955	298.27
605.375	349.76
605.794	380.19
606.214	338.06
606.634	309.97
607.053	300.61
607.473	345.08
607.892	281.89
608.311	274.87
608.731	298.27
609.15	321.68
609.569	338.06
609.988	279.55
610.407	345.08
610.826	342.74
611.245	302.95
611.664	288.91
612.083	286.57
612.501	366.15
612.92	300.61
613.339	345.08
613.757	314.66
614.176	309.97
614.594	279.55
615.013	340.4
615.431	361.47
615.85	338.06
616.268	317
616.686	342.74
617.104	293.59
617.522	356.79
617.94	256.14
618.358	291.25
618.776	356.79
619.194	312.32
619.612	391.89
620.03	317
620.447	288.91
620.865	293.59
621.282	359.13
621.7	328.7
622.117	286.57
622.535	309.97
622.952	326.36
623.369	293.59
623.787	340.4
624.204	295.93
624.621	288.91
625.038	333.38
625.455	373.17
625.872	359.13
626.289	328.7
626.706	389.55
627.123	267.85
627.539	281.89
627.956	293.59
628.373	340.4
628.789	286.57
629.206	258.48
629.622	279.55
630.038	326.36
630.455	326.36
630.871	267.85
631.287	258.48
631.703	309.97
632.12	286.57
632.536	295.93
632.952	263.16
633.368	291.25
633.783	326.36
634.199	314.66
634.615	338.06
635.031	288.91
635.446	307.63
635.862	356.79
636.277	267.85
636.693	293.59
637.108	295.93
637.524	286.57
637.939	260.82
638.354	342.74
638.77	307.63
639.185	291.25
639.6	356.79
640.015	356.79
640.43	272.53
640.845	324.02
641.259	274.87
641.674	256.14
642.089	331.04
642.504	298.27
642.918	338.06
643.333	288.91
643.747	293.59
644.162	302.95
644.576	338.06
644.991	274.87
645.405	309.97
645.819	298.27
646.233	270.19
646.647	302.95
647.061	270.19
647.475	321.68
647.889	375.51
648.303	314.66
648.717	279.55
649.131	333.38
649.545	312.32
649.958	307.63
650.372	309.97
650.785	272.53
651.199	314.66
651.612	326.36
652.026	338.06
652.439	288.91
652.852	373.17
653.266	263.16
653.679	333.38
654.092	284.23
654.505	300.61
654.918	324.02
655.331	382.53
655.744	309.97
656.156	377.85
656.569	335.72
656.982	347.42
657.394	309.97
657.807	335.72
658.22	298.27
658.632	277.21
659.044	274.87
659.457	354.44
659.869	375.51
660.281	319.34
660.693	295.93
661.106	274.87
661.518	281.89
661.93	302.95
662.342	321.68
662.754	281.89
663.165	298.27
663.577	293.59
663.989	321.68
664.401	363.81
664.812	321.68
665.224	314.66
665.635	302.95
666.047	340.4
666.458	225.72
666.869	340.4
667.281	380.19
667.692	288.91
668.103	354.44
668.514	293.59
668.925	317
669.336	281.89
669.747	253.8
670.158	347.42
670.569	349.76
670.979	314.66
671.39	340.4
671.801	312.32
672.211	317
672.622	312.32
673.032	272.53
673.443	256.14
673.853	321.68
674.263	324.02
674.674	326.36
675.084	284.23
675.494	317
675.904	302.95
676.314	342.74
676.724	370.83
677.134	391.89
677.544	277.21
677.953	340.4
678.363	361.47
678.773	319.34
679.182	380.19
679.592	309.97
680.001	326.36
680.411	319.34
680.82	302.95
681.23	281.89
681.639	302.95
682.048	356.79
682.457	317
682.866	312.32
683.275	335.72
683.684	373.17
684.093	312.32
684.502	281.89
684.911	335.72
685.32	370.83
685.728	272.53
686.137	288.91
686.546	359.13
686.954	324.02
687.363	319.34
687.771	317
688.179	324.02
688.588	345.08
688.996	333.38
689.404	326.36
689.812	328.7
690.22	324.02
690.628	338.06
691.036	291.25
691.444	277.21
691.852	293.59
692.26	258.48
692.667	331.04
693.075	265.5
693.483	305.29
693.89	274.87
694.298	342.74
694.705	293.59
695.112	349.76
695.52	295.93
695.927	279.55
696.334	324.02
696.741	298.27
697.148	359.13
697.555	286.57
697.962	319.34
698.369	272.53
698.776	333.38
699.183	396.57
699.59	295.93
699.996	265.5
700.403	265.5
700.81	309.97
701.216	307.63
701.623	352.1
702.029	302.95
702.435	293.59
702.842	340.4
703.248	380.19
703.654	295.93
704.06	331.04
704.466	368.49
704.872	317
705.278	295.93
705.684	328.7
706.09	317
706.496	340.4
706.901	361.47
707.307	338.06
707.712	284.23
708.118	309.97
708.523	288.91
708.929	324.02
709.334	340.4
709.74	279.55
710.145	260.82
710.55	342.74
710.955	263.16
711.36	260.82
711.765	277.21
712.17	258.48
712.575	361.47
712.98	874.04
713.385	333.38
713.789	338.06
714.194	295.93
714.599	291.25
715.003	274.87
715.408	267.85
715.812	410.62
716.217	258.48
716.621	312.32
717.025	251.46
717.429	361.47
717.833	324.02
718.238	309.97
718.642	340.4
719.046	291.25
719.449	333.38
719.853	314.66
720.257	312.32
720.661	377.85
721.065	335.72
721.468	366.15
721.872	305.29
722.275	302.95
722.679	317
723.082	295.93
723.485	317
723.889	384.87
724.292	284.23
724.695	249.12
725.098	333.38
725.501	324.02
725.904	349.76
726.307	377.85
726.71	380.19
727.113	286.57
727.516	267.85
727.918	363.81
728.321	288.91
728.724	314.66
729.126	291.25
729.529	333.38
729.931	319.34
730.333	319.34
730.736	305.29
731.138	298.27
731.54	324.02
731.942	246.78
732.344	354.44
732.746	286.57
733.148	352.1
733.55	338.06
733.952	317
734.354	305.29
734.756	221.03
735.157	361.47
735.559	312.32
735.96	295.93
736.362	342.74
736.763	291.25
737.165	347.42
737.566	359.13
737.967	286.57
738.368	319.34
738.77	335.72
739.171	293.59
739.572	302.95
739.973	342.74
740.374	326.36
740.774	267.85
741.175	302.95
741.576	302.95
741.977	277.21
742.377	333.38
742.778	338.06
743.178	293.59
743.579	288.91
743.979	375.51
744.379	324.02
744.78	396.57
745.18	340.4
745.58	263.16
745.98	317
746.38	249.12
746.78	354.44
747.18	331.04
747.58	317
747.98	324.02
748.38	291.25
748.779	263.16
749.179	363.81
749.578	286.57
749.978	352.1
750.377	391.89
750.777	415.3
751.176	324.02
751.575	319.34
751.975	342.74
752.374	366.15
752.773	293.59
753.172	258.48
753.571	345.08
753.97	281.89
754.369	307.63
754.768	345.08
755.166	324.02
755.565	305.29
755.964	326.36
756.362	347.42
756.761	300.61
757.159	281.89
757.558	342.74
757.956	319.34
758.354	279.55
758.753	298.27
759.151	274.87
759.549	305.29
759.947	368.49
760.345	324.02
760.743	295.93
761.141	345.08
761.539	272.53
761.936	218.69
762.334	295.93
762.732	319.34
763.129	253.8
763.527	302.95
763.924	335.72
764.322	281.89
764.719	293.59
765.117	410.62
765.514	270.19
765.911	333.38
766.308	288.91
766.705	321.68
