Data from Al_FLMS009871__1281__16-49-38-966.txt Node

Date: Fri Mar 08 16:49:38 CST 2024
User: pe5414po
Spectrometer: FLMS00987
Trigger mode: 0
Integration Time (sec): 1.000000E-1
Scans to average: 1
Electric dark correction enabled: true
Nonlinearity correction enabled: false
Boxcar width: 0
XAxis mode: Wavelengths
Number of Pixels in Spectrum: 2048
>>>>>Begin Spectral Data<<<<<
188.938	-43.89
189.409	-43.89
189.879	-43.89
190.349	-102.4
190.819	-167.93
191.29	-39.2
191.76	-83.67
192.23	-67.29
192.7	-116.44
193.17	-60.27
193.64	-60.27
194.109	-64.95
194.579	14.63
195.049	-20.48
195.519	12.29
195.988	40.37
196.458	56.76
196.927	77.82
197.397	47.4
197.866	110.59
198.336	152.72
198.805	183.15
199.274	176.13
199.744	187.83
200.213	229.96
200.682	190.17
201.151	232.3
201.62	201.87
202.089	215.91
202.558	251.02
203.027	274.43
203.495	239.32
203.964	246.34
204.433	286.13
204.902	225.28
205.37	265.07
205.839	274.43
206.307	307.2
206.776	213.57
207.244	262.73
207.712	274.43
208.181	232.3
208.649	328.26
209.117	332.94
209.585	328.26
210.053	255.7
210.521	281.45
210.989	361.03
211.457	251.02
211.925	318.9
212.393	199.53
212.861	346.98
213.328	288.47
213.796	267.41
214.264	258.04
214.731	222.94
215.199	323.58
215.666	272.09
216.133	251.02
216.601	269.75
217.068	267.41
217.535	293.15
218.003	304.85
218.47	244
218.937	244
219.404	260.38
219.871	297.83
220.338	283.79
220.805	276.77
221.271	239.32
221.738	342.3
222.205	234.64
222.671	222.94
223.138	279.11
223.605	213.57
224.071	251.02
224.538	258.04
225.004	253.36
225.47	244
225.937	220.6
226.403	234.64
226.869	302.51
227.335	239.32
227.801	295.49
228.267	293.15
228.733	276.77
229.199	246.34
229.665	274.43
230.131	297.83
230.597	321.24
231.062	265.07
231.528	283.79
231.994	232.3
232.459	314.22
232.925	265.07
233.39	293.15
233.856	213.57
234.321	244
234.786	274.43
235.252	269.75
235.717	279.11
236.182	215.91
236.647	309.54
237.112	265.07
237.577	309.54
238.042	286.13
238.507	215.91
238.972	206.55
239.436	241.66
239.901	281.45
240.366	236.98
240.83	225.28
241.295	346.98
241.76	286.13
242.224	286.13
242.688	279.11
243.153	244
243.617	323.58
244.081	255.7
244.545	302.51
245.01	318.9
245.474	272.09
245.938	260.38
246.402	321.24
246.866	241.66
247.33	276.77
247.793	253.36
248.257	314.22
248.721	283.79
249.185	244
249.648	265.07
250.112	272.09
250.575	321.24
251.039	279.11
251.502	215.91
251.965	316.56
252.429	258.04
252.892	204.21
253.355	286.13
253.818	262.73
254.281	295.49
254.744	265.07
255.207	323.58
255.67	293.15
256.133	304.85
256.596	302.51
257.059	269.75
257.522	293.15
257.984	302.51
258.447	311.88
258.909	260.38
259.372	253.36
259.834	316.56
260.297	236.98
260.759	283.79
261.221	258.04
261.684	272.09
262.146	323.58
262.608	236.98
263.07	288.47
263.532	339.96
263.994	314.22
264.456	236.98
264.918	307.2
265.38	295.49
265.842	297.83
266.303	279.11
266.765	279.11
267.227	286.13
267.688	269.75
268.15	337.62
268.611	370.39
269.072	323.58
269.534	283.79
269.995	314.22
270.456	286.13
270.918	302.51
271.379	255.7
271.84	302.51
272.301	316.56
272.762	307.2
273.223	260.38
273.684	297.83
274.144	279.11
274.605	323.58
275.066	267.41
275.527	318.9
275.987	276.77
276.448	300.17
276.908	311.88
277.369	255.7
277.829	290.81
278.289	251.02
278.75	337.62
279.21	311.88
279.67	283.79
280.13	290.81
280.59	309.54
281.05	225.28
281.51	241.66
281.97	307.2
282.43	267.41
282.89	286.13
283.35	276.77
283.809	262.73
284.269	300.17
284.729	293.15
285.188	311.88
285.648	316.56
286.107	318.9
286.567	323.58
287.026	293.15
287.485	269.75
287.944	272.09
288.404	314.22
288.863	283.79
289.322	339.96
289.781	389.11
290.24	318.9
290.699	236.98
291.158	274.43
291.616	269.75
292.075	316.56
292.534	276.77
292.992	302.51
293.451	283.79
293.91	314.22
294.368	286.13
294.827	288.47
295.285	321.24
295.743	288.47
296.202	265.07
296.66	260.38
297.118	323.58
297.576	279.11
298.034	267.41
298.492	251.02
298.95	286.13
299.408	293.15
299.866	300.17
300.324	321.24
300.781	318.9
301.239	288.47
301.697	297.83
302.154	286.13
302.612	316.56
303.069	286.13
303.527	304.85
303.984	328.26
304.441	372.73
304.899	276.77
305.356	335.28
305.813	321.24
306.27	304.85
306.727	295.49
307.184	293.15
307.641	342.3
308.098	302.51
308.555	339.96
309.012	321.24
309.468	372.73
309.925	241.66
310.382	288.47
310.838	255.7
311.295	260.38
311.751	304.85
312.208	342.3
312.664	328.26
313.12	358.69
313.577	328.26
314.033	279.11
314.489	274.43
314.945	309.54
315.401	279.11
315.857	267.41
316.313	272.09
316.769	339.96
317.225	328.26
317.681	328.26
318.136	232.3
318.592	244
319.048	269.75
319.503	229.96
319.959	314.22
320.414	267.41
320.869	276.77
321.325	337.62
321.78	330.6
322.235	279.11
322.691	297.83
323.146	325.92
323.601	295.49
324.056	335.28
324.511	272.09
324.966	300.17
325.421	318.9
325.875	307.2
326.33	281.45
326.785	248.68
327.24	379.75
327.694	244
328.149	276.77
328.603	281.45
329.058	344.64
329.512	293.15
329.966	304.85
330.421	358.69
330.875	346.98
331.329	342.3
331.783	307.2
332.237	339.96
332.691	279.11
333.145	361.03
333.599	265.07
334.053	346.98
334.507	279.11
334.96	304.85
335.414	269.75
335.868	316.56
336.321	346.98
336.775	267.41
337.228	293.15
337.682	253.36
338.135	309.54
338.588	276.77
339.042	344.64
339.495	325.92
339.948	323.58
340.401	361.03
340.854	293.15
341.307	337.62
341.76	370.39
342.213	283.79
342.666	311.88
343.119	368.05
343.571	318.9
344.024	335.28
344.477	330.6
344.929	372.73
345.382	325.92
345.834	281.45
346.287	323.58
346.739	321.24
347.191	276.77
347.644	337.62
348.096	351.67
348.548	307.2
349	354.01
349.452	297.83
349.904	262.73
350.356	377.41
350.808	314.22
351.26	258.04
351.711	328.26
352.163	244
352.615	311.88
353.066	335.28
353.518	339.96
353.969	342.3
354.421	300.17
354.872	260.38
355.324	328.26
355.775	330.6
356.226	339.96
356.677	342.3
357.128	314.22
357.579	276.77
358.03	279.11
358.481	246.34
358.932	251.02
359.383	302.51
359.834	344.64
360.285	323.58
360.735	293.15
361.186	286.13
361.637	283.79
362.087	304.85
362.538	325.92
362.988	288.47
363.438	293.15
363.889	325.92
364.339	222.94
364.789	323.58
365.239	398.48
365.689	311.88
366.139	304.85
366.589	304.85
367.039	354.01
367.489	307.2
367.939	349.32
368.389	325.92
368.839	330.6
369.288	295.49
369.738	286.13
370.187	311.88
370.637	309.54
371.086	311.88
371.536	335.28
371.985	241.66
372.434	349.32
372.884	276.77
373.333	307.2
373.782	244
374.231	300.17
374.68	297.83
375.129	330.6
375.578	314.22
376.027	281.45
376.475	346.98
376.924	426.56
377.373	302.51
377.822	269.75
378.27	375.07
378.719	286.13
379.167	288.47
379.616	349.32
380.064	318.9
380.512	304.85
380.961	316.56
381.409	314.22
381.857	363.37
382.305	244
382.753	311.88
383.201	309.54
383.649	236.98
384.097	276.77
384.545	272.09
384.992	302.51
385.44	342.3
385.888	325.92
386.335	321.24
386.783	300.17
387.231	283.79
387.678	325.92
388.125	295.49
388.573	260.38
389.02	337.62
389.467	358.69
389.914	267.41
390.362	283.79
390.809	314.22
391.256	304.85
391.703	330.6
392.15	354.01
392.596	344.64
393.043	372.73
393.49	377.41
393.937	288.47
394.383	309.54
394.83	309.54
395.276	281.45
395.723	297.83
396.169	328.26
396.616	379.75
397.062	342.3
397.508	248.68
397.954	314.22
398.401	351.67
398.847	316.56
399.293	241.66
399.739	349.32
400.185	339.96
400.631	297.83
401.076	346.98
401.522	244
401.968	321.24
402.414	302.51
402.859	342.3
403.305	323.58
403.75	309.54
404.196	363.37
404.641	330.6
405.086	316.56
405.532	344.64
405.977	328.26
406.422	351.67
406.867	255.7
407.312	258.04
407.757	328.26
408.202	337.62
408.647	368.05
409.092	349.32
409.537	325.92
409.982	342.3
410.426	300.17
410.871	265.07
411.316	339.96
411.76	314.22
412.205	330.6
412.649	379.75
413.093	260.38
413.538	330.6
413.982	311.88
414.426	325.92
414.87	307.2
415.314	328.26
415.758	330.6
416.202	265.07
416.646	351.67
417.09	351.67
417.534	304.85
417.978	358.69
418.421	316.56
418.865	330.6
419.309	288.47
419.752	297.83
420.196	283.79
420.639	304.85
421.083	372.73
421.526	295.49
421.969	300.17
422.412	354.01
422.856	283.79
423.299	253.36
423.742	316.56
424.185	346.98
424.628	276.77
425.071	311.88
425.513	239.32
425.956	323.58
426.399	304.85
426.842	260.38
427.284	307.2
427.727	325.92
428.169	311.88
428.612	316.56
429.054	295.49
429.497	262.73
429.939	365.71
430.381	330.6
430.823	337.62
431.265	288.47
431.707	314.22
432.149	384.43
432.591	325.92
433.033	328.26
433.475	328.26
433.917	386.77
434.359	332.94
434.8	342.3
435.242	286.13
435.684	337.62
436.125	335.28
436.567	274.43
437.008	339.96
437.449	302.51
437.891	332.94
438.332	253.36
438.773	321.24
439.214	339.96
439.656	307.2
440.097	213.57
440.538	337.62
440.978	325.92
441.419	307.2
441.86	328.26
442.301	309.54
442.742	370.39
443.182	290.81
443.623	304.85
444.063	351.67
444.504	295.49
444.944	297.83
445.385	248.68
445.825	293.15
446.265	316.56
446.706	311.88
447.146	379.75
447.586	363.37
448.026	339.96
448.466	337.62
448.906	316.56
449.346	269.75
449.786	267.41
450.225	311.88
450.665	309.54
451.105	309.54
451.544	393.8
451.984	372.73
452.424	302.51
452.863	215.91
453.302	370.39
453.742	356.35
454.181	379.75
454.62	274.43
455.059	281.45
455.499	260.38
455.938	346.98
456.377	297.83
456.816	335.28
457.254	346.98
457.693	281.45
458.132	304.85
458.571	318.9
459.01	361.03
459.448	314.22
459.887	361.03
460.325	354.01
460.764	314.22
461.202	368.05
461.641	325.92
462.079	246.34
462.517	272.09
462.955	302.51
463.393	339.96
463.832	276.77
464.27	307.2
464.708	300.17
465.145	339.96
465.583	283.79
466.021	307.2
466.459	346.98
466.897	290.81
467.334	288.47
467.772	274.43
468.209	356.35
468.647	295.49
469.084	318.9
469.522	267.41
469.959	321.24
470.396	309.54
470.833	260.38
471.271	346.98
471.708	279.11
472.145	302.51
472.582	304.85
473.019	272.09
473.456	286.13
473.892	267.41
474.329	302.51
474.766	354.01
475.202	314.22
475.639	344.64
476.076	227.62
476.512	311.88
476.949	337.62
477.385	386.77
477.821	309.54
478.258	274.43
478.694	321.24
479.13	192.51
479.566	297.83
480.002	356.35
480.438	321.24
480.874	293.15
481.31	344.64
481.746	304.85
482.181	351.67
482.617	307.2
483.053	260.38
483.488	300.17
483.924	302.51
484.36	293.15
484.795	356.35
485.23	295.49
485.666	267.41
486.101	307.2
486.536	222.94
486.971	290.81
487.407	274.43
487.842	339.96
488.277	337.62
488.712	314.22
489.146	286.13
489.581	302.51
490.016	316.56
490.451	267.41
490.885	307.2
491.32	307.2
491.755	260.38
492.189	346.98
492.624	302.51
493.058	351.67
493.492	276.77
493.927	342.3
494.361	290.81
494.795	297.83
495.229	325.92
495.663	344.64
496.097	321.24
496.531	276.77
496.965	295.49
497.399	370.39
497.833	328.26
498.266	307.2
498.7	251.02
499.134	358.69
499.567	339.96
500.001	328.26
500.434	361.03
500.868	328.26
501.301	386.77
501.734	260.38
502.168	332.94
502.601	274.43
503.034	286.13
503.467	251.02
503.9	304.85
504.333	311.88
504.766	302.51
505.199	307.2
505.632	323.58
506.064	218.25
506.497	330.6
506.93	297.83
507.362	295.49
507.795	283.79
508.227	368.05
508.66	311.88
509.092	276.77
509.524	307.2
509.956	325.92
510.389	265.07
510.821	339.96
511.253	405.5
511.685	314.22
512.117	197.19
512.549	293.15
512.981	293.15
513.412	344.64
513.844	251.02
514.276	323.58
514.707	283.79
515.139	269.75
515.571	365.71
516.002	342.3
516.433	377.41
516.865	344.64
517.296	253.36
517.727	286.13
518.159	354.01
518.59	307.2
519.021	323.58
519.452	323.58
519.883	335.28
520.314	342.3
520.744	304.85
521.175	297.83
521.606	339.96
522.037	300.17
522.467	297.83
522.898	354.01
523.328	323.58
523.759	307.2
524.189	286.13
524.62	365.71
525.05	258.04
525.48	325.92
525.91	361.03
526.341	297.83
526.771	323.58
527.201	297.83
527.631	262.73
528.061	307.2
528.49	234.64
528.92	227.62
529.35	281.45
529.78	356.35
530.209	337.62
530.639	328.26
531.068	325.92
531.498	276.77
531.927	281.45
532.357	314.22
532.786	323.58
533.215	328.26
533.644	349.32
534.074	295.49
534.503	302.51
534.932	283.79
535.361	361.03
535.79	321.24
536.218	265.07
536.647	274.43
537.076	316.56
537.505	302.51
537.933	316.56
538.362	283.79
538.79	372.73
539.219	346.98
539.647	265.07
540.076	346.98
540.504	307.2
540.932	295.49
541.36	309.54
541.788	265.07
542.217	272.09
542.645	318.9
543.073	344.64
543.5	318.9
543.928	302.51
544.356	253.36
544.784	318.9
545.211	328.26
545.639	356.35
546.067	307.2
546.494	342.3
546.922	318.9
547.349	304.85
547.776	304.85
548.204	276.77
548.631	297.83
549.058	309.54
549.485	325.92
549.912	279.11
550.339	307.2
550.766	346.98
551.193	332.94
551.62	295.49
552.047	346.98
552.474	351.67
552.9	281.45
553.327	330.6
553.754	307.2
554.18	300.17
554.607	321.24
555.033	281.45
555.459	344.64
555.886	370.39
556.312	318.9
556.738	358.69
557.164	300.17
557.59	304.85
558.016	274.43
558.442	314.22
558.868	302.51
559.294	393.8
559.72	260.38
560.145	297.83
560.571	330.6
560.997	274.43
561.422	318.9
561.848	300.17
562.273	323.58
562.699	283.79
563.124	302.51
563.549	281.45
563.974	318.9
564.4	316.56
564.825	400.82
565.25	372.73
565.675	356.35
566.1	304.85
566.525	332.94
566.95	332.94
567.374	262.73
567.799	304.85
568.224	363.37
568.648	302.51
569.073	321.24
569.497	258.04
569.922	330.6
570.346	351.67
570.771	325.92
571.195	339.96
571.619	307.2
572.043	255.7
572.467	283.79
572.891	314.22
573.315	330.6
573.739	314.22
574.163	316.56
574.587	325.92
575.011	269.75
575.435	377.41
575.858	386.77
576.282	314.22
576.705	286.13
577.129	309.54
577.552	274.43
577.976	321.24
578.399	316.56
578.822	283.79
579.245	253.36
579.669	316.56
580.092	311.88
580.515	356.35
580.938	321.24
581.361	304.85
581.784	253.36
582.206	311.88
582.629	356.35
583.052	307.2
583.474	283.79
583.897	342.3
584.32	283.79
584.742	295.49
585.165	295.49
585.587	274.43
586.009	307.2
586.431	358.69
586.854	288.47
587.276	269.75
587.698	344.64
588.12	300.17
588.542	311.88
588.964	300.17
589.386	318.9
589.807	337.62
590.229	267.41
590.651	316.56
591.073	262.73
591.494	318.9
591.916	323.58
592.337	325.92
592.759	356.35
593.18	361.03
593.601	370.39
594.022	279.11
594.444	290.81
594.865	300.17
595.286	311.88
595.707	316.56
596.128	267.41
596.549	346.98
596.97	351.67
597.39	260.38
597.811	332.94
598.232	297.83
598.652	300.17
599.073	302.51
599.494	342.3
599.914	297.83
600.334	328.26
600.755	248.68
601.175	283.79
601.595	316.56
602.015	272.09
602.436	403.16
602.856	461.67
603.276	288.47
603.696	314.22
604.115	295.49
604.535	295.49
604.955	316.56
605.375	351.67
605.794	293.15
606.214	386.77
606.634	330.6
607.053	304.85
607.473	293.15
607.892	316.56
608.311	354.01
608.731	330.6
609.15	316.56
609.569	377.41
609.988	337.62
610.407	258.04
610.826	363.37
611.245	361.03
611.664	349.32
612.083	286.13
612.501	297.83
612.92	304.85
613.339	335.28
613.757	358.69
614.176	293.15
614.594	356.35
615.013	354.01
615.431	295.49
615.85	307.2
616.268	325.92
616.686	328.26
617.104	258.04
617.522	368.05
617.94	290.81
618.358	309.54
618.776	276.77
619.194	311.88
619.612	321.24
620.03	304.85
620.447	314.22
620.865	316.56
621.282	302.51
621.7	358.69
622.117	335.28
622.535	321.24
622.952	295.49
623.369	269.75
623.787	325.92
624.204	295.49
624.621	344.64
625.038	316.56
625.455	346.98
625.872	286.13
626.289	321.24
626.706	361.03
627.123	253.36
627.539	304.85
627.956	297.83
628.373	293.15
628.789	330.6
629.206	281.45
629.622	269.75
630.038	248.68
630.455	344.64
630.871	316.56
631.287	318.9
631.703	272.09
632.12	382.09
632.536	234.64
632.952	342.3
633.368	346.98
633.783	300.17
634.199	318.9
634.615	379.75
635.031	339.96
635.446	295.49
635.862	314.22
636.277	314.22
636.693	232.3
637.108	283.79
637.524	293.15
637.939	251.02
638.354	297.83
638.77	314.22
639.185	325.92
639.6	297.83
640.015	337.62
640.43	286.13
640.845	335.28
641.259	337.62
641.674	318.9
642.089	258.04
642.504	325.92
642.918	346.98
643.333	295.49
643.747	389.11
644.162	265.07
644.576	332.94
644.991	262.73
645.405	288.47
645.819	368.05
646.233	325.92
646.647	335.28
647.061	365.71
647.475	332.94
647.889	325.92
648.303	318.9
648.717	309.54
649.131	314.22
649.545	283.79
649.958	318.9
650.372	356.35
650.785	304.85
651.199	321.24
651.612	335.28
652.026	375.07
652.439	328.26
652.852	236.98
653.266	311.88
653.679	309.54
654.092	295.49
654.505	286.13
654.918	335.28
655.331	344.64
655.744	290.81
656.156	339.96
656.569	321.24
656.982	290.81
657.394	384.43
657.807	332.94
658.22	283.79
658.632	321.24
659.044	318.9
659.457	314.22
659.869	260.38
660.281	293.15
660.693	251.02
661.106	370.39
661.518	255.7
661.93	332.94
662.342	293.15
662.754	318.9
663.165	307.2
663.577	335.28
663.989	354.01
664.401	321.24
664.812	304.85
665.224	295.49
665.635	332.94
666.047	281.45
666.458	311.88
666.869	354.01
667.281	283.79
667.692	302.51
668.103	332.94
668.514	297.83
668.925	314.22
669.336	293.15
669.747	265.07
670.158	255.7
670.569	281.45
670.979	293.15
671.39	269.75
671.801	265.07
672.211	293.15
672.622	323.58
673.032	307.2
673.443	342.3
673.853	302.51
674.263	330.6
674.674	335.28
675.084	351.67
675.494	344.64
675.904	302.51
676.314	255.7
676.724	309.54
677.134	311.88
677.544	342.3
677.953	344.64
678.363	288.47
678.773	361.03
679.182	325.92
679.592	246.34
680.001	300.17
680.411	276.77
680.82	330.6
681.23	346.98
681.639	330.6
682.048	267.41
682.457	297.83
682.866	307.2
683.275	323.58
683.684	311.88
684.093	288.47
684.502	258.04
684.911	286.13
685.32	307.2
685.728	316.56
686.137	300.17
686.546	372.73
686.954	260.38
687.363	304.85
687.771	300.17
688.179	346.98
688.588	314.22
688.996	323.58
689.404	302.51
689.812	346.98
690.22	309.54
690.628	307.2
691.036	363.37
691.444	372.73
691.852	295.49
692.26	300.17
692.667	370.39
693.075	328.26
693.483	309.54
693.89	316.56
694.298	262.73
694.705	339.96
695.112	398.48
695.52	281.45
695.927	281.45
696.334	323.58
696.741	325.92
697.148	241.66
697.555	337.62
697.962	342.3
698.369	293.15
698.776	295.49
699.183	258.04
699.59	267.41
699.996	325.92
700.403	316.56
700.81	293.15
701.216	260.38
701.623	283.79
702.029	304.85
702.435	346.98
702.842	321.24
703.248	300.17
703.654	283.79
704.06	339.96
704.466	309.54
704.872	311.88
705.278	346.98
705.684	344.64
706.09	316.56
706.496	389.11
706.901	302.51
707.307	314.22
707.712	445.29
708.118	281.45
708.523	354.01
708.929	283.79
709.334	339.96
709.74	316.56
710.145	318.9
710.55	295.49
710.955	307.2
711.36	241.66
711.765	337.62
712.17	314.22
712.575	321.24
712.98	908.71
713.385	346.98
713.789	384.43
714.194	358.69
714.599	335.28
715.003	295.49
715.408	314.22
715.812	323.58
716.217	283.79
716.621	309.54
717.025	339.96
717.429	349.32
717.833	260.38
718.238	283.79
718.642	318.9
719.046	339.96
719.449	344.64
719.853	281.45
720.257	269.75
720.661	342.3
721.065	302.51
721.468	304.85
721.872	290.81
722.275	314.22
722.679	274.43
723.082	311.88
723.485	251.02
723.889	286.13
724.292	288.47
724.695	236.98
725.098	335.28
725.501	267.41
725.904	316.56
726.307	318.9
726.71	325.92
727.113	253.36
727.516	190.17
727.918	370.39
728.321	370.39
728.724	328.26
729.126	276.77
729.529	311.88
729.931	265.07
730.333	293.15
730.736	332.94
731.138	325.92
731.54	344.64
731.942	349.32
732.344	311.88
732.746	307.2
733.148	323.58
733.55	351.67
733.952	330.6
734.354	339.96
734.756	323.58
735.157	279.11
735.559	330.6
735.96	297.83
736.362	349.32
736.763	302.51
737.165	314.22
737.566	339.96
737.967	337.62
738.368	279.11
738.77	349.32
739.171	335.28
739.572	335.28
739.973	323.58
740.374	323.58
740.774	307.2
741.175	276.77
741.576	318.9
741.977	288.47
742.377	251.02
742.778	267.41
743.178	288.47
743.579	262.73
743.979	342.3
744.379	262.73
744.78	339.96
745.18	276.77
745.58	290.81
745.98	293.15
746.38	281.45
746.78	321.24
747.18	349.32
747.58	290.81
747.98	279.11
748.38	309.54
748.779	316.56
749.179	321.24
749.578	356.35
749.978	337.62
750.377	351.67
750.777	309.54
751.176	330.6
751.575	342.3
751.975	309.54
752.374	391.45
752.773	309.54
753.172	279.11
753.571	377.41
753.97	309.54
754.369	281.45
754.768	356.35
755.166	248.68
755.565	255.7
755.964	318.9
756.362	318.9
756.761	351.67
757.159	377.41
757.558	288.47
757.956	286.13
758.354	393.8
758.753	307.2
759.151	288.47
759.549	262.73
759.947	255.7
760.345	225.28
760.743	318.9
761.141	342.3
761.539	248.68
761.936	307.2
762.334	342.3
762.732	290.81
763.129	307.2
763.527	349.32
763.924	332.94
764.322	293.15
764.719	412.52
765.117	351.67
765.514	335.28
765.911	283.79
766.308	260.38
766.705	318.9
