Data from Al_FLMS009871__1282__16-49-39-066.txt Node

Date: Fri Mar 08 16:49:39 CST 2024
User: pe5414po
Spectrometer: FLMS00987
Trigger mode: 0
Integration Time (sec): 1.000000E-1
Scans to average: 1
Electric dark correction enabled: true
Nonlinearity correction enabled: false
Boxcar width: 0
XAxis mode: Wavelengths
Number of Pixels in Spectrum: 2048
>>>>>Begin Spectral Data<<<<<
188.938	-36.28
189.409	-36.28
189.879	-36.28
190.349	-188.41
190.819	-153.31
191.29	-108.83
191.76	-106.49
192.23	-50.32
192.7	-76.07
193.17	-73.73
193.64	-17.55
194.109	-64.36
194.579	-45.64
195.049	8.19
195.519	22.24
195.988	12.87
196.458	36.28
196.927	64.36
197.397	153.31
197.866	104.15
198.336	141.6
198.805	101.81
199.274	139.26
199.744	160.33
200.213	190.75
200.682	209.48
201.151	246.93
201.62	275.01
202.089	157.99
202.558	239.9
203.027	272.67
203.495	253.95
203.964	253.95
204.433	237.56
204.902	267.99
205.37	265.65
205.839	335.87
206.307	260.97
206.776	314.8
207.244	300.76
207.712	286.72
208.181	321.82
208.649	246.93
209.117	310.12
209.585	284.38
210.053	305.44
210.521	300.76
210.989	253.95
211.457	242.25
211.925	249.27
212.393	225.86
212.861	246.93
213.328	223.52
213.796	284.38
214.264	253.95
214.731	307.78
215.199	197.78
215.666	204.8
216.133	272.67
216.601	279.69
217.068	303.1
217.535	228.2
218.003	270.33
218.47	237.56
218.937	223.52
219.404	207.14
219.871	258.63
220.338	284.38
220.805	221.18
221.271	242.25
221.738	270.33
222.205	253.95
222.671	211.82
223.138	272.67
223.605	242.25
224.071	279.69
224.538	298.42
225.004	277.35
225.47	260.97
225.937	218.84
226.403	303.1
226.869	256.29
227.335	244.59
227.801	242.25
228.267	211.82
228.733	267.99
229.199	235.22
229.665	200.12
230.131	218.84
230.597	282.03
231.062	197.78
231.528	279.69
231.994	282.03
232.459	263.31
232.925	289.06
233.39	265.65
233.856	265.65
234.321	260.97
234.786	284.38
235.252	270.33
235.717	239.9
236.182	235.22
236.647	331.19
237.112	282.03
237.577	298.42
238.042	291.4
238.507	303.1
238.972	300.76
239.436	303.1
239.901	209.48
240.366	256.29
240.83	221.18
241.295	260.97
241.76	282.03
242.224	286.72
242.688	267.99
243.153	211.82
243.617	298.42
244.081	242.25
244.545	230.54
245.01	267.99
245.474	225.86
245.938	260.97
246.402	289.06
246.866	291.4
247.33	272.67
247.793	209.48
248.257	270.33
248.721	317.14
249.185	218.84
249.648	232.88
250.112	324.16
250.575	251.61
251.039	275.01
251.502	282.03
251.965	326.5
252.429	296.08
252.892	289.06
253.355	272.67
253.818	270.33
254.281	289.06
254.744	314.8
255.207	270.33
255.67	293.74
256.133	242.25
256.596	270.33
257.059	296.08
257.522	284.38
257.984	253.95
258.447	368.63
258.909	265.65
259.372	277.35
259.834	258.63
260.297	214.16
260.759	291.4
261.221	263.31
261.684	282.03
262.146	361.61
262.608	275.01
263.07	246.93
263.532	293.74
263.994	317.14
264.456	258.63
264.918	291.4
265.38	296.08
265.842	244.59
266.303	289.06
266.765	324.16
267.227	293.74
267.688	225.86
268.15	312.46
268.611	284.38
269.072	239.9
269.534	291.4
269.995	284.38
270.456	319.48
270.918	356.93
271.379	263.31
271.84	284.38
272.301	272.67
272.762	307.78
273.223	307.78
273.684	293.74
274.144	263.31
274.605	293.74
275.066	354.59
275.527	279.69
275.987	235.22
276.448	303.1
276.908	296.08
277.369	317.14
277.829	256.29
278.289	303.1
278.75	277.35
279.21	319.48
279.67	317.14
280.13	305.44
280.59	319.48
281.05	267.99
281.51	307.78
281.97	279.69
282.43	333.53
282.89	293.74
283.35	263.31
283.809	270.33
284.269	265.65
284.729	272.67
285.188	282.03
285.648	237.56
286.107	317.14
286.567	282.03
287.026	270.33
287.485	312.46
287.944	296.08
288.404	275.01
288.863	289.06
289.322	298.42
289.781	310.12
290.24	333.53
290.699	314.8
291.158	289.06
291.616	242.25
292.075	284.38
292.534	221.18
292.992	282.03
293.451	275.01
293.91	251.61
294.368	314.8
294.827	305.44
295.285	331.19
295.743	296.08
296.202	312.46
296.66	267.99
297.118	310.12
297.576	300.76
298.034	328.85
298.492	272.67
298.95	235.22
299.408	345.23
299.866	298.42
300.324	326.5
300.781	279.69
301.239	237.56
301.697	317.14
302.154	265.65
302.612	251.61
303.069	209.48
303.527	286.72
303.984	317.14
304.441	310.12
304.899	237.56
305.356	282.03
305.813	258.63
306.27	275.01
306.727	312.46
307.184	319.48
307.641	270.33
308.098	319.48
308.555	277.35
309.012	305.44
309.468	312.46
309.925	275.01
310.382	256.29
310.838	249.27
311.295	328.85
311.751	305.44
312.208	366.29
312.664	282.03
313.12	291.4
313.577	359.27
314.033	333.53
314.489	317.14
314.945	321.82
315.401	331.19
315.857	310.12
316.313	305.44
316.769	270.33
317.225	253.95
317.681	291.4
318.136	289.06
318.592	319.48
319.048	279.69
319.503	307.78
319.959	256.29
320.414	275.01
320.869	200.12
321.325	317.14
321.78	284.38
322.235	319.48
322.691	305.44
323.146	282.03
323.601	260.97
324.056	319.48
324.511	293.74
324.966	296.08
325.421	293.74
325.875	312.46
326.33	284.38
326.785	347.57
327.24	314.8
327.694	338.21
328.149	296.08
328.603	249.27
329.058	312.46
329.512	296.08
329.966	298.42
330.421	272.67
330.875	356.93
331.329	272.67
331.783	305.44
332.237	335.87
332.691	335.87
333.145	279.69
333.599	275.01
334.053	319.48
334.507	279.69
334.96	289.06
335.414	260.97
335.868	305.44
336.321	275.01
336.775	270.33
337.228	331.19
337.682	298.42
338.135	310.12
338.588	296.08
339.042	354.59
339.495	249.27
339.948	279.69
340.401	363.95
340.854	310.12
341.307	303.1
341.76	282.03
342.213	303.1
342.666	256.29
343.119	298.42
343.571	347.57
344.024	293.74
344.477	277.35
344.929	291.4
345.382	293.74
345.834	335.87
346.287	328.85
346.739	230.54
347.191	265.65
347.644	253.95
348.096	349.91
348.548	293.74
349	296.08
349.452	272.67
349.904	289.06
350.356	305.44
350.808	310.12
351.26	319.48
351.711	331.19
352.163	279.69
352.615	314.8
353.066	340.55
353.518	345.23
353.969	249.27
354.421	326.5
354.872	324.16
355.324	286.72
355.775	270.33
356.226	352.25
356.677	340.55
357.128	272.67
357.579	342.89
358.03	340.55
358.481	305.44
358.932	347.57
359.383	335.87
359.834	319.48
360.285	305.44
360.735	314.8
361.186	331.19
361.637	340.55
362.087	284.38
362.538	291.4
362.988	277.35
363.438	305.44
363.889	267.99
364.339	272.67
364.789	307.78
365.239	324.16
365.689	352.25
366.139	286.72
366.589	275.01
367.039	293.74
367.489	314.8
367.939	352.25
368.389	347.57
368.839	366.29
369.288	319.48
369.738	319.48
370.187	291.4
370.637	307.78
371.086	298.42
371.536	349.91
371.985	246.93
372.434	289.06
372.884	284.38
373.333	349.91
373.782	310.12
374.231	310.12
374.68	345.23
375.129	277.35
375.578	319.48
376.027	298.42
376.475	284.38
376.924	321.82
377.373	333.53
377.822	321.82
378.27	270.33
378.719	282.03
379.167	328.85
379.616	296.08
380.064	333.53
380.512	246.93
380.961	331.19
381.409	270.33
381.857	356.93
382.305	314.8
382.753	361.61
383.201	324.16
383.649	331.19
384.097	298.42
384.545	291.4
384.992	310.12
385.44	333.53
385.888	211.82
386.335	256.29
386.783	335.87
387.231	317.14
387.678	314.8
388.125	366.29
388.573	338.21
389.02	335.87
389.467	298.42
389.914	328.85
390.362	289.06
390.809	284.38
391.256	298.42
391.703	251.61
392.15	312.46
392.596	298.42
393.043	310.12
393.49	321.82
393.937	317.14
394.383	244.59
394.83	354.59
395.276	345.23
395.723	300.76
396.169	354.59
396.616	242.25
397.062	289.06
397.508	256.29
397.954	303.1
398.401	340.55
398.847	260.97
399.293	256.29
399.739	352.25
400.185	352.25
400.631	347.57
401.076	275.01
401.522	305.44
401.968	333.53
402.414	361.61
402.859	378
403.305	258.63
403.75	305.44
404.196	305.44
404.641	291.4
405.086	333.53
405.532	296.08
405.977	324.16
406.422	361.61
406.867	284.38
407.312	253.95
407.757	319.48
408.202	300.76
408.647	282.03
409.092	296.08
409.537	246.93
409.982	326.5
410.426	289.06
410.871	303.1
411.316	314.8
411.76	310.12
412.205	321.82
412.649	312.46
413.093	333.53
413.538	258.63
413.982	293.74
414.426	253.95
414.87	305.44
415.314	333.53
415.758	291.4
416.202	258.63
416.646	321.82
417.09	394.38
417.534	319.48
417.978	317.14
418.421	352.25
418.865	282.03
419.309	317.14
419.752	293.74
420.196	326.5
420.639	286.72
421.083	289.06
421.526	331.19
421.969	277.35
422.412	237.56
422.856	356.93
423.299	303.1
423.742	361.61
424.185	225.86
424.628	249.27
425.071	321.82
425.513	314.8
425.956	286.72
426.399	284.38
426.842	324.16
427.284	319.48
427.727	310.12
428.169	207.14
428.612	258.63
429.054	305.44
429.497	349.91
429.939	312.46
430.381	298.42
430.823	263.31
431.265	319.48
431.707	342.89
432.149	338.21
432.591	298.42
433.033	349.91
433.475	321.82
433.917	324.16
434.359	368.63
434.8	331.19
435.242	328.85
435.684	305.44
436.125	239.9
436.567	296.08
437.008	347.57
437.449	298.42
437.891	291.4
438.332	310.12
438.773	328.85
439.214	298.42
439.656	312.46
440.097	270.33
440.538	373.32
440.978	317.14
441.419	317.14
441.86	305.44
442.301	246.93
442.742	312.46
443.182	326.5
443.623	298.42
444.063	267.99
444.504	305.44
444.944	319.48
445.385	256.29
445.825	303.1
446.265	347.57
446.706	328.85
447.146	307.78
447.586	253.95
448.026	296.08
448.466	340.55
448.906	275.01
449.346	354.59
449.786	321.82
450.225	230.54
450.665	347.57
451.105	267.99
451.544	326.5
451.984	328.85
452.424	291.4
452.863	289.06
453.302	272.67
453.742	321.82
454.181	279.69
454.62	340.55
455.059	265.65
455.499	293.74
455.938	352.25
456.377	270.33
456.816	235.22
457.254	230.54
457.693	328.85
458.132	319.48
458.571	289.06
459.01	298.42
459.448	324.16
459.887	293.74
460.325	312.46
460.764	368.63
461.202	335.87
461.641	296.08
462.079	338.21
462.517	324.16
462.955	352.25
463.393	307.78
463.832	277.35
464.27	307.78
464.708	370.97
465.145	291.4
465.583	340.55
466.021	272.67
466.459	345.23
466.897	221.18
467.334	331.19
467.772	333.53
468.209	307.78
468.647	349.91
469.084	272.67
469.522	310.12
469.959	300.76
470.396	321.82
470.833	244.59
471.271	303.1
471.708	204.8
472.145	298.42
472.582	324.16
473.019	340.55
473.456	324.16
473.892	260.97
474.329	317.14
474.766	319.48
475.202	356.93
475.639	310.12
476.076	237.56
476.512	368.63
476.949	242.25
477.385	335.87
477.821	298.42
478.258	277.35
478.694	244.59
479.13	265.65
479.566	307.78
480.002	345.23
480.438	333.53
480.874	317.14
481.31	338.21
481.746	293.74
482.181	246.93
482.617	300.76
483.053	307.78
483.488	251.61
483.924	291.4
484.36	338.21
484.795	312.46
485.23	331.19
485.666	251.61
486.101	401.4
486.536	331.19
486.971	319.48
487.407	291.4
487.842	251.61
488.277	312.46
488.712	347.57
489.146	326.5
489.581	303.1
490.016	275.01
490.451	296.08
490.885	321.82
491.32	284.38
491.755	338.21
492.189	277.35
492.624	300.76
493.058	300.76
493.492	286.72
493.927	368.63
494.361	356.93
494.795	307.78
495.229	396.72
495.663	328.85
496.097	267.99
496.531	331.19
496.965	303.1
497.399	263.31
497.833	345.23
498.266	277.35
498.7	361.61
499.134	258.63
499.567	279.69
500.001	307.78
500.434	314.8
500.868	389.7
501.301	385.02
501.734	293.74
502.168	382.68
502.601	258.63
503.034	342.89
503.467	289.06
503.9	277.35
504.333	298.42
504.766	324.16
505.199	324.16
505.632	260.97
506.064	277.35
506.497	326.5
506.93	263.31
507.362	263.31
507.795	321.82
508.227	338.21
508.66	335.87
509.092	307.78
509.524	289.06
509.956	296.08
510.389	317.14
510.821	265.65
511.253	284.38
511.685	260.97
512.117	338.21
512.549	321.82
512.981	305.44
513.412	342.89
513.844	307.78
514.276	298.42
514.707	258.63
515.139	277.35
515.571	324.16
516.002	260.97
516.433	293.74
516.865	319.48
517.296	319.48
517.727	361.61
518.159	312.46
518.59	300.76
519.021	275.01
519.452	317.14
519.883	314.8
520.314	328.85
520.744	321.82
521.175	286.72
521.606	335.87
522.037	352.25
522.467	289.06
522.898	272.67
523.328	282.03
523.759	289.06
524.189	296.08
524.62	317.14
525.05	307.78
525.48	345.23
525.91	321.82
526.341	375.66
526.771	246.93
527.201	265.65
527.631	298.42
528.061	305.44
528.49	312.46
528.92	310.12
529.35	253.95
529.78	373.32
530.209	347.57
530.639	324.16
531.068	378
531.498	303.1
531.927	326.5
532.357	359.27
532.786	310.12
533.215	296.08
533.644	300.76
534.074	331.19
534.503	342.89
534.932	260.97
535.361	310.12
535.79	284.38
536.218	319.48
536.647	380.34
537.076	303.1
537.505	349.91
537.933	342.89
538.362	284.38
538.79	291.4
539.219	319.48
539.647	277.35
540.076	319.48
540.504	328.85
540.932	363.95
541.36	335.87
541.788	333.53
542.217	279.69
542.645	289.06
543.073	232.88
543.5	335.87
543.928	324.16
544.356	331.19
544.784	363.95
545.211	321.82
545.639	340.55
546.067	310.12
546.494	352.25
546.922	307.78
547.349	314.8
547.776	296.08
548.204	326.5
548.631	347.57
549.058	378
549.485	361.61
549.912	342.89
550.339	354.59
550.766	340.55
551.193	291.4
551.62	267.99
552.047	324.16
552.474	317.14
552.9	305.44
553.327	345.23
553.754	319.48
554.18	277.35
554.607	293.74
555.033	314.8
555.459	312.46
555.886	275.01
556.312	375.66
556.738	347.57
557.164	361.61
557.59	361.61
558.016	282.03
558.442	321.82
558.868	363.95
559.294	356.93
559.72	310.12
560.145	331.19
560.571	328.85
560.997	382.68
561.422	359.27
561.848	284.38
562.273	342.89
562.699	354.59
563.124	359.27
563.549	352.25
563.974	282.03
564.4	310.12
564.825	284.38
565.25	305.44
565.675	338.21
566.1	363.95
566.525	303.1
566.95	300.76
567.374	239.9
567.799	246.93
568.224	335.87
568.648	305.44
569.073	298.42
569.497	328.85
569.922	305.44
570.346	284.38
570.771	296.08
571.195	317.14
571.619	307.78
572.043	300.76
572.467	324.16
572.891	333.53
573.315	265.65
573.739	317.14
574.163	312.46
574.587	282.03
575.011	333.53
575.435	291.4
575.858	331.19
576.282	324.16
576.705	214.16
577.129	333.53
577.552	275.01
577.976	314.8
578.399	319.48
578.822	312.46
579.245	342.89
579.669	244.59
580.092	310.12
580.515	242.25
580.938	347.57
581.361	356.93
581.784	298.42
582.206	242.25
582.629	242.25
583.052	279.69
583.474	265.65
583.897	317.14
584.32	298.42
584.742	307.78
585.165	298.42
585.587	286.72
586.009	275.01
586.431	331.19
586.854	321.82
587.276	354.59
587.698	310.12
588.12	277.35
588.542	314.8
588.964	296.08
589.386	354.59
589.807	260.97
590.229	267.99
590.651	277.35
591.073	314.8
591.494	284.38
591.916	275.01
592.337	314.8
592.759	282.03
593.18	286.72
593.601	352.25
594.022	347.57
594.444	324.16
594.865	270.33
595.286	310.12
595.707	328.85
596.128	340.55
596.549	319.48
596.97	289.06
597.39	275.01
597.811	260.97
598.232	375.66
598.652	270.33
599.073	317.14
599.494	267.99
599.914	270.33
600.334	317.14
600.755	312.46
601.175	359.27
601.595	296.08
602.015	335.87
602.436	293.74
602.856	408.42
603.276	314.8
603.696	305.44
604.115	307.78
604.535	314.8
604.955	300.76
605.375	300.76
605.794	296.08
606.214	293.74
606.634	305.44
607.053	331.19
607.473	312.46
607.892	282.03
608.311	333.53
608.731	300.76
609.15	258.63
609.569	249.27
609.988	340.55
610.407	328.85
610.826	345.23
611.245	347.57
611.664	370.97
612.083	361.61
612.501	289.06
612.92	284.38
613.339	335.87
613.757	352.25
614.176	347.57
614.594	331.19
615.013	361.61
615.431	345.23
615.85	291.4
616.268	340.55
616.686	267.99
617.104	291.4
617.522	340.55
617.94	345.23
618.358	263.31
618.776	352.25
619.194	326.5
619.612	300.76
620.03	345.23
620.447	289.06
620.865	310.12
621.282	326.5
621.7	293.74
622.117	340.55
622.535	289.06
622.952	317.14
623.369	289.06
623.787	291.4
624.204	296.08
624.621	321.82
625.038	317.14
625.455	340.55
625.872	307.78
626.289	389.7
626.706	352.25
627.123	298.42
627.539	342.89
627.956	275.01
628.373	286.72
628.789	333.53
629.206	223.52
629.622	286.72
630.038	380.34
630.455	314.8
630.871	310.12
631.287	363.95
631.703	314.8
632.12	253.95
632.536	310.12
632.952	331.19
633.368	345.23
633.783	282.03
634.199	321.82
634.615	303.1
635.031	310.12
635.446	298.42
635.862	321.82
636.277	324.16
636.693	352.25
637.108	321.82
637.524	307.78
637.939	333.53
638.354	356.93
638.77	324.16
639.185	342.89
639.6	289.06
640.015	244.59
640.43	242.25
640.845	314.8
641.259	305.44
641.674	321.82
642.089	321.82
642.504	331.19
642.918	333.53
643.333	277.35
643.747	282.03
644.162	277.35
644.576	356.93
644.991	296.08
645.405	366.29
645.819	289.06
646.233	342.89
646.647	298.42
647.061	314.8
647.475	279.69
647.889	289.06
648.303	305.44
648.717	406.08
649.131	253.95
649.545	298.42
649.958	354.59
650.372	310.12
650.785	338.21
651.199	303.1
651.612	303.1
652.026	265.65
652.439	275.01
652.852	363.95
653.266	324.16
653.679	319.48
654.092	272.67
654.505	328.85
654.918	312.46
655.331	361.61
655.744	321.82
656.156	363.95
656.569	307.78
656.982	324.16
657.394	305.44
657.807	253.95
658.22	312.46
658.632	279.69
659.044	263.31
659.457	296.08
659.869	340.55
660.281	272.67
660.693	298.42
661.106	326.5
661.518	380.34
661.93	328.85
662.342	303.1
662.754	260.97
663.165	312.46
663.577	338.21
663.989	373.32
664.401	263.31
664.812	317.14
665.224	235.22
665.635	373.32
666.047	256.29
666.458	260.97
666.869	275.01
667.281	303.1
667.692	317.14
668.103	305.44
668.514	246.93
668.925	300.76
669.336	286.72
669.747	317.14
670.158	282.03
670.569	300.76
670.979	340.55
671.39	310.12
671.801	260.97
672.211	251.61
672.622	317.14
673.032	333.53
673.443	307.78
673.853	331.19
674.263	293.74
674.674	303.1
675.084	328.85
675.494	293.74
675.904	366.29
676.314	305.44
676.724	333.53
677.134	312.46
677.544	333.53
677.953	321.82
678.363	305.44
678.773	375.66
679.182	305.44
679.592	291.4
680.001	347.57
680.411	277.35
680.82	321.82
681.23	338.21
681.639	293.74
682.048	298.42
682.457	239.9
682.866	291.4
683.275	331.19
683.684	244.59
684.093	345.23
684.502	342.89
684.911	382.68
685.32	319.48
685.728	284.38
686.137	317.14
686.546	333.53
686.954	312.46
687.363	293.74
687.771	253.95
688.179	331.19
688.588	291.4
688.996	352.25
689.404	296.08
689.812	326.5
690.22	286.72
690.628	293.74
691.036	291.4
691.444	310.12
691.852	279.69
692.26	272.67
692.667	385.02
693.075	218.84
693.483	293.74
693.89	312.46
694.298	275.01
694.705	275.01
695.112	249.27
695.52	282.03
695.927	286.72
696.334	300.76
696.741	282.03
697.148	314.8
697.555	326.5
697.962	347.57
698.369	321.82
698.776	321.82
699.183	380.34
699.59	275.01
699.996	256.29
700.403	179.05
700.81	310.12
701.216	361.61
701.623	277.35
702.029	310.12
702.435	298.42
702.842	298.42
703.248	296.08
703.654	267.99
704.06	321.82
704.466	298.42
704.872	331.19
705.278	310.12
705.684	333.53
706.09	314.8
706.496	284.38
706.901	314.8
707.307	256.29
707.712	282.03
708.118	300.76
708.523	286.72
708.929	249.27
709.334	356.93
709.74	270.33
710.145	312.46
710.55	310.12
710.955	286.72
711.36	270.33
711.765	363.95
712.17	356.93
712.575	289.06
712.98	890.57
713.385	373.32
713.789	293.74
714.194	363.95
714.599	251.61
715.003	340.55
715.408	279.69
715.812	333.53
716.217	331.19
716.621	289.06
717.025	328.85
717.429	359.27
717.833	291.4
718.238	249.27
718.642	354.59
719.046	284.38
719.449	277.35
719.853	270.33
720.257	319.48
720.661	284.38
721.065	300.76
721.468	239.9
721.872	303.1
722.275	246.93
722.679	235.22
723.082	246.93
723.485	314.8
723.889	352.25
724.292	277.35
724.695	242.25
725.098	277.35
725.501	286.72
725.904	328.85
726.307	352.25
726.71	265.65
727.113	291.4
727.516	291.4
727.918	317.14
728.321	249.27
728.724	333.53
729.126	363.95
729.529	275.01
729.931	284.38
730.333	300.76
730.736	296.08
731.138	214.16
731.54	263.31
731.942	314.8
732.344	312.46
732.746	328.85
733.148	312.46
733.55	298.42
733.952	296.08
734.354	342.89
734.756	321.82
735.157	296.08
735.559	303.1
735.96	324.16
736.362	338.21
736.763	291.4
737.165	244.59
737.566	291.4
737.967	342.89
738.368	275.01
738.77	303.1
739.171	312.46
739.572	284.38
739.973	319.48
740.374	314.8
740.774	267.99
741.175	272.67
741.576	277.35
741.977	340.55
742.377	300.76
742.778	282.03
743.178	265.65
743.579	291.4
743.979	314.8
744.379	312.46
744.78	340.55
745.18	244.59
745.58	307.78
745.98	263.31
746.38	342.89
746.78	375.66
747.18	345.23
747.58	307.78
747.98	303.1
748.38	370.97
748.779	354.59
749.179	312.46
749.578	275.01
749.978	296.08
750.377	333.53
750.777	312.46
751.176	324.16
751.575	366.29
751.975	361.61
752.374	239.9
752.773	319.48
753.172	277.35
753.571	279.69
753.97	272.67
754.369	253.95
754.768	298.42
755.166	310.12
755.565	303.1
755.964	275.01
756.362	345.23
756.761	298.42
757.159	260.97
757.558	333.53
757.956	314.8
758.354	293.74
758.753	289.06
759.151	293.74
759.549	352.25
759.947	296.08
760.345	338.21
760.743	256.29
761.141	258.63
761.539	277.35
761.936	286.72
762.334	289.06
762.732	258.63
763.129	356.93
763.527	286.72
763.924	296.08
764.322	279.69
764.719	263.31
765.117	303.1
