Data from Al_FLMS009871__1283__16-49-39-166.txt Node

Date: Fri Mar 08 16:49:39 CST 2024
User: pe5414po
Spectrometer: FLMS00987
Trigger mode: 0
Integration Time (sec): 1.000000E-1
Scans to average: 1
Electric dark correction enabled: true
Nonlinearity correction enabled: false
Boxcar width: 0
XAxis mode: Wavelengths
Number of Pixels in Spectrum: 2048
>>>>>Begin Spectral Data<<<<<
188.938	-41.4
189.409	-41.4
189.879	-41.4
190.349	-174.81
190.819	-106.93
191.29	-106.93
191.76	-113.95
192.23	-120.98
192.7	-69.48
193.17	-74.17
193.64	-69.48
194.109	-20.33
194.579	-6.29
195.049	24.14
195.519	26.48
195.988	19.46
196.458	73.29
196.927	136.48
197.397	113.08
197.866	106.06
198.336	82.65
198.805	68.61
199.274	80.31
199.744	143.5
200.213	192.66
200.682	199.68
201.151	216.06
201.62	239.47
202.089	272.23
202.558	178.61
203.027	276.91
203.495	227.76
203.964	300.32
204.433	260.53
204.902	260.53
205.37	323.73
205.839	305
206.307	260.53
206.776	316.7
207.244	335.43
207.712	230.1
208.181	234.78
208.649	326.07
209.117	279.26
209.585	321.38
210.053	356.49
210.521	274.57
210.989	302.66
211.457	279.26
211.925	351.81
212.393	223.08
212.861	258.19
213.328	239.47
213.796	241.81
214.264	258.19
214.731	316.7
215.199	356.49
215.666	272.23
216.133	241.81
216.601	286.28
217.068	269.89
217.535	279.26
218.003	223.08
218.47	312.02
218.937	276.91
219.404	279.26
219.871	279.26
220.338	209.04
220.805	272.23
221.271	276.91
221.738	237.13
222.205	340.11
222.671	216.06
223.138	232.44
223.605	258.19
224.071	286.28
224.538	286.28
225.004	260.53
225.47	246.49
225.937	262.87
226.403	267.55
226.869	281.6
227.335	255.85
227.801	333.09
228.267	251.17
228.733	272.23
229.199	288.62
229.665	258.19
230.131	253.51
230.597	218.4
231.062	255.85
231.528	251.17
231.994	267.55
232.459	241.81
232.925	216.06
233.39	300.32
233.856	293.3
234.321	234.78
234.786	269.89
235.252	251.17
235.717	283.94
236.182	309.68
236.647	251.17
237.112	297.98
237.577	279.26
238.042	305
238.507	246.49
238.972	232.44
239.436	297.98
239.901	241.81
240.366	239.47
240.83	234.78
241.295	293.3
241.76	246.49
242.224	237.13
242.688	272.23
243.153	246.49
243.617	384.58
244.081	244.15
244.545	314.36
245.01	302.66
245.474	309.68
245.938	279.26
246.402	312.02
246.866	220.74
247.33	262.87
247.793	312.02
248.257	232.44
248.721	300.32
249.185	230.1
249.648	260.53
250.112	234.78
250.575	223.08
251.039	246.49
251.502	262.87
251.965	274.57
252.429	232.44
252.892	354.15
253.355	239.47
253.818	297.98
254.281	286.28
254.744	302.66
255.207	260.53
255.67	211.38
256.133	316.7
256.596	248.83
257.059	309.68
257.522	246.49
257.984	295.64
258.447	316.7
258.909	276.91
259.372	237.13
259.834	276.91
260.297	248.83
260.759	363.51
261.221	300.32
261.684	333.09
262.146	244.15
262.608	262.87
263.07	246.49
263.532	246.49
263.994	248.83
264.456	297.98
264.918	283.94
265.38	248.83
265.842	276.91
266.303	234.78
266.765	316.7
267.227	309.68
267.688	347.13
268.15	379.9
268.611	312.02
269.072	293.3
269.534	293.3
269.995	307.34
270.456	267.55
270.918	290.96
271.379	234.78
271.84	230.1
272.301	274.57
272.762	295.64
273.223	283.94
273.684	241.81
274.144	300.32
274.605	244.15
275.066	248.83
275.527	248.83
275.987	326.07
276.448	307.34
276.908	269.89
277.369	216.06
277.829	314.36
278.289	213.72
278.75	316.7
279.21	288.62
279.67	274.57
280.13	309.68
280.59	265.21
281.05	316.7
281.51	302.66
281.97	239.47
282.43	279.26
282.89	262.87
283.35	283.94
283.809	309.68
284.269	319.04
284.729	297.98
285.188	307.34
285.648	281.6
286.107	255.85
286.567	307.34
287.026	241.81
287.485	293.3
287.944	279.26
288.404	295.64
288.863	227.76
289.322	279.26
289.781	328.41
290.24	312.02
290.699	347.13
291.158	300.32
291.616	307.34
292.075	246.49
292.534	276.91
292.992	288.62
293.451	283.94
293.91	265.21
294.368	286.28
294.827	262.87
295.285	302.66
295.743	248.83
296.202	262.87
296.66	333.09
297.118	293.3
297.576	258.19
298.034	314.36
298.492	316.7
298.95	258.19
299.408	333.09
299.866	290.96
300.324	258.19
300.781	302.66
301.239	295.64
301.697	356.49
302.154	297.98
302.612	253.51
303.069	295.64
303.527	248.83
303.984	190.31
304.441	269.89
304.899	354.15
305.356	286.28
305.813	323.73
306.27	230.1
306.727	274.57
307.184	302.66
307.641	347.13
308.098	342.45
308.555	309.68
309.012	314.36
309.468	276.91
309.925	349.47
310.382	202.02
310.838	274.57
311.295	319.04
311.751	281.6
312.208	290.96
312.664	262.87
313.12	290.96
313.577	297.98
314.033	307.34
314.489	241.81
314.945	326.07
315.401	293.3
315.857	316.7
316.313	279.26
316.769	330.75
317.225	302.66
317.681	300.32
318.136	227.76
318.592	251.17
319.048	253.51
319.503	305
319.959	288.62
320.414	286.28
320.869	349.47
321.325	279.26
321.78	300.32
322.235	344.79
322.691	342.45
323.146	333.09
323.601	330.75
324.056	330.75
324.511	293.3
324.966	258.19
325.421	253.51
325.875	333.09
326.33	258.19
326.785	305
327.24	300.32
327.694	312.02
328.149	361.17
328.603	347.13
329.058	305
329.512	274.57
329.966	276.91
330.421	365.85
330.875	302.66
331.329	286.28
331.783	253.51
332.237	272.23
332.691	326.07
333.145	272.23
333.599	225.42
334.053	255.85
334.507	330.75
334.96	358.83
335.414	269.89
335.868	330.75
336.321	276.91
336.775	309.68
337.228	272.23
337.682	283.94
338.135	267.55
338.588	295.64
339.042	340.11
339.495	312.02
339.948	281.6
340.401	290.96
340.854	323.73
341.307	305
341.76	276.91
342.213	335.43
342.666	307.34
343.119	305
343.571	351.81
344.024	272.23
344.477	213.72
344.929	260.53
345.382	319.04
345.834	314.36
346.287	265.21
346.739	312.02
347.191	307.34
347.644	283.94
348.096	309.68
348.548	300.32
349	267.55
349.452	246.49
349.904	281.6
350.356	307.34
350.808	302.66
351.26	319.04
351.711	319.04
352.163	326.07
352.615	316.7
353.066	295.64
353.518	335.43
353.969	293.3
354.421	316.7
354.872	279.26
355.324	295.64
355.775	297.98
356.226	290.96
356.677	297.98
357.128	326.07
357.579	342.45
358.03	326.07
358.481	330.75
358.932	302.66
359.383	335.43
359.834	314.36
360.285	260.53
360.735	286.28
361.186	295.64
361.637	349.47
362.087	375.22
362.538	358.83
362.988	290.96
363.438	276.91
363.889	234.78
364.339	297.98
364.789	305
365.239	358.83
365.689	305
366.139	274.57
366.589	269.89
367.039	389.26
367.489	290.96
367.939	333.09
368.389	337.77
368.839	340.11
369.288	314.36
369.738	283.94
370.187	272.23
370.637	326.07
371.086	295.64
371.536	262.87
371.985	319.04
372.434	321.38
372.884	297.98
373.333	347.13
373.782	279.26
374.231	340.11
374.68	295.64
375.129	279.26
375.578	279.26
376.027	283.94
376.475	281.6
376.924	286.28
377.373	279.26
377.822	326.07
378.27	347.13
378.719	288.62
379.167	370.54
379.616	316.7
380.064	297.98
380.512	297.98
380.961	302.66
381.409	286.28
381.857	321.38
382.305	265.21
382.753	377.56
383.201	342.45
383.649	365.85
384.097	328.41
384.545	290.96
384.992	333.09
385.44	347.13
385.888	358.83
386.335	312.02
386.783	307.34
387.231	356.49
387.678	274.57
388.125	272.23
388.573	314.36
389.02	288.62
389.467	255.85
389.914	314.36
390.362	307.34
390.809	365.85
391.256	288.62
391.703	300.32
392.15	342.45
392.596	312.02
393.043	283.94
393.49	326.07
393.937	269.89
394.383	337.77
394.83	309.68
395.276	351.81
395.723	297.98
396.169	265.21
396.616	330.75
397.062	269.89
397.508	314.36
397.954	302.66
398.401	309.68
398.847	234.78
399.293	316.7
399.739	230.1
400.185	305
400.631	288.62
401.076	344.79
401.522	265.21
401.968	337.77
402.414	347.13
402.859	297.98
403.305	288.62
403.75	365.85
404.196	297.98
404.641	293.3
405.086	223.08
405.532	340.11
405.977	297.98
406.422	274.57
406.867	248.83
407.312	274.57
407.757	258.19
408.202	293.3
408.647	309.68
409.092	309.68
409.537	309.68
409.982	347.13
410.426	286.28
410.871	316.7
411.316	312.02
411.76	358.83
412.205	312.02
412.649	328.41
413.093	321.38
413.538	305
413.982	314.36
414.426	281.6
414.87	321.38
415.314	347.13
415.758	290.96
416.202	337.77
416.646	312.02
417.09	300.32
417.534	312.02
417.978	312.02
418.421	297.98
418.865	281.6
419.309	297.98
419.752	267.55
420.196	365.85
420.639	302.66
421.083	326.07
421.526	321.38
421.969	328.41
422.412	279.26
422.856	370.54
423.299	283.94
423.742	225.42
424.185	354.15
424.628	293.3
425.071	356.49
425.513	333.09
425.956	288.62
426.399	363.51
426.842	323.73
427.284	279.26
427.727	239.47
428.169	330.75
428.612	335.43
429.054	347.13
429.497	279.26
429.939	276.91
430.381	272.23
430.823	297.98
431.265	307.34
431.707	307.34
432.149	342.45
432.591	330.75
433.033	344.79
433.475	330.75
433.917	279.26
434.359	305
434.8	333.09
435.242	354.15
435.684	253.51
436.125	312.02
436.567	333.09
437.008	295.64
437.449	260.53
437.891	283.94
438.332	314.36
438.773	300.32
439.214	300.32
439.656	335.43
440.097	314.36
440.538	267.55
440.978	279.26
441.419	274.57
441.86	279.26
442.301	290.96
442.742	239.47
443.182	330.75
443.623	319.04
444.063	213.72
444.504	321.38
444.944	276.91
445.385	347.13
445.825	274.57
446.265	307.34
446.706	281.6
447.146	337.77
447.586	283.94
448.026	333.09
448.466	293.3
448.906	297.98
449.346	251.17
449.786	309.68
450.225	300.32
450.665	333.09
451.105	283.94
451.544	372.88
451.984	227.76
452.424	312.02
452.863	300.32
453.302	239.47
453.742	354.15
454.181	333.09
454.62	319.04
455.059	302.66
455.499	295.64
455.938	326.07
456.377	342.45
456.816	344.79
457.254	319.04
457.693	300.32
458.132	335.43
458.571	356.49
459.01	307.34
459.448	297.98
459.887	321.38
460.325	335.43
460.764	232.44
461.202	321.38
461.641	312.02
462.079	305
462.517	312.02
462.955	330.75
463.393	375.22
463.832	309.68
464.27	300.32
464.708	328.41
465.145	295.64
465.583	265.21
466.021	349.47
466.459	241.81
466.897	293.3
467.334	281.6
467.772	305
468.209	342.45
468.647	358.83
469.084	276.91
469.522	363.51
469.959	295.64
470.396	323.73
470.833	370.54
471.271	328.41
471.708	326.07
472.145	305
472.582	295.64
473.019	272.23
473.456	251.17
473.892	316.7
474.329	305
474.766	347.13
475.202	372.88
475.639	344.79
476.076	251.17
476.512	230.1
476.949	372.88
477.385	354.15
477.821	274.57
478.258	335.43
478.694	314.36
479.13	288.62
479.566	340.11
480.002	370.54
480.438	288.62
480.874	244.15
481.31	316.7
481.746	361.17
482.181	281.6
482.617	302.66
483.053	288.62
483.488	269.89
483.924	253.51
484.36	265.21
484.795	305
485.23	307.34
485.666	246.49
486.101	354.15
486.536	286.28
486.971	323.73
487.407	368.2
487.842	305
488.277	316.7
488.712	365.85
489.146	384.58
489.581	276.91
490.016	342.45
490.451	297.98
490.885	316.7
491.32	326.07
491.755	323.73
492.189	309.68
492.624	279.26
493.058	330.75
493.492	279.26
493.927	347.13
494.361	279.26
494.795	312.02
495.229	286.28
495.663	316.7
496.097	316.7
496.531	274.57
496.965	309.68
497.399	305
497.833	316.7
498.266	335.43
498.7	300.32
499.134	288.62
499.567	309.68
500.001	312.02
500.434	326.07
500.868	307.34
501.301	269.89
501.734	321.38
502.168	239.47
502.601	302.66
503.034	330.75
503.467	293.3
503.9	281.6
504.333	281.6
504.766	328.41
505.199	276.91
505.632	262.87
506.064	312.02
506.497	358.83
506.93	279.26
507.362	328.41
507.795	349.47
508.227	356.49
508.66	333.09
509.092	340.11
509.524	316.7
509.956	361.17
510.389	340.11
510.821	365.85
511.253	328.41
511.685	326.07
512.117	290.96
512.549	342.45
512.981	265.21
513.412	251.17
513.844	316.7
514.276	316.7
514.707	375.22
515.139	342.45
515.571	297.98
516.002	340.11
516.433	293.3
516.865	326.07
517.296	267.55
517.727	227.76
518.159	356.49
518.59	276.91
519.021	321.38
519.452	370.54
519.883	239.47
520.314	274.57
520.744	328.41
521.175	309.68
521.606	295.64
522.037	309.68
522.467	384.58
522.898	312.02
523.328	297.98
523.759	300.32
524.189	330.75
524.62	335.43
525.05	361.17
525.48	297.98
525.91	321.38
526.341	258.19
526.771	293.3
527.201	276.91
527.631	302.66
528.061	305
528.49	323.73
528.92	309.68
529.35	305
529.78	351.81
530.209	356.49
530.639	290.96
531.068	330.75
531.498	370.54
531.927	314.36
532.357	302.66
532.786	293.3
533.215	361.17
533.644	267.55
534.074	370.54
534.503	347.13
534.932	319.04
535.361	328.41
535.79	248.83
536.218	272.23
536.647	255.85
537.076	265.21
537.505	312.02
537.933	305
538.362	344.79
538.79	361.17
539.219	333.09
539.647	333.09
540.076	337.77
540.504	330.75
540.932	337.77
541.36	319.04
541.788	305
542.217	340.11
542.645	295.64
543.073	321.38
543.5	255.85
543.928	309.68
544.356	309.68
544.784	281.6
545.211	309.68
545.639	305
546.067	279.26
546.494	265.21
546.922	297.98
547.349	330.75
547.776	309.68
548.204	302.66
548.631	323.73
549.058	297.98
549.485	309.68
549.912	340.11
550.339	319.04
550.766	323.73
551.193	265.21
551.62	297.98
552.047	197.34
552.474	293.3
552.9	323.73
553.327	319.04
553.754	382.24
554.18	288.62
554.607	295.64
555.033	319.04
555.459	321.38
555.886	335.43
556.312	335.43
556.738	300.32
557.164	288.62
557.59	309.68
558.016	246.49
558.442	302.66
558.868	335.43
559.294	293.3
559.72	283.94
560.145	347.13
560.571	267.55
560.997	302.66
561.422	365.85
561.848	379.9
562.273	400.96
562.699	286.28
563.124	300.32
563.549	363.51
563.974	365.85
564.4	321.38
564.825	300.32
565.25	251.17
565.675	321.38
566.1	288.62
566.525	286.28
566.95	265.21
567.374	279.26
567.799	347.13
568.224	255.85
568.648	295.64
569.073	286.28
569.497	293.3
569.922	321.38
570.346	286.28
570.771	351.81
571.195	351.81
571.619	319.04
572.043	319.04
572.467	365.85
572.891	248.83
573.315	272.23
573.739	288.62
574.163	246.49
574.587	246.49
575.011	314.36
575.435	358.83
575.858	307.34
576.282	267.55
576.705	286.28
577.129	300.32
577.552	333.09
577.976	335.43
578.399	365.85
578.822	314.36
579.245	255.85
579.669	248.83
580.092	283.94
580.515	368.2
580.938	375.22
581.361	337.77
581.784	337.77
582.206	347.13
582.629	286.28
583.052	330.75
583.474	312.02
583.897	269.89
584.32	232.44
584.742	258.19
585.165	319.04
585.587	314.36
586.009	312.02
586.431	312.02
586.854	323.73
587.276	316.7
587.698	389.26
588.12	323.73
588.542	290.96
588.964	290.96
589.386	283.94
589.807	305
590.229	337.77
590.651	241.81
591.073	354.15
591.494	239.47
591.916	300.32
592.337	354.15
592.759	316.7
593.18	297.98
593.601	300.32
594.022	293.3
594.444	293.3
594.865	326.07
595.286	321.38
595.707	297.98
596.128	333.09
596.549	290.96
596.97	312.02
597.39	370.54
597.811	312.02
598.232	337.77
598.652	321.38
599.073	234.78
599.494	267.55
599.914	356.49
600.334	335.43
600.755	290.96
601.175	255.85
601.595	314.36
602.015	269.89
602.436	293.3
602.856	443.09
603.276	281.6
603.696	328.41
604.115	283.94
604.535	370.54
604.955	290.96
605.375	288.62
605.794	297.98
606.214	319.04
606.634	267.55
607.053	269.89
607.473	297.98
607.892	358.83
608.311	354.15
608.731	309.68
609.15	288.62
609.569	255.85
609.988	234.78
610.407	326.07
610.826	363.51
611.245	274.57
611.664	333.09
612.083	246.49
612.501	312.02
612.92	269.89
613.339	333.09
613.757	356.49
614.176	361.17
614.594	328.41
615.013	279.26
615.431	361.17
615.85	297.98
616.268	333.09
616.686	321.38
617.104	321.38
617.522	314.36
617.94	312.02
618.358	234.78
618.776	319.04
619.194	361.17
619.612	258.19
620.03	281.6
620.447	288.62
620.865	307.34
621.282	290.96
621.7	286.28
622.117	279.26
622.535	321.38
622.952	251.17
623.369	288.62
623.787	319.04
624.204	283.94
624.621	295.64
625.038	349.47
625.455	269.89
625.872	283.94
626.289	328.41
626.706	323.73
627.123	314.36
627.539	316.7
627.956	290.96
628.373	302.66
628.789	337.77
629.206	314.36
629.622	326.07
630.038	232.44
630.455	305
630.871	288.62
631.287	239.47
631.703	307.34
632.12	363.51
632.536	379.9
632.952	335.43
633.368	328.41
633.783	344.79
634.199	307.34
634.615	319.04
635.031	312.02
635.446	363.51
635.862	316.7
636.277	321.38
636.693	340.11
637.108	290.96
637.524	312.02
637.939	302.66
638.354	290.96
638.77	337.77
639.185	283.94
639.6	314.36
640.015	267.55
640.43	363.51
640.845	279.26
641.259	276.91
641.674	351.81
642.089	295.64
642.504	302.66
642.918	335.43
643.333	323.73
643.747	248.83
644.162	290.96
644.576	267.55
644.991	274.57
645.405	323.73
645.819	272.23
646.233	340.11
646.647	305
647.061	323.73
647.475	314.36
647.889	344.79
648.303	220.74
648.717	319.04
649.131	290.96
649.545	309.68
649.958	316.7
650.372	342.45
650.785	316.7
651.199	363.51
651.612	302.66
652.026	279.26
652.439	305
652.852	283.94
653.266	321.38
653.679	342.45
654.092	312.02
654.505	328.41
654.918	300.32
655.331	295.64
655.744	342.45
656.156	319.04
656.569	283.94
656.982	297.98
657.394	305
657.807	290.96
658.22	358.83
658.632	262.87
659.044	312.02
659.457	319.04
659.869	293.3
660.281	286.28
660.693	321.38
661.106	286.28
661.518	307.34
661.93	295.64
662.342	290.96
662.754	323.73
663.165	258.19
663.577	335.43
663.989	319.04
664.401	340.11
664.812	328.41
665.224	286.28
665.635	340.11
666.047	251.17
666.458	300.32
666.869	382.24
667.281	253.51
667.692	300.32
668.103	316.7
668.514	269.89
668.925	316.7
669.336	340.11
669.747	251.17
670.158	265.21
670.569	316.7
670.979	340.11
671.39	319.04
671.801	344.79
672.211	267.55
672.622	321.38
673.032	375.22
673.443	255.85
673.853	293.3
674.263	262.87
674.674	323.73
675.084	255.85
675.494	347.13
675.904	347.13
676.314	340.11
676.724	286.28
677.134	323.73
677.544	302.66
677.953	283.94
678.363	290.96
678.773	351.81
679.182	328.41
679.592	328.41
680.001	300.32
680.411	251.17
680.82	361.17
681.23	330.75
681.639	260.53
682.048	340.11
682.457	246.49
682.866	295.64
683.275	305
683.684	321.38
684.093	286.28
684.502	276.91
684.911	253.51
685.32	333.09
685.728	300.32
686.137	309.68
686.546	305
686.954	321.38
687.363	290.96
687.771	274.57
688.179	335.43
688.588	305
688.996	244.15
689.404	274.57
689.812	319.04
690.22	279.26
690.628	258.19
691.036	358.83
691.444	314.36
691.852	288.62
692.26	312.02
692.667	389.26
693.075	305
693.483	389.26
693.89	279.26
694.298	379.9
694.705	290.96
695.112	286.28
695.52	342.45
695.927	335.43
696.334	314.36
696.741	377.56
697.148	281.6
697.555	281.6
697.962	279.26
698.369	281.6
698.776	253.51
699.183	302.66
699.59	302.66
699.996	260.53
700.403	241.81
700.81	260.53
701.216	379.9
701.623	389.26
702.029	335.43
702.435	312.02
702.842	307.34
703.248	295.64
703.654	328.41
704.06	297.98
704.466	305
704.872	265.21
705.278	239.47
705.684	312.02
706.09	283.94
706.496	347.13
706.901	253.51
707.307	351.81
707.712	314.36
708.118	337.77
708.523	297.98
708.929	265.21
709.334	328.41
709.74	337.77
710.145	307.34
710.55	307.34
710.955	342.45
711.36	283.94
711.765	288.62
712.17	344.79
712.575	307.34
712.98	932.26
713.385	323.73
713.789	288.62
714.194	297.98
714.599	312.02
715.003	333.09
715.408	347.13
715.812	307.34
716.217	293.3
716.621	272.23
717.025	305
717.429	372.88
717.833	265.21
718.238	351.81
718.642	358.83
719.046	281.6
719.449	312.02
719.853	290.96
720.257	290.96
720.661	248.83
721.065	316.7
721.468	290.96
721.872	307.34
722.275	307.34
722.679	258.19
723.082	279.26
723.485	293.3
723.889	279.26
724.292	349.47
724.695	290.96
725.098	274.57
725.501	370.54
725.904	354.15
726.307	281.6
726.71	335.43
727.113	314.36
727.516	309.68
727.918	288.62
728.321	340.11
728.724	316.7
729.126	258.19
729.529	283.94
729.931	293.3
730.333	211.38
730.736	269.89
731.138	314.36
731.54	365.85
731.942	314.36
732.344	309.68
732.746	288.62
733.148	272.23
733.55	288.62
733.952	300.32
734.354	330.75
734.756	302.66
735.157	354.15
735.559	316.7
735.96	316.7
736.362	333.09
736.763	314.36
737.165	283.94
737.566	283.94
737.967	316.7
738.368	286.28
738.77	272.23
739.171	276.91
739.572	300.32
739.973	368.2
740.374	300.32
740.774	335.43
741.175	347.13
741.576	293.3
741.977	319.04
742.377	283.94
742.778	330.75
743.178	279.26
743.579	290.96
743.979	302.66
744.379	319.04
744.78	290.96
745.18	316.7
745.58	279.26
745.98	356.49
746.38	321.38
746.78	307.34
747.18	330.75
747.58	344.79
747.98	288.62
748.38	309.68
748.779	297.98
749.179	300.32
749.578	312.02
749.978	316.7
750.377	335.43
750.777	302.66
751.176	326.07
751.575	305
751.975	218.4
752.374	307.34
752.773	305
753.172	330.75
753.571	342.45
753.97	347.13
754.369	321.38
754.768	267.55
755.166	347.13
755.565	333.09
755.964	288.62
756.362	309.68
756.761	323.73
757.159	326.07
757.558	323.73
757.956	340.11
758.354	316.7
758.753	305
759.151	265.21
759.549	276.91
759.947	276.91
760.345	279.26
760.743	314.36
761.141	314.36
761.539	305
761.936	333.09
762.334	260.53
762.732	309.68
763.129	267.55
763.527	389.26
763.924	342.45
764.322	340.11
764.719	279.26
765.117	267.55
765.514	276.91
765.911	333.09
766.308	319.04
766.705	246.49
767.102	276.91
767.499	323.73
