Data from Al_FLMS009871__1293__16-49-40-166.txt Node

Date: Fri Mar 08 16:49:40 CST 2024
User: pe5414po
Spectrometer: FLMS00987
Trigger mode: 0
Integration Time (sec): 1.000000E-1
Scans to average: 1
Electric dark correction enabled: true
Nonlinearity correction enabled: false
Boxcar width: 0
XAxis mode: Wavelengths
Number of Pixels in Spectrum: 2048
>>>>>Begin Spectral Data<<<<<
188.938	-28.82
189.409	-28.82
189.879	-28.82
190.349	-96.69
190.819	-106.06
191.29	-129.46
191.76	-84.99
192.23	-122.44
192.7	-131.8
193.17	-84.99
193.64	-12.43
194.109	-59.24
194.579	10.97
195.049	10.97
195.519	25.01
195.988	8.63
196.458	88.21
196.927	48.42
197.397	99.91
197.866	158.43
198.336	174.81
198.805	195.87
199.274	137.36
199.744	125.66
200.213	118.64
200.682	172.47
201.151	254.39
201.62	256.73
202.089	266.09
202.558	266.09
203.027	289.5
203.495	263.75
203.964	266.09
204.433	247.37
204.902	252.05
205.37	287.15
205.839	329.28
206.307	298.86
206.776	284.81
207.244	333.97
207.712	331.62
208.181	324.6
208.649	287.15
209.117	294.18
209.585	256.73
210.053	326.94
210.521	369.07
210.989	317.58
211.457	294.18
211.925	289.5
212.393	263.75
212.861	340.99
213.328	287.15
213.796	322.26
214.264	254.39
214.731	305.88
215.199	242.68
215.666	280.13
216.133	275.45
216.601	254.39
217.068	289.5
217.535	315.24
218.003	352.69
218.47	317.58
218.937	235.66
219.404	301.2
219.871	317.58
220.338	256.73
220.805	291.84
221.271	305.88
221.738	277.79
222.205	249.71
222.671	261.41
223.138	282.47
223.605	369.07
224.071	238
224.538	266.09
225.004	310.56
225.47	249.71
225.937	252.05
226.403	355.03
226.869	242.68
227.335	376.09
227.801	308.22
228.267	249.71
228.733	310.56
229.199	249.71
229.665	287.15
230.131	216.94
230.597	312.9
231.062	319.92
231.528	331.62
231.994	252.05
232.459	221.62
232.925	238
233.39	277.79
233.856	317.58
234.321	249.71
234.786	284.81
235.252	284.81
235.717	242.68
236.182	268.43
236.647	289.5
237.112	247.37
237.577	317.58
238.042	282.47
238.507	284.81
238.972	291.84
239.436	256.73
239.901	348.01
240.366	273.11
240.83	364.39
241.295	305.88
241.76	247.37
242.224	305.88
242.688	277.79
243.153	273.11
243.617	266.09
244.081	247.37
244.545	252.05
245.01	195.87
245.474	259.07
245.938	312.9
246.402	205.24
246.866	230.98
247.33	221.62
247.793	303.54
248.257	336.31
248.721	310.56
249.185	261.41
249.648	266.09
250.112	247.37
250.575	291.84
251.039	296.52
251.502	240.34
251.965	238
252.429	247.37
252.892	319.92
253.355	275.45
253.818	308.22
254.281	298.86
254.744	242.68
255.207	305.88
255.67	289.5
256.133	305.88
256.596	291.84
257.059	254.39
257.522	261.41
257.984	287.15
258.447	331.62
258.909	371.41
259.372	277.79
259.834	296.52
260.297	312.9
260.759	261.41
261.221	298.86
261.684	298.86
262.146	303.54
262.608	270.77
263.07	268.43
263.532	245.02
263.994	296.52
264.456	298.86
264.918	333.97
265.38	369.07
265.842	301.2
266.303	275.45
266.765	343.33
267.227	336.31
267.688	312.9
268.15	296.52
268.611	322.26
269.072	275.45
269.534	404.18
269.995	308.22
270.456	355.03
270.918	331.62
271.379	266.09
271.84	333.97
272.301	343.33
272.762	263.75
273.223	247.37
273.684	284.81
274.144	256.73
274.605	294.18
275.066	249.71
275.527	289.5
275.987	261.41
276.448	326.94
276.908	364.39
277.369	289.5
277.829	348.01
278.289	282.47
278.75	287.15
279.21	273.11
279.67	296.52
280.13	259.07
280.59	362.05
281.05	322.26
281.51	296.52
281.97	331.62
282.43	336.31
282.89	294.18
283.35	280.13
283.809	364.39
284.269	322.26
284.729	273.11
285.188	261.41
285.648	315.24
286.107	343.33
286.567	266.09
287.026	310.56
287.485	245.02
287.944	317.58
288.404	252.05
288.863	312.9
289.322	273.11
289.781	277.79
290.24	310.56
290.699	240.34
291.158	298.86
291.616	338.65
292.075	355.03
292.534	380.78
292.992	317.58
293.451	296.52
293.91	366.73
294.368	348.01
294.827	401.84
295.285	319.92
295.743	280.13
296.202	408.86
296.66	296.52
297.118	296.52
297.576	305.88
298.034	305.88
298.492	289.5
298.95	294.18
299.408	364.39
299.866	303.54
300.324	266.09
300.781	259.07
301.239	350.35
301.697	310.56
302.154	312.9
302.612	247.37
303.069	308.22
303.527	312.9
303.984	324.6
304.441	336.31
304.899	303.54
305.356	291.84
305.813	205.24
306.27	312.9
306.727	249.71
307.184	275.45
307.641	301.2
308.098	366.73
308.555	284.81
309.012	317.58
309.468	331.62
309.925	371.41
310.382	348.01
310.838	322.26
311.295	319.92
311.751	275.45
312.208	270.77
312.664	282.47
313.12	280.13
313.577	329.28
314.033	336.31
314.489	291.84
314.945	282.47
315.401	277.79
315.857	338.65
316.313	301.2
316.769	305.88
317.225	305.88
317.681	303.54
318.136	343.33
318.592	319.92
319.048	317.58
319.503	275.45
319.959	317.58
320.414	261.41
320.869	338.65
321.325	287.15
321.78	294.18
322.235	333.97
322.691	366.73
323.146	287.15
323.601	308.22
324.056	308.22
324.511	270.77
324.966	254.39
325.421	350.35
325.875	301.2
326.33	310.56
326.785	301.2
327.24	333.97
327.694	275.45
328.149	348.01
328.603	324.6
329.058	315.24
329.512	345.67
329.966	270.77
330.421	338.65
330.875	266.09
331.329	256.73
331.783	333.97
332.237	390.14
332.691	287.15
333.145	336.31
333.599	369.07
334.053	289.5
334.507	350.35
334.96	345.67
335.414	315.24
335.868	326.94
336.321	282.47
336.775	303.54
337.228	352.69
337.682	322.26
338.135	301.2
338.588	273.11
339.042	298.86
339.495	317.58
339.948	378.44
340.401	324.6
340.854	315.24
341.307	315.24
341.76	277.79
342.213	270.77
342.666	317.58
343.119	312.9
343.571	289.5
344.024	331.62
344.477	259.07
344.929	268.43
345.382	322.26
345.834	305.88
346.287	326.94
346.739	280.13
347.191	331.62
347.644	294.18
348.096	340.99
348.548	324.6
349	287.15
349.452	298.86
349.904	284.81
350.356	331.62
350.808	331.62
351.26	308.22
351.711	348.01
352.163	350.35
352.615	340.99
353.066	317.58
353.518	319.92
353.969	315.24
354.421	308.22
354.872	312.9
355.324	310.56
355.775	338.65
356.226	322.26
356.677	362.05
357.128	317.58
357.579	343.33
358.03	324.6
358.481	326.94
358.932	326.94
359.383	343.33
359.834	298.86
360.285	270.77
360.735	315.24
361.186	268.43
361.637	331.62
362.087	338.65
362.538	371.41
362.988	298.86
363.438	322.26
363.889	345.67
364.339	319.92
364.789	322.26
365.239	333.97
365.689	261.41
366.139	319.92
366.589	362.05
367.039	298.86
367.489	317.58
367.939	301.2
368.389	376.09
368.839	312.9
369.288	291.84
369.738	348.01
370.187	310.56
370.637	319.92
371.086	294.18
371.536	305.88
371.985	296.52
372.434	319.92
372.884	352.69
373.333	331.62
373.782	312.9
374.231	373.75
374.68	329.28
375.129	350.35
375.578	298.86
376.027	340.99
376.475	310.56
376.924	291.84
377.373	345.67
377.822	287.15
378.27	392.48
378.719	277.79
379.167	348.01
379.616	273.11
380.064	312.9
380.512	310.56
380.961	322.26
381.409	305.88
381.857	333.97
382.305	387.8
382.753	348.01
383.201	308.22
383.649	294.18
384.097	312.9
384.545	331.62
384.992	357.37
385.44	291.84
385.888	275.45
386.335	340.99
386.783	298.86
387.231	333.97
387.678	296.52
388.125	289.5
388.573	284.81
389.02	268.43
389.467	373.75
389.914	317.58
390.362	310.56
390.809	275.45
391.256	364.39
391.703	324.6
392.15	357.37
392.596	362.05
393.043	303.54
393.49	273.11
393.937	256.73
394.383	324.6
394.83	266.09
395.276	359.71
395.723	338.65
396.169	312.9
396.616	364.39
397.062	326.94
397.508	317.58
397.954	338.65
398.401	317.58
398.847	310.56
399.293	366.73
399.739	352.69
400.185	277.79
400.631	343.33
401.076	338.65
401.522	315.24
401.968	322.26
402.414	322.26
402.859	298.86
403.305	282.47
403.75	289.5
404.196	280.13
404.641	350.35
405.086	366.73
405.532	277.79
405.977	357.37
406.422	296.52
406.867	355.03
407.312	305.88
407.757	317.58
408.202	319.92
408.647	326.94
409.092	338.65
409.537	359.71
409.982	305.88
410.426	305.88
410.871	324.6
411.316	338.65
411.76	364.39
412.205	312.9
412.649	322.26
413.093	378.44
413.538	352.69
413.982	366.73
414.426	303.54
414.87	336.31
415.314	312.9
415.758	247.37
416.202	390.14
416.646	340.99
417.09	333.97
417.534	406.52
417.978	280.13
418.421	434.61
418.865	336.31
419.309	284.81
419.752	350.35
420.196	315.24
420.639	336.31
421.083	315.24
421.526	284.81
421.969	317.58
422.412	256.73
422.856	315.24
423.299	326.94
423.742	350.35
424.185	385.46
424.628	331.62
425.071	312.9
425.513	366.73
425.956	350.35
426.399	385.46
426.842	298.86
427.284	308.22
427.727	315.24
428.169	336.31
428.612	268.43
429.054	315.24
429.497	291.84
429.939	331.62
430.381	305.88
430.823	336.31
431.265	336.31
431.707	291.84
432.149	336.31
432.591	308.22
433.033	348.01
433.475	263.75
433.917	324.6
434.359	352.69
434.8	319.92
435.242	385.46
435.684	301.2
436.125	397.16
436.567	364.39
437.008	352.69
437.449	371.41
437.891	366.73
438.332	266.09
438.773	338.65
439.214	280.13
439.656	336.31
440.097	301.2
440.538	280.13
440.978	315.24
441.419	305.88
441.86	310.56
442.301	338.65
442.742	319.92
443.182	317.58
443.623	378.44
444.063	268.43
444.504	282.47
444.944	352.69
445.385	352.69
445.825	322.26
446.265	280.13
446.706	296.52
447.146	373.75
447.586	345.67
448.026	298.86
448.466	333.97
448.906	345.67
449.346	315.24
449.786	263.75
450.225	366.73
450.665	322.26
451.105	305.88
451.544	326.94
451.984	305.88
452.424	296.52
452.863	261.41
453.302	369.07
453.742	296.52
454.181	308.22
454.62	289.5
455.059	273.11
455.499	312.9
455.938	350.35
456.377	366.73
456.816	343.33
457.254	376.09
457.693	284.81
458.132	312.9
458.571	310.56
459.01	322.26
459.448	315.24
459.887	336.31
460.325	355.03
460.764	324.6
461.202	326.94
461.641	298.86
462.079	273.11
462.517	348.01
462.955	336.31
463.393	301.2
463.832	291.84
464.27	296.52
464.708	249.71
465.145	324.6
465.583	315.24
466.021	329.28
466.459	355.03
466.897	397.16
467.334	340.99
467.772	355.03
468.209	291.84
468.647	385.46
469.084	308.22
469.522	373.75
469.959	296.52
470.396	310.56
470.833	357.37
471.271	376.09
471.708	315.24
472.145	308.22
472.582	338.65
473.019	310.56
473.456	338.65
473.892	256.73
474.329	296.52
474.766	362.05
475.202	348.01
475.639	333.97
476.076	340.99
476.512	336.31
476.949	322.26
477.385	310.56
477.821	340.99
478.258	266.09
478.694	329.28
479.13	317.58
479.566	287.15
480.002	280.13
480.438	298.86
480.874	268.43
481.31	287.15
481.746	355.03
482.181	301.2
482.617	315.24
483.053	355.03
483.488	340.99
483.924	371.41
484.36	277.79
484.795	359.71
485.23	357.37
485.666	317.58
486.101	298.86
486.536	336.31
486.971	331.62
487.407	305.88
487.842	282.47
488.277	301.2
488.712	371.41
489.146	289.5
489.581	392.48
490.016	338.65
490.451	338.65
490.885	312.9
491.32	338.65
491.755	249.71
492.189	338.65
492.624	263.75
493.058	331.62
493.492	338.65
493.927	312.9
494.361	310.56
494.795	296.52
495.229	284.81
495.663	362.05
496.097	289.5
496.531	305.88
496.965	294.18
497.399	364.39
497.833	350.35
498.266	319.92
498.7	298.86
499.134	355.03
499.567	324.6
500.001	308.22
500.434	287.15
500.868	385.46
501.301	352.69
501.734	275.45
502.168	376.09
502.601	373.75
503.034	319.92
503.467	378.44
503.9	322.26
504.333	324.6
504.766	357.37
505.199	343.33
505.632	312.9
506.064	392.48
506.497	308.22
506.93	319.92
507.362	392.48
507.795	312.9
508.227	348.01
508.66	315.24
509.092	296.52
509.524	301.2
509.956	322.26
510.389	343.33
510.821	312.9
511.253	411.2
511.685	273.11
512.117	266.09
512.549	350.35
512.981	359.71
513.412	333.97
513.844	343.33
514.276	294.18
514.707	383.12
515.139	308.22
515.571	336.31
516.002	303.54
516.433	350.35
516.865	329.28
517.296	324.6
517.727	329.28
518.159	359.71
518.59	336.31
519.021	310.56
519.452	336.31
519.883	376.09
520.314	322.26
520.744	315.24
521.175	333.97
521.606	282.47
522.037	324.6
522.467	331.62
522.898	401.84
523.328	298.86
523.759	338.65
524.189	303.54
524.62	294.18
525.05	343.33
525.48	315.24
525.91	333.97
526.341	233.32
526.771	308.22
527.201	294.18
527.631	359.71
528.061	303.54
528.49	329.28
528.92	315.24
529.35	252.05
529.78	284.81
530.209	266.09
530.639	371.41
531.068	378.44
531.498	348.01
531.927	336.31
532.357	364.39
532.786	322.26
533.215	350.35
533.644	305.88
534.074	371.41
534.503	352.69
534.932	298.86
535.361	355.03
535.79	340.99
536.218	266.09
536.647	298.86
537.076	287.15
537.505	390.14
537.933	350.35
538.362	364.39
538.79	305.88
539.219	303.54
539.647	326.94
540.076	331.62
540.504	348.01
540.932	340.99
541.36	322.26
541.788	315.24
542.217	294.18
542.645	315.24
543.073	340.99
543.5	326.94
543.928	401.84
544.356	340.99
544.784	340.99
545.211	298.86
545.639	333.97
546.067	348.01
546.494	308.22
546.922	270.77
547.349	240.34
547.776	303.54
548.204	319.92
548.631	348.01
549.058	329.28
549.485	326.94
549.912	340.99
550.339	333.97
550.766	366.73
551.193	343.33
551.62	338.65
552.047	373.75
552.474	270.77
552.9	352.69
553.327	359.71
553.754	348.01
554.18	324.6
554.607	310.56
555.033	317.58
555.459	397.16
555.886	329.28
556.312	415.88
556.738	343.33
557.164	287.15
557.59	308.22
558.016	259.07
558.442	312.9
558.868	383.12
559.294	350.35
559.72	343.33
560.145	298.86
560.571	289.5
560.997	277.79
561.422	298.86
561.848	294.18
562.273	343.33
562.699	315.24
563.124	345.67
563.549	357.37
563.974	294.18
564.4	355.03
564.825	345.67
565.25	376.09
565.675	333.97
566.1	317.58
566.525	333.97
566.95	315.24
567.374	273.11
567.799	270.77
568.224	385.46
568.648	326.94
569.073	317.58
569.497	310.56
569.922	287.15
570.346	301.2
570.771	376.09
571.195	343.33
571.619	348.01
572.043	275.45
572.467	343.33
572.891	362.05
573.315	373.75
573.739	338.65
574.163	289.5
574.587	369.07
575.011	303.54
575.435	338.65
575.858	324.6
576.282	310.56
576.705	345.67
577.129	331.62
577.552	352.69
577.976	392.48
578.399	310.56
578.822	310.56
579.245	331.62
579.669	364.39
580.092	348.01
580.515	348.01
580.938	282.47
581.361	294.18
581.784	310.56
582.206	287.15
582.629	362.05
583.052	324.6
583.474	340.99
583.897	418.22
584.32	369.07
584.742	355.03
585.165	326.94
585.587	303.54
586.009	336.31
586.431	317.58
586.854	324.6
587.276	310.56
587.698	312.9
588.12	324.6
588.542	305.88
588.964	308.22
589.386	319.92
589.807	303.54
590.229	383.12
590.651	303.54
591.073	329.28
591.494	305.88
591.916	326.94
592.337	324.6
592.759	373.75
593.18	366.73
593.601	270.77
594.022	305.88
594.444	331.62
594.865	385.46
595.286	301.2
595.707	291.84
596.128	401.84
596.549	336.31
596.97	343.33
597.39	301.2
597.811	352.69
598.232	249.71
598.652	324.6
599.073	392.48
599.494	348.01
599.914	378.44
600.334	303.54
600.755	359.71
601.175	352.69
601.595	343.33
602.015	312.9
602.436	317.58
602.856	509.51
603.276	369.07
603.696	340.99
604.115	298.86
604.535	315.24
604.955	331.62
605.375	289.5
605.794	298.86
606.214	249.71
606.634	326.94
607.053	275.45
607.473	235.66
607.892	315.24
608.311	284.81
608.731	352.69
609.15	326.94
609.569	305.88
609.988	359.71
610.407	289.5
610.826	308.22
611.245	263.75
611.664	340.99
612.083	326.94
612.501	319.92
612.92	352.69
613.339	333.97
613.757	383.12
614.176	301.2
614.594	273.11
615.013	369.07
615.431	289.5
615.85	338.65
616.268	343.33
616.686	362.05
617.104	350.35
617.522	357.37
617.94	352.69
618.358	312.9
618.776	289.5
619.194	364.39
619.612	319.92
620.03	294.18
620.447	322.26
620.865	362.05
621.282	273.11
621.7	338.65
622.117	345.67
622.535	331.62
622.952	317.58
623.369	343.33
623.787	296.52
624.204	352.69
624.621	364.39
625.038	319.92
625.455	326.94
625.872	340.99
626.289	378.44
626.706	315.24
627.123	329.28
627.539	319.92
627.956	317.58
628.373	284.81
628.789	322.26
629.206	343.33
629.622	324.6
630.038	287.15
630.455	322.26
630.871	340.99
631.287	378.44
631.703	340.99
632.12	326.94
632.536	340.99
632.952	345.67
633.368	303.54
633.783	369.07
634.199	343.33
634.615	331.62
635.031	333.97
635.446	350.35
635.862	322.26
636.277	331.62
636.693	322.26
637.108	312.9
637.524	350.35
637.939	294.18
638.354	350.35
638.77	289.5
639.185	383.12
639.6	252.05
640.015	336.31
640.43	326.94
640.845	301.2
641.259	296.52
641.674	338.65
642.089	333.97
642.504	362.05
642.918	348.01
643.333	275.45
643.747	348.01
644.162	298.86
644.576	298.86
644.991	310.56
645.405	326.94
645.819	263.75
646.233	310.56
646.647	366.73
647.061	319.92
647.475	357.37
647.889	305.88
648.303	277.79
648.717	296.52
649.131	310.56
649.545	319.92
649.958	345.67
650.372	312.9
650.785	326.94
651.199	315.24
651.612	329.28
652.026	291.84
652.439	289.5
652.852	324.6
653.266	326.94
653.679	268.43
654.092	338.65
654.505	319.92
654.918	345.67
655.331	385.46
655.744	345.67
656.156	282.47
656.569	254.39
656.982	305.88
657.394	296.52
657.807	333.97
658.22	362.05
658.632	343.33
659.044	266.09
659.457	275.45
659.869	326.94
660.281	350.35
660.693	322.26
661.106	336.31
661.518	266.09
661.93	249.71
662.342	326.94
662.754	322.26
663.165	324.6
663.577	317.58
663.989	331.62
664.401	366.73
664.812	364.39
665.224	289.5
665.635	338.65
666.047	322.26
666.458	371.41
666.869	352.69
667.281	291.84
667.692	310.56
668.103	270.77
668.514	298.86
668.925	322.26
669.336	348.01
669.747	254.39
670.158	273.11
670.569	348.01
670.979	355.03
671.39	329.28
671.801	348.01
672.211	385.46
672.622	385.46
673.032	394.82
673.443	287.15
673.853	301.2
674.263	380.78
674.674	329.28
675.084	305.88
675.494	331.62
675.904	324.6
676.314	331.62
676.724	287.15
677.134	275.45
677.544	298.86
677.953	294.18
678.363	411.2
678.773	355.03
679.182	340.99
679.592	263.75
680.001	298.86
680.411	338.65
680.82	310.56
681.23	392.48
681.639	376.09
682.048	291.84
682.457	305.88
682.866	310.56
683.275	315.24
683.684	315.24
684.093	371.41
684.502	345.67
684.911	296.52
685.32	355.03
685.728	373.75
686.137	355.03
686.546	315.24
686.954	317.58
687.363	352.69
687.771	413.54
688.179	319.92
688.588	280.13
688.996	310.56
689.404	312.9
689.812	310.56
690.22	376.09
690.628	319.92
691.036	310.56
691.444	322.26
691.852	348.01
692.26	324.6
692.667	319.92
693.075	277.79
693.483	322.26
693.89	329.28
694.298	340.99
694.705	254.39
695.112	369.07
695.52	312.9
695.927	319.92
696.334	369.07
696.741	324.6
697.148	373.75
697.555	284.81
697.962	385.46
698.369	228.64
698.776	326.94
699.183	301.2
699.59	331.62
699.996	385.46
700.403	294.18
700.81	348.01
701.216	287.15
701.623	322.26
702.029	221.62
702.435	345.67
702.842	366.73
703.248	336.31
703.654	294.18
704.06	387.8
704.466	282.47
704.872	310.56
705.278	422.91
705.684	317.58
706.09	280.13
706.496	319.92
706.901	352.69
707.307	315.24
707.712	343.33
708.118	291.84
708.523	329.28
708.929	289.5
709.334	369.07
709.74	312.9
710.145	315.24
710.55	310.56
710.955	296.52
711.36	312.9
711.765	284.81
712.17	387.8
712.575	277.79
712.98	940.16
713.385	326.94
713.789	303.54
714.194	266.09
714.599	289.5
715.003	326.94
715.408	291.84
715.812	303.54
716.217	340.99
716.621	259.07
717.025	352.69
717.429	343.33
717.833	312.9
718.238	303.54
718.642	303.54
719.046	350.35
719.449	322.26
719.853	280.13
720.257	392.48
720.661	331.62
721.065	317.58
721.468	326.94
721.872	310.56
722.275	315.24
722.679	298.86
723.082	348.01
723.485	357.37
723.889	305.88
724.292	340.99
724.695	315.24
725.098	324.6
725.501	333.97
725.904	280.13
726.307	252.05
726.71	401.84
727.113	345.67
727.516	261.41
727.918	329.28
728.321	282.47
728.724	352.69
729.126	333.97
729.529	357.37
729.931	301.2
730.333	385.46
730.736	340.99
731.138	312.9
731.54	348.01
731.942	348.01
732.344	315.24
732.746	266.09
733.148	303.54
733.55	324.6
733.952	348.01
734.354	336.31
734.756	294.18
735.157	331.62
735.559	247.37
735.96	301.2
736.362	291.84
736.763	308.22
737.165	289.5
737.566	294.18
737.967	352.69
738.368	263.75
738.77	296.52
739.171	324.6
739.572	312.9
739.973	303.54
740.374	319.92
740.774	322.26
741.175	270.77
741.576	275.45
741.977	331.62
742.377	348.01
742.778	275.45
743.178	315.24
743.579	308.22
743.979	331.62
744.379	333.97
744.78	331.62
745.18	378.44
745.58	305.88
745.98	345.67
746.38	294.18
746.78	322.26
747.18	298.86
747.58	317.58
747.98	310.56
748.38	284.81
748.779	298.86
749.179	380.78
749.578	291.84
749.978	324.6
750.377	350.35
750.777	301.2
751.176	270.77
751.575	348.01
751.975	289.5
752.374	326.94
752.773	310.56
753.172	385.46
753.571	343.33
753.97	310.56
754.369	226.3
754.768	212.26
755.166	301.2
755.565	345.67
755.964	310.56
756.362	380.78
756.761	294.18
757.159	296.52
757.558	348.01
757.956	315.24
758.354	331.62
758.753	312.9
759.151	326.94
759.549	338.65
759.947	294.18
760.345	340.99
760.743	308.22
761.141	338.65
761.539	301.2
761.936	289.5
762.334	294.18
762.732	319.92
763.129	263.75
763.527	301.2
763.924	329.28
764.322	308.22
764.719	343.33
765.117	305.88
765.514	287.15
