Data from Al_FLMS009871__1296__16-49-40-466.txt Node

Date: Fri Mar 08 16:49:40 CST 2024
User: pe5414po
Spectrometer: FLMS00987
Trigger mode: 0
Integration Time (sec): 1.000000E-1
Scans to average: 1
Electric dark correction enabled: true
Nonlinearity correction enabled: false
Boxcar width: 0
XAxis mode: Wavelengths
Number of Pixels in Spectrum: 2048
>>>>>Begin Spectral Data<<<<<
188.938	-27.79
189.409	-27.79
189.879	-27.79
190.349	-163.54
190.819	-65.24
191.29	-112.05
191.76	-116.73
192.23	-51.2
192.7	-81.63
193.17	-98.01
193.64	-18.43
194.109	-44.18
194.579	-2.05
195.049	33.06
195.519	7.31
195.988	33.06
196.458	65.83
196.927	124.34
197.397	54.12
197.866	124.34
198.336	82.21
198.805	112.64
199.274	159.45
199.744	100.94
200.213	154.77
200.682	171.15
201.151	192.22
201.62	285.84
202.089	278.82
202.558	255.41
203.027	257.75
203.495	316.26
203.964	274.14
204.433	213.28
204.902	332.65
205.37	264.77
205.839	311.58
206.307	267.11
206.776	320.95
207.244	311.58
207.712	267.11
208.181	379.46
208.649	255.41
209.117	327.97
209.585	276.48
210.053	334.99
210.521	236.69
210.989	295.2
211.457	248.39
211.925	316.26
212.393	274.14
212.861	262.43
213.328	260.09
213.796	250.73
214.264	260.09
214.731	267.11
215.199	267.11
215.666	288.18
216.133	255.41
216.601	260.09
217.068	232.01
217.535	222.64
218.003	232.01
218.47	243.71
218.937	250.73
219.404	236.69
219.871	241.37
220.338	264.77
220.805	267.11
221.271	353.71
221.738	248.39
222.205	236.69
222.671	224.98
223.138	199.24
223.605	278.82
224.071	246.05
224.538	299.88
225.004	313.92
225.47	267.11
225.937	250.73
226.403	243.71
226.869	229.67
227.335	222.64
227.801	311.58
228.267	288.18
228.733	299.88
229.199	250.73
229.665	236.69
230.131	290.52
230.597	255.41
231.062	224.98
231.528	241.37
231.994	290.52
232.459	215.62
232.925	196.9
233.39	262.43
233.856	274.14
234.321	229.67
234.786	295.2
235.252	267.11
235.717	327.97
236.182	271.79
236.647	227.32
237.112	232.01
237.577	241.37
238.042	220.3
238.507	257.75
238.972	290.52
239.436	255.41
239.901	283.5
240.366	203.92
240.83	302.22
241.295	276.48
241.76	243.71
242.224	276.48
242.688	278.82
243.153	327.97
243.617	269.45
244.081	304.56
244.545	283.5
245.01	349.03
245.474	299.88
245.938	227.32
246.402	302.22
246.866	253.07
247.33	309.24
247.793	290.52
248.257	262.43
248.721	239.03
249.185	215.62
249.648	234.35
250.112	206.26
250.575	299.88
251.039	278.82
251.502	337.33
251.965	281.16
252.429	253.07
252.892	248.39
253.355	278.82
253.818	229.67
254.281	295.2
254.744	248.39
255.207	311.58
255.67	208.6
256.133	297.54
256.596	288.18
257.059	288.18
257.522	304.56
257.984	332.65
258.447	269.45
258.909	283.5
259.372	353.71
259.834	306.9
260.297	227.32
260.759	316.26
261.221	262.43
261.684	278.82
262.146	325.63
262.608	253.07
263.07	330.31
263.532	262.43
263.994	283.5
264.456	344.35
264.918	267.11
265.38	318.61
265.842	374.78
266.303	276.48
266.765	292.86
267.227	320.95
267.688	257.75
268.15	229.67
268.611	297.54
269.072	281.16
269.534	304.56
269.995	269.45
270.456	306.9
270.918	269.45
271.379	253.07
271.84	255.41
272.301	260.09
272.762	344.35
273.223	274.14
273.684	290.52
274.144	257.75
274.605	283.5
275.066	189.88
275.527	276.48
275.987	271.79
276.448	269.45
276.908	276.48
277.369	295.2
277.829	260.09
278.289	281.16
278.75	311.58
279.21	255.41
279.67	306.9
280.13	278.82
280.59	271.79
281.05	285.84
281.51	356.05
281.97	292.86
282.43	260.09
282.89	262.43
283.35	306.9
283.809	309.24
284.269	276.48
284.729	278.82
285.188	304.56
285.648	325.63
286.107	239.03
286.567	320.95
287.026	344.35
287.485	264.77
287.944	269.45
288.404	255.41
288.863	309.24
289.322	283.5
289.781	299.88
290.24	349.03
290.699	342.01
291.158	323.29
291.616	290.52
292.075	313.92
292.534	313.92
292.992	232.01
293.451	311.58
293.91	299.88
294.368	292.86
294.827	325.63
295.285	302.22
295.743	304.56
296.202	379.46
296.66	327.97
297.118	306.9
297.576	290.52
298.034	255.41
298.492	227.32
298.95	276.48
299.408	274.14
299.866	267.11
300.324	285.84
300.781	318.61
301.239	320.95
301.697	229.67
302.154	297.54
302.612	222.64
303.069	290.52
303.527	234.35
303.984	302.22
304.441	330.31
304.899	330.31
305.356	313.92
305.813	290.52
306.27	304.56
306.727	304.56
307.184	304.56
307.641	311.58
308.098	276.48
308.555	292.86
309.012	302.22
309.468	278.82
309.925	281.16
310.382	325.63
310.838	276.48
311.295	318.61
311.751	288.18
312.208	281.16
312.664	217.96
313.12	264.77
313.577	299.88
314.033	330.31
314.489	351.37
314.945	304.56
315.401	327.97
315.857	342.01
316.313	309.24
316.769	372.44
317.225	339.67
317.681	290.52
318.136	241.37
318.592	262.43
319.048	288.18
319.503	379.46
319.959	276.48
320.414	320.95
320.869	267.11
321.325	372.44
321.78	325.63
322.235	283.5
322.691	239.03
323.146	320.95
323.601	306.9
324.056	316.26
324.511	290.52
324.966	274.14
325.421	323.29
325.875	278.82
326.33	283.5
326.785	290.52
327.24	290.52
327.694	297.54
328.149	269.45
328.603	304.56
329.058	224.98
329.512	313.92
329.966	264.77
330.421	264.77
330.875	334.99
331.329	313.92
331.783	311.58
332.237	318.61
332.691	313.92
333.145	302.22
333.599	283.5
334.053	285.84
334.507	304.56
334.96	377.12
335.414	313.92
335.868	318.61
336.321	288.18
336.775	264.77
337.228	262.43
337.682	330.31
338.135	309.24
338.588	302.22
339.042	281.16
339.495	332.65
339.948	281.16
340.401	276.48
340.854	332.65
341.307	309.24
341.76	269.45
342.213	309.24
342.666	288.18
343.119	260.09
343.571	239.03
344.024	316.26
344.477	290.52
344.929	241.37
345.382	297.54
345.834	292.86
346.287	311.58
346.739	290.52
347.191	353.71
347.644	292.86
348.096	370.1
348.548	323.29
349	295.2
349.452	311.58
349.904	248.39
350.356	274.14
350.808	278.82
351.26	297.54
351.711	285.84
352.163	339.67
352.615	309.24
353.066	381.8
353.518	339.67
353.969	288.18
354.421	262.43
354.872	267.11
355.324	250.73
355.775	276.48
356.226	349.03
356.677	253.07
357.128	311.58
357.579	306.9
358.03	311.58
358.481	276.48
358.932	290.52
359.383	271.79
359.834	278.82
360.285	281.16
360.735	339.67
361.186	313.92
361.637	262.43
362.087	283.5
362.538	309.24
362.988	295.2
363.438	316.26
363.889	243.71
364.339	224.98
364.789	318.61
365.239	260.09
365.689	302.22
366.139	365.42
366.589	271.79
367.039	290.52
367.489	236.69
367.939	313.92
368.389	337.33
368.839	290.52
369.288	229.67
369.738	285.84
370.187	222.64
370.637	239.03
371.086	351.37
371.536	306.9
371.985	316.26
372.434	302.22
372.884	292.86
373.333	274.14
373.782	250.73
374.231	320.95
374.68	299.88
375.129	262.43
375.578	267.11
376.027	250.73
376.475	309.24
376.924	248.39
377.373	295.2
377.822	358.39
378.27	297.54
378.719	342.01
379.167	325.63
379.616	311.58
380.064	309.24
380.512	325.63
380.961	306.9
381.409	232.01
381.857	304.56
382.305	309.24
382.753	283.5
383.201	302.22
383.649	320.95
384.097	316.26
384.545	304.56
384.992	356.05
385.44	281.16
385.888	337.33
386.335	297.54
386.783	288.18
387.231	295.2
387.678	313.92
388.125	351.37
388.573	306.9
389.02	302.22
389.467	311.58
389.914	339.67
390.362	316.26
390.809	302.22
391.256	393.5
391.703	304.56
392.15	356.05
392.596	311.58
393.043	281.16
393.49	267.11
393.937	283.5
394.383	224.98
394.83	313.92
395.276	346.69
395.723	264.77
396.169	253.07
396.616	290.52
397.062	264.77
397.508	323.29
397.954	267.11
398.401	248.39
398.847	318.61
399.293	327.97
399.739	423.93
400.185	302.22
400.631	288.18
401.076	313.92
401.522	276.48
401.968	323.29
402.414	276.48
402.859	320.95
403.305	302.22
403.75	344.35
404.196	269.45
404.641	297.54
405.086	313.92
405.532	276.48
405.977	292.86
406.422	353.71
406.867	334.99
407.312	264.77
407.757	367.76
408.202	215.62
408.647	320.95
409.092	292.86
409.537	309.24
409.982	276.48
410.426	224.98
410.871	327.97
411.316	318.61
411.76	257.75
412.205	334.99
412.649	281.16
413.093	253.07
413.538	379.46
413.982	339.67
414.426	292.86
414.87	285.84
415.314	295.2
415.758	302.22
416.202	313.92
416.646	267.11
417.09	250.73
417.534	292.86
417.978	271.79
418.421	260.09
418.865	316.26
419.309	325.63
419.752	253.07
420.196	332.65
420.639	297.54
421.083	274.14
421.526	274.14
421.969	215.62
422.412	250.73
422.856	264.77
423.299	276.48
423.742	332.65
424.185	285.84
424.628	344.35
425.071	402.86
425.513	325.63
425.956	334.99
426.399	316.26
426.842	274.14
427.284	356.05
427.727	246.05
428.169	297.54
428.612	339.67
429.054	309.24
429.497	327.97
429.939	304.56
430.381	316.26
430.823	285.84
431.265	346.69
431.707	346.69
432.149	311.58
432.591	316.26
433.033	358.39
433.475	248.39
433.917	243.71
434.359	304.56
434.8	330.31
435.242	285.84
435.684	391.16
436.125	299.88
436.567	339.67
437.008	318.61
437.449	283.5
437.891	320.95
438.332	267.11
438.773	276.48
439.214	262.43
439.656	327.97
440.097	309.24
440.538	274.14
440.978	320.95
441.419	290.52
441.86	281.16
442.301	290.52
442.742	239.03
443.182	337.33
443.623	356.05
444.063	327.97
444.504	281.16
444.944	217.96
445.385	248.39
445.825	210.94
446.265	290.52
446.706	262.43
447.146	285.84
447.586	325.63
448.026	339.67
448.466	299.88
448.906	276.48
449.346	339.67
449.786	311.58
450.225	351.37
450.665	313.92
451.105	297.54
451.544	351.37
451.984	342.01
452.424	349.03
452.863	325.63
453.302	306.9
453.742	283.5
454.181	334.99
454.62	332.65
455.059	330.31
455.499	264.77
455.938	304.56
456.377	292.86
456.816	334.99
457.254	309.24
457.693	332.65
458.132	255.41
458.571	323.29
459.01	316.26
459.448	276.48
459.887	260.09
460.325	346.69
460.764	320.95
461.202	278.82
461.641	297.54
462.079	302.22
462.517	388.82
462.955	276.48
463.393	297.54
463.832	260.09
464.27	267.11
464.708	334.99
465.145	283.5
465.583	353.71
466.021	372.44
466.459	349.03
466.897	292.86
467.334	318.61
467.772	292.86
468.209	274.14
468.647	257.75
469.084	318.61
469.522	304.56
469.959	299.88
470.396	327.97
470.833	306.9
471.271	393.5
471.708	344.35
472.145	332.65
472.582	313.92
473.019	311.58
473.456	295.2
473.892	353.71
474.329	288.18
474.766	311.58
475.202	295.2
475.639	297.54
476.076	334.99
476.512	246.05
476.949	290.52
477.385	344.35
477.821	334.99
478.258	358.39
478.694	276.48
479.13	327.97
479.566	349.03
480.002	269.45
480.438	285.84
480.874	344.35
481.31	309.24
481.746	351.37
482.181	274.14
482.617	320.95
483.053	316.26
483.488	295.2
483.924	274.14
484.36	281.16
484.795	342.01
485.23	297.54
485.666	358.39
486.101	337.33
486.536	290.52
486.971	334.99
487.407	339.67
487.842	304.56
488.277	304.56
488.712	337.33
489.146	297.54
489.581	332.65
490.016	339.67
490.451	311.58
490.885	337.33
491.32	325.63
491.755	320.95
492.189	295.2
492.624	276.48
493.058	309.24
493.492	269.45
493.927	318.61
494.361	306.9
494.795	311.58
495.229	285.84
495.663	349.03
496.097	337.33
496.531	227.32
496.965	313.92
497.399	320.95
497.833	332.65
498.266	342.01
498.7	313.92
499.134	306.9
499.567	304.56
500.001	339.67
500.434	292.86
500.868	330.31
501.301	297.54
501.734	339.67
502.168	285.84
502.601	285.84
503.034	304.56
503.467	349.03
503.9	327.97
504.333	246.05
504.766	302.22
505.199	302.22
505.632	295.2
506.064	356.05
506.497	299.88
506.93	313.92
507.362	290.52
507.795	306.9
508.227	318.61
508.66	295.2
509.092	306.9
509.524	318.61
509.956	311.58
510.389	337.33
510.821	302.22
511.253	316.26
511.685	271.79
512.117	285.84
512.549	402.86
512.981	290.52
513.412	339.67
513.844	365.42
514.276	297.54
514.707	370.1
515.139	290.52
515.571	276.48
516.002	332.65
516.433	278.82
516.865	288.18
517.296	327.97
517.727	292.86
518.159	349.03
518.59	288.18
519.021	241.37
519.452	337.33
519.883	337.33
520.314	332.65
520.744	274.14
521.175	353.71
521.606	253.07
522.037	365.42
522.467	344.35
522.898	309.24
523.328	288.18
523.759	309.24
524.189	318.61
524.62	344.35
525.05	285.84
525.48	306.9
525.91	290.52
526.341	304.56
526.771	302.22
527.201	236.69
527.631	302.22
528.061	299.88
528.49	339.67
528.92	285.84
529.35	299.88
529.78	342.01
530.209	370.1
530.639	262.43
531.068	227.32
531.498	313.92
531.927	334.99
532.357	297.54
532.786	356.05
533.215	299.88
533.644	260.09
534.074	363.08
534.503	367.76
534.932	299.88
535.361	290.52
535.79	316.26
536.218	292.86
536.647	285.84
537.076	290.52
537.505	332.65
537.933	381.8
538.362	318.61
538.79	269.45
539.219	299.88
539.647	325.63
540.076	344.35
540.504	356.05
540.932	325.63
541.36	290.52
541.788	292.86
542.217	320.95
542.645	243.71
543.073	306.9
543.5	356.05
543.928	342.01
544.356	346.69
544.784	290.52
545.211	264.77
545.639	285.84
546.067	339.67
546.494	318.61
546.922	356.05
547.349	342.01
547.776	316.26
548.204	304.56
548.631	290.52
549.058	327.97
549.485	297.54
549.912	241.37
550.339	250.73
550.766	318.61
551.193	267.11
551.62	255.41
552.047	250.73
552.474	330.31
552.9	304.56
553.327	358.39
553.754	290.52
554.18	353.71
554.607	318.61
555.033	292.86
555.459	313.92
555.886	323.29
556.312	358.39
556.738	234.35
557.164	346.69
557.59	330.31
558.016	311.58
558.442	337.33
558.868	323.29
559.294	318.61
559.72	271.79
560.145	346.69
560.571	304.56
560.997	264.77
561.422	346.69
561.848	299.88
562.273	281.16
562.699	330.31
563.124	267.11
563.549	351.37
563.974	370.1
564.4	295.2
564.825	332.65
565.25	302.22
565.675	297.54
566.1	320.95
566.525	330.31
566.95	269.45
567.374	276.48
567.799	297.54
568.224	309.24
568.648	332.65
569.073	203.92
569.497	264.77
569.922	339.67
570.346	295.2
570.771	288.18
571.195	255.41
571.619	276.48
572.043	313.92
572.467	386.48
572.891	320.95
573.315	281.16
573.739	297.54
574.163	325.63
574.587	318.61
575.011	295.2
575.435	262.43
575.858	288.18
576.282	344.35
576.705	346.69
577.129	292.86
577.552	281.16
577.976	288.18
578.399	400.52
578.822	332.65
579.245	271.79
579.669	295.2
580.092	311.58
580.515	306.9
580.938	316.26
581.361	295.2
581.784	344.35
582.206	318.61
582.629	320.95
583.052	217.96
583.474	274.14
583.897	363.08
584.32	323.29
584.742	346.69
585.165	271.79
585.587	313.92
586.009	241.37
586.431	302.22
586.854	327.97
587.276	365.42
587.698	339.67
588.12	349.03
588.542	299.88
588.964	323.29
589.386	356.05
589.807	384.14
590.229	332.65
590.651	299.88
591.073	297.54
591.494	318.61
591.916	253.07
592.337	320.95
592.759	323.29
593.18	292.86
593.601	346.69
594.022	313.92
594.444	318.61
594.865	316.26
595.286	309.24
595.707	323.29
596.128	358.39
596.549	290.52
596.97	344.35
597.39	285.84
597.811	260.09
598.232	243.71
598.652	313.92
599.073	278.82
599.494	381.8
599.914	391.16
600.334	365.42
600.755	283.5
601.175	316.26
601.595	283.5
602.015	386.48
602.436	323.29
602.856	435.63
603.276	344.35
603.696	295.2
604.115	384.14
604.535	339.67
604.955	330.31
605.375	292.86
605.794	363.08
606.214	304.56
606.634	281.16
607.053	327.97
607.473	309.24
607.892	316.26
608.311	278.82
608.731	290.52
609.15	332.65
609.569	290.52
609.988	302.22
610.407	232.01
610.826	360.74
611.245	325.63
611.664	332.65
612.083	337.33
612.501	283.5
612.92	325.63
613.339	330.31
613.757	339.67
614.176	309.24
614.594	342.01
615.013	339.67
615.431	299.88
615.85	295.2
616.268	309.24
616.686	292.86
617.104	365.42
617.522	365.42
617.94	288.18
618.358	342.01
618.776	281.16
619.194	257.75
619.612	388.82
620.03	330.31
620.447	330.31
620.865	229.67
621.282	292.86
621.7	311.58
622.117	323.29
622.535	257.75
622.952	278.82
623.369	299.88
623.787	337.33
624.204	325.63
624.621	372.44
625.038	297.54
625.455	267.11
625.872	285.84
626.289	302.22
626.706	316.26
627.123	292.86
627.539	320.95
627.956	316.26
628.373	276.48
628.789	316.26
629.206	351.37
629.622	318.61
630.038	288.18
630.455	344.35
630.871	306.9
631.287	278.82
631.703	253.07
632.12	330.31
632.536	330.31
632.952	339.67
633.368	297.54
633.783	271.79
634.199	262.43
634.615	323.29
635.031	332.65
635.446	264.77
635.862	304.56
636.277	374.78
636.693	334.99
637.108	325.63
637.524	309.24
637.939	292.86
638.354	285.84
638.77	330.31
639.185	363.08
639.6	295.2
640.015	290.52
640.43	288.18
640.845	271.79
641.259	349.03
641.674	292.86
642.089	351.37
642.504	320.95
642.918	295.2
643.333	295.2
643.747	285.84
644.162	302.22
644.576	342.01
644.991	400.52
645.405	311.58
645.819	283.5
646.233	295.2
646.647	278.82
647.061	358.39
647.475	332.65
647.889	276.48
648.303	330.31
648.717	334.99
649.131	304.56
649.545	241.37
649.958	264.77
650.372	332.65
650.785	330.31
651.199	311.58
651.612	316.26
652.026	327.97
652.439	269.45
652.852	281.16
653.266	281.16
653.679	288.18
654.092	276.48
654.505	288.18
654.918	299.88
655.331	313.92
655.744	283.5
656.156	381.8
656.569	381.8
656.982	304.56
657.394	269.45
657.807	304.56
658.22	297.54
658.632	264.77
659.044	302.22
659.457	297.54
659.869	283.5
660.281	306.9
660.693	285.84
661.106	257.75
661.518	283.5
661.93	327.97
662.342	269.45
662.754	278.82
663.165	292.86
663.577	290.52
663.989	262.43
664.401	316.26
664.812	302.22
665.224	337.33
665.635	285.84
666.047	281.16
666.458	269.45
666.869	342.01
667.281	285.84
667.692	377.12
668.103	309.24
668.514	269.45
668.925	278.82
669.336	377.12
669.747	267.11
670.158	271.79
670.569	330.31
670.979	283.5
671.39	285.84
671.801	302.22
672.211	323.29
672.622	327.97
673.032	224.98
673.443	311.58
673.853	276.48
674.263	288.18
674.674	267.11
675.084	360.74
675.494	271.79
675.904	344.35
676.314	302.22
676.724	311.58
677.134	311.58
677.544	295.2
677.953	320.95
678.363	313.92
678.773	379.46
679.182	318.61
679.592	363.08
680.001	281.16
680.411	311.58
680.82	269.45
681.23	309.24
681.639	283.5
682.048	304.56
682.457	234.35
682.866	274.14
683.275	327.97
683.684	356.05
684.093	334.99
684.502	346.69
684.911	285.84
685.32	281.16
685.728	267.11
686.137	339.67
686.546	281.16
686.954	325.63
687.363	356.05
687.771	306.9
688.179	323.29
688.588	313.92
688.996	349.03
689.404	285.84
689.812	316.26
690.22	334.99
690.628	288.18
691.036	313.92
691.444	372.44
691.852	334.99
692.26	339.67
692.667	325.63
693.075	302.22
693.483	353.71
693.89	302.22
694.298	412.23
694.705	311.58
695.112	384.14
695.52	269.45
695.927	342.01
696.334	285.84
696.741	299.88
697.148	295.2
697.555	339.67
697.962	227.32
698.369	344.35
698.776	342.01
699.183	320.95
699.59	304.56
699.996	285.84
700.403	241.37
700.81	334.99
701.216	309.24
701.623	297.54
702.029	302.22
702.435	274.14
702.842	302.22
703.248	267.11
703.654	292.86
704.06	313.92
704.466	281.16
704.872	281.16
705.278	292.86
705.684	271.79
706.09	325.63
706.496	290.52
706.901	323.29
707.307	304.56
707.712	281.16
708.118	363.08
708.523	351.37
708.929	334.99
709.334	292.86
709.74	351.37
710.145	274.14
710.55	250.73
710.955	264.77
711.36	332.65
711.765	227.32
712.17	309.24
712.575	269.45
712.98	983.32
713.385	339.67
713.789	295.2
714.194	309.24
714.599	316.26
715.003	365.42
715.408	267.11
715.812	264.77
716.217	295.2
716.621	297.54
717.025	360.74
717.429	269.45
717.833	290.52
718.238	339.67
718.642	316.26
719.046	292.86
719.449	358.39
719.853	346.69
720.257	365.42
720.661	283.5
721.065	313.92
721.468	388.82
721.872	313.92
722.275	313.92
722.679	360.74
723.082	372.44
723.485	292.86
723.889	227.32
724.292	264.77
724.695	274.14
725.098	283.5
725.501	370.1
725.904	318.61
726.307	332.65
726.71	299.88
727.113	309.24
727.516	306.9
727.918	295.2
728.321	288.18
728.724	309.24
729.126	323.29
729.529	325.63
729.931	349.03
730.333	292.86
730.736	318.61
731.138	260.09
731.54	278.82
731.942	267.11
732.344	346.69
732.746	309.24
733.148	320.95
733.55	344.35
733.952	344.35
734.354	215.62
734.756	313.92
735.157	309.24
735.559	255.41
735.96	297.54
736.362	332.65
736.763	292.86
737.165	281.16
737.566	346.69
737.967	306.9
738.368	353.71
738.77	332.65
739.171	337.33
739.572	243.71
739.973	283.5
740.374	274.14
740.774	330.31
741.175	318.61
741.576	327.97
741.977	365.42
742.377	290.52
742.778	374.78
743.178	304.56
743.579	285.84
743.979	365.42
744.379	295.2
744.78	304.56
745.18	311.58
745.58	297.54
745.98	299.88
746.38	320.95
746.78	330.31
747.18	327.97
747.58	395.84
747.98	337.33
748.38	346.69
748.779	262.43
749.179	248.39
749.578	239.03
749.978	342.01
750.377	285.84
750.777	313.92
751.176	306.9
751.575	325.63
751.975	320.95
752.374	339.67
752.773	222.64
753.172	334.99
753.571	306.9
753.97	323.29
754.369	313.92
754.768	292.86
755.166	344.35
755.565	302.22
755.964	241.37
756.362	344.35
756.761	276.48
757.159	297.54
757.558	332.65
757.956	330.31
758.354	320.95
758.753	283.5
759.151	269.45
759.549	306.9
759.947	267.11
760.345	342.01
760.743	318.61
761.141	320.95
761.539	297.54
761.936	358.39
762.334	302.22
762.732	360.74
763.129	248.39
763.527	349.03
763.924	370.1
764.322	327.97
