Data from Al_FLMS009871__1298__16-49-40-666.txt Node

Date: Fri Mar 08 16:49:40 CST 2024
User: pe5414po
Spectrometer: FLMS00987
Trigger mode: 0
Integration Time (sec): 1.000000E-1
Scans to average: 1
Electric dark correction enabled: true
Nonlinearity correction enabled: false
Boxcar width: 0
XAxis mode: Wavelengths
Number of Pixels in Spectrum: 2048
>>>>>Begin Spectral Data<<<<<
188.938	-35.55
189.409	-35.55
189.879	-35.55
190.349	-77.68
190.819	-112.78
191.29	-82.36
191.76	-96.4
192.23	-94.06
192.7	-94.06
193.17	-101.08
193.64	-12.14
194.109	-23.84
194.579	-49.59
195.049	1.9
195.519	1.9
195.988	69.78
196.458	37.01
196.927	107.23
197.397	86.16
197.866	118.93
198.336	130.63
198.805	128.29
199.274	177.44
199.744	161.06
200.213	139.99
200.682	212.55
201.151	214.89
201.62	250
202.089	235.96
202.558	235.96
203.027	242.98
203.495	268.72
203.964	266.38
204.433	287.45
204.902	296.81
205.37	296.81
205.839	303.83
206.307	271.06
206.776	280.43
207.244	322.56
207.712	341.28
208.181	303.83
208.649	324.9
209.117	296.81
209.585	331.92
210.053	299.15
210.521	303.83
210.989	285.11
211.457	355.32
211.925	331.92
212.393	268.72
212.861	261.7
213.328	322.56
213.796	278.08
214.264	322.56
214.731	266.38
215.199	254.68
215.666	308.51
216.133	289.79
216.601	303.83
217.068	247.66
217.535	179.78
218.003	268.72
218.47	240.64
218.937	261.7
219.404	242.98
219.871	226.59
220.338	266.38
220.805	345.96
221.271	310.85
221.738	264.04
222.205	245.32
222.671	252.34
223.138	273.4
223.605	282.77
224.071	329.58
224.538	259.36
225.004	282.77
225.47	259.36
225.937	250
226.403	278.08
226.869	238.3
227.335	296.81
227.801	317.87
228.267	205.53
228.733	224.25
229.199	233.61
229.665	266.38
230.131	324.9
230.597	287.45
231.062	254.68
231.528	292.13
231.994	285.11
232.459	317.87
232.925	261.7
233.39	292.13
233.856	282.77
234.321	261.7
234.786	306.17
235.252	254.68
235.717	268.72
236.182	320.21
236.647	352.98
237.112	271.06
237.577	264.04
238.042	247.66
238.507	250
238.972	266.38
239.436	273.4
239.901	315.53
240.366	322.56
240.83	294.47
241.295	275.74
241.76	324.9
242.224	308.51
242.688	299.15
243.153	271.06
243.617	219.57
244.081	317.87
244.545	207.87
245.01	334.26
245.474	301.49
245.938	322.56
246.402	268.72
246.866	259.36
247.33	275.74
247.793	264.04
248.257	308.51
248.721	294.47
249.185	369.37
249.648	266.38
250.112	273.4
250.575	310.85
251.039	322.56
251.502	308.51
251.965	289.79
252.429	315.53
252.892	306.17
253.355	303.83
253.818	315.53
254.281	292.13
254.744	242.98
255.207	336.6
255.67	233.61
256.133	322.56
256.596	292.13
257.059	240.64
257.522	292.13
257.984	221.91
258.447	285.11
258.909	282.77
259.372	285.11
259.834	268.72
260.297	360
260.759	331.92
261.221	310.85
261.684	299.15
262.146	271.06
262.608	271.06
263.07	257.02
263.532	259.36
263.994	292.13
264.456	315.53
264.918	250
265.38	294.47
265.842	345.96
266.303	259.36
266.765	271.06
267.227	275.74
267.688	322.56
268.15	231.27
268.611	271.06
269.072	367.03
269.534	261.7
269.995	233.61
270.456	313.19
270.918	310.85
271.379	343.62
271.84	343.62
272.301	203.19
272.762	261.7
273.223	287.45
273.684	285.11
274.144	261.7
274.605	317.87
275.066	292.13
275.527	303.83
275.987	294.47
276.448	320.21
276.908	296.81
277.369	296.81
277.829	280.43
278.289	331.92
278.75	352.98
279.21	257.02
279.67	303.83
280.13	338.94
280.59	341.28
281.05	308.51
281.51	294.47
281.97	289.79
282.43	240.64
282.89	303.83
283.35	292.13
283.809	289.79
284.269	301.49
284.729	313.19
285.188	322.56
285.648	352.98
286.107	315.53
286.567	292.13
287.026	364.68
287.485	289.79
287.944	308.51
288.404	317.87
288.863	338.94
289.322	352.98
289.781	320.21
290.24	306.17
290.699	282.77
291.158	278.08
291.616	285.11
292.075	306.17
292.534	331.92
292.992	301.49
293.451	299.15
293.91	313.19
294.368	275.74
294.827	294.47
295.285	278.08
295.743	390.43
296.202	308.51
296.66	275.74
297.118	341.28
297.576	285.11
298.034	289.79
298.492	329.58
298.95	299.15
299.408	331.92
299.866	271.06
300.324	334.26
300.781	334.26
301.239	306.17
301.697	327.24
302.154	362.34
302.612	345.96
303.069	266.38
303.527	331.92
303.984	264.04
304.441	313.19
304.899	334.26
305.356	317.87
305.813	280.43
306.27	324.9
306.727	317.87
307.184	280.43
307.641	334.26
308.098	296.81
308.555	322.56
309.012	306.17
309.468	362.34
309.925	252.34
310.382	285.11
310.838	317.87
311.295	294.47
311.751	331.92
312.208	282.77
312.664	360
313.12	343.62
313.577	271.06
314.033	299.15
314.489	264.04
314.945	308.51
315.401	336.6
315.857	296.81
316.313	292.13
316.769	320.21
317.225	282.77
317.681	348.3
318.136	331.92
318.592	352.98
319.048	338.94
319.503	367.03
319.959	362.34
320.414	327.24
320.869	257.02
321.325	287.45
321.78	273.4
322.235	336.6
322.691	320.21
323.146	252.34
323.601	383.41
324.056	278.08
324.511	278.08
324.966	292.13
325.421	395.11
325.875	287.45
326.33	336.6
326.785	280.43
327.24	240.64
327.694	348.3
328.149	313.19
328.603	343.62
329.058	395.11
329.512	294.47
329.966	329.58
330.421	299.15
330.875	303.83
331.329	301.49
331.783	280.43
332.237	296.81
332.691	268.72
333.145	299.15
333.599	310.85
334.053	324.9
334.507	238.3
334.96	327.24
335.414	315.53
335.868	320.21
336.321	252.34
336.775	392.77
337.228	282.77
337.682	308.51
338.135	296.81
338.588	329.58
339.042	320.21
339.495	273.4
339.948	324.9
340.401	299.15
340.854	282.77
341.307	348.3
341.76	301.49
342.213	280.43
342.666	324.9
343.119	338.94
343.571	315.53
344.024	310.85
344.477	306.17
344.929	299.15
345.382	320.21
345.834	350.64
346.287	310.85
346.739	275.74
347.191	329.58
347.644	348.3
348.096	360
348.548	301.49
349	299.15
349.452	352.98
349.904	343.62
350.356	280.43
350.808	329.58
351.26	324.9
351.711	364.68
352.163	317.87
352.615	296.81
353.066	376.39
353.518	350.64
353.969	324.9
354.421	278.08
354.872	369.37
355.324	320.21
355.775	280.43
356.226	336.6
356.677	294.47
357.128	313.19
357.579	310.85
358.03	310.85
358.481	282.77
358.932	261.7
359.383	364.68
359.834	343.62
360.285	329.58
360.735	315.53
361.186	320.21
361.637	310.85
362.087	355.32
362.538	385.75
362.988	289.79
363.438	268.72
363.889	320.21
364.339	278.08
364.789	320.21
365.239	287.45
365.689	331.92
366.139	296.81
366.589	331.92
367.039	324.9
367.489	355.32
367.939	341.28
368.389	341.28
368.839	271.06
369.288	345.96
369.738	362.34
370.187	336.6
370.637	341.28
371.086	306.17
371.536	292.13
371.985	285.11
372.434	301.49
372.884	336.6
373.333	266.38
373.782	310.85
374.231	322.56
374.68	296.81
375.129	231.27
375.578	280.43
376.027	240.64
376.475	336.6
376.924	355.32
377.373	247.66
377.822	320.21
378.27	327.24
378.719	329.58
379.167	287.45
379.616	392.77
380.064	310.85
380.512	296.81
380.961	282.77
381.409	383.41
381.857	348.3
382.305	362.34
382.753	317.87
383.201	385.75
383.649	292.13
384.097	259.36
384.545	317.87
384.992	334.26
385.44	381.07
385.888	329.58
386.335	313.19
386.783	310.85
387.231	308.51
387.678	392.77
388.125	310.85
388.573	313.19
389.02	334.26
389.467	395.11
389.914	357.66
390.362	254.68
390.809	289.79
391.256	317.87
391.703	343.62
392.15	259.36
392.596	329.58
393.043	273.4
393.49	324.9
393.937	322.56
394.383	289.79
394.83	324.9
395.276	292.13
395.723	299.15
396.169	271.06
396.616	324.9
397.062	336.6
397.508	352.98
397.954	338.94
398.401	343.62
398.847	313.19
399.293	357.66
399.739	369.37
400.185	334.26
400.631	345.96
401.076	317.87
401.522	352.98
401.968	313.19
402.414	374.05
402.859	334.26
403.305	273.4
403.75	350.64
404.196	289.79
404.641	273.4
405.086	322.56
405.532	367.03
405.977	303.83
406.422	352.98
406.867	273.4
407.312	247.66
407.757	306.17
408.202	360
408.647	336.6
409.092	329.58
409.537	336.6
409.982	261.7
410.426	261.7
410.871	371.71
411.316	338.94
411.76	343.62
412.205	301.49
412.649	329.58
413.093	294.47
413.538	315.53
413.982	341.28
414.426	301.49
414.87	273.4
415.314	345.96
415.758	266.38
416.202	289.79
416.646	338.94
417.09	273.4
417.534	329.58
417.978	285.11
418.421	334.26
418.865	287.45
419.309	362.34
419.752	310.85
420.196	327.24
420.639	294.47
421.083	308.51
421.526	285.11
421.969	296.81
422.412	292.13
422.856	355.32
423.299	287.45
423.742	350.64
424.185	350.64
424.628	306.17
425.071	371.71
425.513	322.56
425.956	308.51
426.399	327.24
426.842	369.37
427.284	327.24
427.727	303.83
428.169	306.17
428.612	315.53
429.054	355.32
429.497	296.81
429.939	285.11
430.381	336.6
430.823	308.51
431.265	315.53
431.707	345.96
432.149	327.24
432.591	315.53
433.033	292.13
433.475	238.3
433.917	343.62
434.359	338.94
434.8	364.68
435.242	292.13
435.684	257.02
436.125	313.19
436.567	357.66
437.008	301.49
437.449	324.9
437.891	374.05
438.332	294.47
438.773	334.26
439.214	292.13
439.656	289.79
440.097	282.77
440.538	331.92
440.978	280.43
441.419	320.21
441.86	301.49
442.301	385.75
442.742	308.51
443.182	287.45
443.623	357.66
444.063	301.49
444.504	324.9
444.944	334.26
445.385	313.19
445.825	296.81
446.265	320.21
446.706	294.47
447.146	327.24
447.586	317.87
448.026	341.28
448.466	301.49
448.906	336.6
449.346	287.45
449.786	381.07
450.225	322.56
450.665	292.13
451.105	301.49
451.544	388.09
451.984	355.32
452.424	364.68
452.863	306.17
453.302	301.49
453.742	289.79
454.181	357.66
454.62	352.98
455.059	331.92
455.499	292.13
455.938	296.81
456.377	329.58
456.816	313.19
457.254	392.77
457.693	348.3
458.132	355.32
458.571	292.13
459.01	345.96
459.448	278.08
459.887	287.45
460.325	399.79
460.764	315.53
461.202	282.77
461.641	308.51
462.079	271.06
462.517	345.96
462.955	317.87
463.393	301.49
463.832	343.62
464.27	306.17
464.708	315.53
465.145	348.3
465.583	292.13
466.021	275.74
466.459	294.47
466.897	257.02
467.334	338.94
467.772	324.9
468.209	345.96
468.647	345.96
469.084	294.47
469.522	362.34
469.959	275.74
470.396	320.21
470.833	324.9
471.271	322.56
471.708	303.83
472.145	289.79
472.582	329.58
473.019	345.96
473.456	322.56
473.892	275.74
474.329	324.9
474.766	334.26
475.202	278.08
475.639	402.13
476.076	322.56
476.512	331.92
476.949	285.11
477.385	289.79
477.821	268.72
478.258	374.05
478.694	308.51
479.13	341.28
479.566	296.81
480.002	350.64
480.438	348.3
480.874	357.66
481.31	322.56
481.746	303.83
482.181	285.11
482.617	381.07
483.053	324.9
483.488	341.28
483.924	257.02
484.36	289.79
484.795	317.87
485.23	238.3
485.666	327.24
486.101	289.79
486.536	315.53
486.971	343.62
487.407	345.96
487.842	324.9
488.277	273.4
488.712	392.77
489.146	285.11
489.581	306.17
490.016	360
490.451	278.08
490.885	376.39
491.32	303.83
491.755	266.38
492.189	374.05
492.624	327.24
493.058	301.49
493.492	327.24
493.927	285.11
494.361	315.53
494.795	338.94
495.229	338.94
495.663	320.21
496.097	345.96
496.531	322.56
496.965	329.58
497.399	292.13
497.833	352.98
498.266	310.85
498.7	355.32
499.134	324.9
499.567	324.9
500.001	374.05
500.434	315.53
500.868	329.58
501.301	374.05
501.734	336.6
502.168	315.53
502.601	322.56
503.034	301.49
503.467	287.45
503.9	362.34
504.333	327.24
504.766	331.92
505.199	362.34
505.632	336.6
506.064	360
506.497	357.66
506.93	327.24
507.362	336.6
507.795	348.3
508.227	252.34
508.66	385.75
509.092	352.98
509.524	348.3
509.956	301.49
510.389	268.72
510.821	310.85
511.253	313.19
511.685	334.26
512.117	296.81
512.549	336.6
512.981	320.21
513.412	299.15
513.844	299.15
514.276	299.15
514.707	292.13
515.139	329.58
515.571	282.77
516.002	278.08
516.433	301.49
516.865	278.08
517.296	320.21
517.727	329.58
518.159	345.96
518.59	371.71
519.021	289.79
519.452	320.21
519.883	357.66
520.314	357.66
520.744	285.11
521.175	329.58
521.606	324.9
522.037	324.9
522.467	334.26
522.898	294.47
523.328	348.3
523.759	374.05
524.189	364.68
524.62	355.32
525.05	317.87
525.48	343.62
525.91	254.68
526.341	287.45
526.771	268.72
527.201	376.39
527.631	322.56
528.061	287.45
528.49	289.79
528.92	336.6
529.35	296.81
529.78	271.06
530.209	388.09
530.639	292.13
531.068	306.17
531.498	345.96
531.927	324.9
532.357	327.24
532.786	315.53
533.215	303.83
533.644	278.08
534.074	317.87
534.503	310.85
534.932	341.28
535.361	289.79
535.79	303.83
536.218	348.3
536.647	338.94
537.076	364.68
537.505	320.21
537.933	345.96
538.362	315.53
538.79	273.4
539.219	282.77
539.647	306.17
540.076	343.62
540.504	331.92
540.932	352.98
541.36	362.34
541.788	303.83
542.217	294.47
542.645	289.79
543.073	322.56
543.5	313.19
543.928	322.56
544.356	355.32
544.784	245.32
545.211	313.19
545.639	322.56
546.067	289.79
546.494	287.45
546.922	301.49
547.349	336.6
547.776	303.83
548.204	348.3
548.631	327.24
549.058	310.85
549.485	268.72
549.912	331.92
550.339	310.85
550.766	264.04
551.193	376.39
551.62	327.24
552.047	331.92
552.474	273.4
552.9	320.21
553.327	324.9
553.754	268.72
554.18	341.28
554.607	292.13
555.033	334.26
555.459	308.51
555.886	374.05
556.312	266.38
556.738	320.21
557.164	308.51
557.59	264.04
558.016	310.85
558.442	294.47
558.868	324.9
559.294	296.81
559.72	264.04
560.145	371.71
560.571	303.83
560.997	308.51
561.422	388.09
561.848	264.04
562.273	327.24
562.699	345.96
563.124	306.17
563.549	378.73
563.974	324.9
564.4	310.85
564.825	315.53
565.25	317.87
565.675	364.68
566.1	336.6
566.525	357.66
566.95	341.28
567.374	282.77
567.799	362.34
568.224	259.36
568.648	278.08
569.073	360
569.497	329.58
569.922	280.43
570.346	345.96
570.771	374.05
571.195	350.64
571.619	357.66
572.043	315.53
572.467	315.53
572.891	306.17
573.315	331.92
573.739	343.62
574.163	308.51
574.587	322.56
575.011	374.05
575.435	350.64
575.858	345.96
576.282	296.81
576.705	317.87
577.129	296.81
577.552	308.51
577.976	296.81
578.399	299.15
578.822	296.81
579.245	303.83
579.669	362.34
580.092	280.43
580.515	278.08
580.938	252.34
581.361	313.19
581.784	308.51
582.206	324.9
582.629	345.96
583.052	320.21
583.474	303.83
583.897	310.85
584.32	294.47
584.742	315.53
585.165	343.62
585.587	294.47
586.009	296.81
586.431	350.64
586.854	313.19
587.276	331.92
587.698	360
588.12	360
588.542	271.06
588.964	341.28
589.386	341.28
589.807	355.32
590.229	350.64
590.651	268.72
591.073	313.19
591.494	285.11
591.916	334.26
592.337	327.24
592.759	317.87
593.18	336.6
593.601	331.92
594.022	280.43
594.444	278.08
594.865	357.66
595.286	329.58
595.707	317.87
596.128	282.77
596.549	280.43
596.97	338.94
597.39	282.77
597.811	390.43
598.232	348.3
598.652	301.49
599.073	329.58
599.494	320.21
599.914	299.15
600.334	324.9
600.755	338.94
601.175	348.3
601.595	287.45
602.015	259.36
602.436	303.83
602.856	455.97
603.276	367.03
603.696	378.73
604.115	266.38
604.535	308.51
604.955	266.38
605.375	292.13
605.794	364.68
606.214	364.68
606.634	301.49
607.053	341.28
607.473	292.13
607.892	282.77
608.311	315.53
608.731	367.03
609.15	289.79
609.569	306.17
609.988	320.21
610.407	355.32
610.826	385.75
611.245	324.9
611.664	350.64
612.083	282.77
612.501	278.08
612.92	329.58
613.339	392.77
613.757	355.32
614.176	301.49
614.594	369.37
615.013	301.49
615.431	334.26
615.85	329.58
616.268	343.62
616.686	383.41
617.104	310.85
617.522	317.87
617.94	320.21
618.358	317.87
618.776	320.21
619.194	329.58
619.612	264.04
620.03	287.45
620.447	278.08
620.865	371.71
621.282	310.85
621.7	310.85
622.117	294.47
622.535	345.96
622.952	266.38
623.369	292.13
623.787	268.72
624.204	280.43
624.621	381.07
625.038	322.56
625.455	371.71
625.872	313.19
626.289	320.21
626.706	360
627.123	299.15
627.539	345.96
627.956	308.51
628.373	301.49
628.789	327.24
629.206	306.17
629.622	287.45
630.038	334.26
630.455	334.26
630.871	334.26
631.287	345.96
631.703	317.87
632.12	360
632.536	275.74
632.952	331.92
633.368	371.71
633.783	343.62
634.199	271.06
634.615	275.74
635.031	242.98
635.446	285.11
635.862	336.6
636.277	306.17
636.693	327.24
637.108	259.36
637.524	308.51
637.939	320.21
638.354	322.56
638.77	250
639.185	294.47
639.6	348.3
640.015	310.85
640.43	331.92
640.845	331.92
641.259	345.96
641.674	296.81
642.089	315.53
642.504	299.15
642.918	299.15
643.333	287.45
643.747	345.96
644.162	238.3
644.576	240.64
644.991	287.45
645.405	341.28
645.819	296.81
646.233	322.56
646.647	341.28
647.061	299.15
647.475	261.7
647.889	285.11
648.303	322.56
648.717	360
649.131	306.17
649.545	320.21
649.958	322.56
650.372	317.87
650.785	327.24
651.199	271.06
651.612	310.85
652.026	322.56
652.439	235.96
652.852	338.94
653.266	306.17
653.679	320.21
654.092	331.92
654.505	338.94
654.918	310.85
655.331	299.15
655.744	320.21
656.156	350.64
656.569	315.53
656.982	348.3
657.394	278.08
657.807	268.72
658.22	280.43
658.632	331.92
659.044	264.04
659.457	313.19
659.869	299.15
660.281	362.34
660.693	317.87
661.106	240.64
661.518	308.51
661.93	348.3
662.342	364.68
662.754	348.3
663.165	285.11
663.577	315.53
663.989	367.03
664.401	343.62
664.812	385.75
665.224	275.74
665.635	313.19
666.047	301.49
666.458	355.32
666.869	329.58
667.281	364.68
667.692	271.06
668.103	362.34
668.514	371.71
668.925	306.17
669.336	334.26
669.747	334.26
670.158	350.64
670.569	313.19
670.979	345.96
671.39	369.37
671.801	327.24
672.211	350.64
672.622	360
673.032	310.85
673.443	271.06
673.853	306.17
674.263	313.19
674.674	252.34
675.084	395.11
675.494	278.08
675.904	275.74
676.314	299.15
676.724	301.49
677.134	352.98
677.544	303.83
677.953	350.64
678.363	376.39
678.773	329.58
679.182	308.51
679.592	317.87
680.001	294.47
680.411	338.94
680.82	296.81
681.23	362.34
681.639	338.94
682.048	364.68
682.457	362.34
682.866	308.51
683.275	322.56
683.684	320.21
684.093	315.53
684.502	345.96
684.911	287.45
685.32	364.68
685.728	324.9
686.137	345.96
686.546	306.17
686.954	247.66
687.363	334.26
687.771	313.19
688.179	306.17
688.588	327.24
688.996	360
689.404	308.51
689.812	331.92
690.22	327.24
690.628	329.58
691.036	294.47
691.444	310.85
691.852	317.87
692.26	343.62
692.667	324.9
693.075	257.02
693.483	362.34
693.89	278.08
694.298	331.92
694.705	303.83
695.112	313.19
695.52	331.92
695.927	336.6
696.334	266.38
696.741	327.24
697.148	308.51
697.555	285.11
697.962	348.3
698.369	331.92
698.776	334.26
699.183	324.9
699.59	308.51
699.996	292.13
700.403	345.96
700.81	336.6
701.216	308.51
701.623	306.17
702.029	306.17
702.435	320.21
702.842	367.03
703.248	376.39
703.654	364.68
704.06	299.15
704.466	329.58
704.872	315.53
705.278	320.21
705.684	268.72
706.09	273.4
706.496	310.85
706.901	299.15
707.307	352.98
707.712	336.6
708.118	315.53
708.523	352.98
708.929	306.17
709.334	331.92
709.74	329.58
710.145	280.43
710.55	294.47
710.955	341.28
711.36	327.24
711.765	296.81
712.17	324.9
712.575	374.05
712.98	926.41
713.385	423.2
713.789	303.83
714.194	345.96
714.599	278.08
715.003	427.88
715.408	395.11
715.812	303.83
716.217	306.17
716.621	308.51
717.025	313.19
717.429	320.21
717.833	303.83
718.238	355.32
718.642	381.07
719.046	341.28
719.449	320.21
719.853	266.38
720.257	329.58
720.661	327.24
721.065	345.96
721.468	282.77
721.872	331.92
722.275	343.62
722.679	306.17
723.082	338.94
723.485	315.53
723.889	364.68
724.292	308.51
724.695	299.15
725.098	292.13
725.501	308.51
725.904	329.58
726.307	381.07
726.71	352.98
727.113	334.26
727.516	371.71
727.918	301.49
728.321	299.15
728.724	345.96
729.126	275.74
729.529	355.32
729.931	287.45
730.333	264.04
730.736	381.07
731.138	313.19
731.54	334.26
731.942	294.47
732.344	320.21
732.746	313.19
733.148	336.6
733.55	322.56
733.952	327.24
734.354	301.49
734.756	299.15
735.157	324.9
735.559	360
735.96	352.98
736.362	329.58
736.763	296.81
737.165	313.19
737.566	331.92
737.967	313.19
738.368	301.49
738.77	275.74
739.171	313.19
739.572	350.64
739.973	299.15
740.374	352.98
740.774	345.96
741.175	331.92
741.576	402.13
741.977	334.26
742.377	360
742.778	324.9
743.178	317.87
743.579	306.17
743.979	303.83
744.379	360
744.78	303.83
745.18	259.36
745.58	317.87
745.98	327.24
746.38	313.19
746.78	327.24
747.18	331.92
747.58	310.85
747.98	264.04
748.38	275.74
748.779	343.62
749.179	308.51
749.578	315.53
749.978	268.72
750.377	434.9
750.777	275.74
751.176	301.49
751.575	369.37
751.975	247.66
752.374	308.51
752.773	308.51
753.172	306.17
753.571	280.43
753.97	289.79
754.369	268.72
754.768	362.34
755.166	289.79
755.565	338.94
755.964	287.45
756.362	294.47
756.761	327.24
757.159	292.13
757.558	343.62
757.956	345.96
758.354	280.43
758.753	367.03
759.151	324.9
759.549	308.51
759.947	268.72
760.345	292.13
760.743	282.77
761.141	289.79
761.539	287.45
761.936	383.41
762.334	395.11
762.732	338.94
763.129	348.3
763.527	360
763.924	338.94
764.322	334.26
764.719	395.11
765.117	296.81
765.514	233.61
765.911	343.62
766.308	308.51
766.705	357.66
