Data from Al_FLMS009871__1287__16-49-39-566.txt Node

Date: Fri Mar 08 16:49:39 CST 2024
User: pe5414po
Spectrometer: FLMS00987
Trigger mode: 0
Integration Time (sec): 1.000000E-1
Scans to average: 1
Electric dark correction enabled: true
Nonlinearity correction enabled: false
Boxcar width: 0
XAxis mode: Wavelengths
Number of Pixels in Spectrum: 2048
>>>>>Begin Spectral Data<<<<<
188.938	-77.38
189.409	-77.38
189.879	-77.38
190.349	-142.92
190.819	-75.04
191.29	-82.07
191.76	-84.41
192.23	-93.77
192.7	-119.51
193.17	-91.43
193.64	-28.23
194.109	-49.3
194.579	-44.62
195.049	4.53
195.519	-9.51
195.988	34.96
196.458	95.82
196.927	112.2
197.397	74.75
197.866	156.67
198.336	123.9
198.805	116.88
199.274	142.63
199.744	222.2
200.213	208.16
200.682	219.86
201.151	205.82
201.62	247.95
202.089	254.97
202.558	201.14
203.027	257.31
203.495	306.46
203.964	247.95
204.433	215.18
204.902	285.4
205.37	271.36
205.839	348.59
206.307	346.25
206.776	320.51
207.244	294.76
207.712	273.7
208.181	299.44
208.649	259.65
209.117	308.8
209.585	252.63
210.053	205.82
210.521	320.51
210.989	273.7
211.457	273.7
211.925	301.78
212.393	245.61
212.861	243.27
213.328	266.67
213.796	261.99
214.264	276.04
214.731	224.55
215.199	259.65
215.666	252.63
216.133	287.74
216.601	290.08
217.068	334.55
217.535	264.33
218.003	250.29
218.47	278.38
218.937	269.02
219.404	231.57
219.871	238.59
220.338	301.78
220.805	250.29
221.271	343.91
221.738	231.57
222.205	247.95
222.671	219.86
223.138	287.74
223.605	264.33
224.071	297.1
224.538	271.36
225.004	290.08
225.47	264.33
225.937	261.99
226.403	236.25
226.869	273.7
227.335	264.33
227.801	327.53
228.267	273.7
228.733	257.31
229.199	290.08
229.665	247.95
230.131	287.74
230.597	224.55
231.062	304.12
231.528	231.57
231.994	205.82
232.459	231.57
232.925	269.02
233.39	266.67
233.856	283.06
234.321	306.46
234.786	264.33
235.252	269.02
235.717	299.44
236.182	276.04
236.647	278.38
237.112	322.85
237.577	240.93
238.042	259.65
238.507	285.4
238.972	264.33
239.436	276.04
239.901	311.14
240.366	269.02
240.83	247.95
241.295	313.49
241.76	350.93
242.224	276.04
242.688	278.38
243.153	304.12
243.617	280.72
244.081	308.8
244.545	276.04
245.01	264.33
245.474	318.17
245.938	264.33
246.402	301.78
246.866	332.21
247.33	290.08
247.793	269.02
248.257	304.12
248.721	201.14
249.185	224.55
249.648	287.74
250.112	292.42
250.575	261.99
251.039	266.67
251.502	264.33
251.965	325.19
252.429	294.76
252.892	325.19
253.355	322.85
253.818	280.72
254.281	339.23
254.744	276.04
255.207	287.74
255.67	266.67
256.133	254.97
256.596	276.04
257.059	318.17
257.522	343.91
257.984	364.98
258.447	350.93
258.909	336.89
259.372	283.06
259.834	287.74
260.297	264.33
260.759	341.57
261.221	250.29
261.684	247.95
262.146	320.51
262.608	285.4
263.07	271.36
263.532	278.38
263.994	318.17
264.456	233.91
264.918	219.86
265.38	254.97
265.842	245.61
266.303	339.23
266.765	259.65
267.227	355.62
267.688	346.25
268.15	318.17
268.611	271.36
269.072	311.14
269.534	278.38
269.995	325.19
270.456	353.27
270.918	292.42
271.379	294.76
271.84	311.14
272.301	283.06
272.762	250.29
273.223	205.82
273.684	308.8
274.144	290.08
274.605	332.21
275.066	222.2
275.527	269.02
275.987	334.55
276.448	283.06
276.908	261.99
277.369	325.19
277.829	259.65
278.289	348.59
278.75	294.76
279.21	259.65
279.67	292.42
280.13	292.42
280.59	318.17
281.05	299.44
281.51	269.02
281.97	299.44
282.43	313.49
282.89	287.74
283.35	306.46
283.809	287.74
284.269	292.42
284.729	215.18
285.188	273.7
285.648	329.87
286.107	334.55
286.567	280.72
287.026	292.42
287.485	238.59
287.944	290.08
288.404	362.64
288.863	343.91
289.322	313.49
289.781	285.4
290.24	264.33
290.699	254.97
291.158	343.91
291.616	299.44
292.075	276.04
292.534	233.91
292.992	304.12
293.451	264.33
293.91	334.55
294.368	261.99
294.827	320.51
295.285	308.8
295.743	341.57
296.202	273.7
296.66	287.74
297.118	341.57
297.576	306.46
298.034	322.85
298.492	261.99
298.95	278.38
299.408	308.8
299.866	287.74
300.324	233.91
300.781	264.33
301.239	287.74
301.697	381.36
302.154	329.87
302.612	311.14
303.069	280.72
303.527	311.14
303.984	283.06
304.441	318.17
304.899	285.4
305.356	311.14
305.813	224.55
306.27	304.12
306.727	264.33
307.184	266.67
307.641	299.44
308.098	325.19
308.555	252.63
309.012	313.49
309.468	318.17
309.925	292.42
310.382	301.78
310.838	297.1
311.295	285.4
311.751	311.14
312.208	341.57
312.664	355.62
313.12	254.97
313.577	313.49
314.033	304.12
314.489	332.21
314.945	357.96
315.401	332.21
315.857	294.76
316.313	332.21
316.769	304.12
317.225	346.25
317.681	318.17
318.136	336.89
318.592	308.8
319.048	271.36
319.503	292.42
319.959	278.38
320.414	254.97
320.869	329.87
321.325	311.14
321.78	322.85
322.235	240.93
322.691	327.53
323.146	276.04
323.601	285.4
324.056	336.89
324.511	329.87
324.966	292.42
325.421	304.12
325.875	294.76
326.33	320.51
326.785	285.4
327.24	290.08
327.694	308.8
328.149	327.53
328.603	285.4
329.058	276.04
329.512	297.1
329.966	254.97
330.421	297.1
330.875	304.12
331.329	308.8
331.783	320.51
332.237	318.17
332.691	297.1
333.145	276.04
333.599	343.91
334.053	341.57
334.507	311.14
334.96	301.78
335.414	374.34
335.868	329.87
336.321	322.85
336.775	341.57
337.228	336.89
337.682	343.91
338.135	299.44
338.588	290.08
339.042	336.89
339.495	292.42
339.948	357.96
340.401	269.02
340.854	287.74
341.307	343.91
341.76	271.36
342.213	318.17
342.666	339.23
343.119	367.32
343.571	329.87
344.024	334.55
344.477	283.06
344.929	393.06
345.382	261.99
345.834	276.04
346.287	367.32
346.739	299.44
347.191	372
347.644	269.02
348.096	252.63
348.548	294.76
349	348.59
349.452	287.74
349.904	287.74
350.356	339.23
350.808	327.53
351.26	364.98
351.711	367.32
352.163	348.59
352.615	252.63
353.066	409.45
353.518	353.27
353.969	271.36
354.421	247.95
354.872	353.27
355.324	301.78
355.775	245.61
356.226	306.46
356.677	285.4
357.128	372
357.579	280.72
358.03	313.49
358.481	269.02
358.932	346.25
359.383	254.97
359.834	287.74
360.285	238.59
360.735	245.61
361.186	301.78
361.637	276.04
362.087	334.55
362.538	257.31
362.988	290.08
363.438	280.72
363.889	341.57
364.339	315.83
364.789	341.57
365.239	287.74
365.689	339.23
366.139	350.93
366.589	264.33
367.039	327.53
367.489	329.87
367.939	313.49
368.389	360.3
368.839	341.57
369.288	320.51
369.738	332.21
370.187	318.17
370.637	304.12
371.086	318.17
371.536	350.93
371.985	261.99
372.434	311.14
372.884	336.89
373.333	320.51
373.782	276.04
374.231	367.32
374.68	336.89
375.129	315.83
375.578	318.17
376.027	350.93
376.475	261.99
376.924	278.38
377.373	273.7
377.822	339.23
378.27	308.8
378.719	283.06
379.167	301.78
379.616	229.23
380.064	280.72
380.512	283.06
380.961	355.62
381.409	346.25
381.857	383.7
382.305	278.38
382.753	346.25
383.201	325.19
383.649	301.78
384.097	343.91
384.545	297.1
384.992	297.1
385.44	372
385.888	318.17
386.335	301.78
386.783	320.51
387.231	283.06
387.678	297.1
388.125	311.14
388.573	294.76
389.02	285.4
389.467	308.8
389.914	325.19
390.362	341.57
390.809	280.72
391.256	350.93
391.703	306.46
392.15	292.42
392.596	285.4
393.043	329.87
393.49	280.72
393.937	320.51
394.383	313.49
394.83	261.99
395.276	322.85
395.723	292.42
396.169	355.62
396.616	290.08
397.062	325.19
397.508	224.55
397.954	304.12
398.401	320.51
398.847	306.46
399.293	325.19
399.739	334.55
400.185	313.49
400.631	238.59
401.076	287.74
401.522	325.19
401.968	315.83
402.414	285.4
402.859	290.08
403.305	334.55
403.75	292.42
404.196	348.59
404.641	266.67
405.086	254.97
405.532	245.61
405.977	360.3
406.422	299.44
406.867	280.72
407.312	332.21
407.757	308.8
408.202	336.89
408.647	376.68
409.092	334.55
409.537	327.53
409.982	334.55
410.426	306.46
410.871	313.49
411.316	250.29
411.76	353.27
412.205	278.38
412.649	311.14
413.093	360.3
413.538	254.97
413.982	315.83
414.426	343.91
414.87	350.93
415.314	313.49
415.758	266.67
416.202	334.55
416.646	297.1
417.09	360.3
417.534	332.21
417.978	369.66
418.421	320.51
418.865	301.78
419.309	294.76
419.752	308.8
420.196	313.49
420.639	336.89
421.083	313.49
421.526	276.04
421.969	315.83
422.412	327.53
422.856	297.1
423.299	336.89
423.742	318.17
424.185	306.46
424.628	301.78
425.071	287.74
425.513	362.64
425.956	297.1
426.399	297.1
426.842	304.12
427.284	334.55
427.727	278.38
428.169	245.61
428.612	273.7
429.054	360.3
429.497	278.38
429.939	273.7
430.381	224.55
430.823	308.8
431.265	304.12
431.707	329.87
432.149	346.25
432.591	297.1
433.033	348.59
433.475	313.49
433.917	332.21
434.359	334.55
434.8	339.23
435.242	379.02
435.684	299.44
436.125	341.57
436.567	343.91
437.008	388.38
437.449	313.49
437.891	292.42
438.332	318.17
438.773	278.38
439.214	318.17
439.656	369.66
440.097	318.17
440.538	311.14
440.978	226.89
441.419	240.93
441.86	294.76
442.301	334.55
442.742	332.21
443.182	374.34
443.623	240.93
444.063	318.17
444.504	301.78
444.944	322.85
445.385	348.59
445.825	376.68
446.265	372
446.706	355.62
447.146	304.12
447.586	299.44
448.026	383.7
448.466	372
448.906	325.19
449.346	280.72
449.786	301.78
450.225	343.91
450.665	320.51
451.105	292.42
451.544	367.32
451.984	355.62
452.424	381.36
452.863	383.7
453.302	304.12
453.742	299.44
454.181	306.46
454.62	278.38
455.059	297.1
455.499	276.04
455.938	353.27
456.377	297.1
456.816	404.77
457.254	292.42
457.693	294.76
458.132	306.46
458.571	311.14
459.01	294.76
459.448	364.98
459.887	313.49
460.325	343.91
460.764	313.49
461.202	290.08
461.641	343.91
462.079	308.8
462.517	325.19
462.955	327.53
463.393	357.96
463.832	311.14
464.27	334.55
464.708	283.06
465.145	334.55
465.583	322.85
466.021	388.38
466.459	301.78
466.897	327.53
467.334	297.1
467.772	318.17
468.209	322.85
468.647	350.93
469.084	357.96
469.522	301.78
469.959	325.19
470.396	318.17
470.833	252.63
471.271	341.57
471.708	290.08
472.145	451.58
472.582	339.23
473.019	269.02
473.456	374.34
473.892	329.87
474.329	332.21
474.766	290.08
475.202	315.83
475.639	357.96
476.076	327.53
476.512	290.08
476.949	353.27
477.385	334.55
477.821	336.89
478.258	353.27
478.694	269.02
479.13	283.06
479.566	222.2
480.002	343.91
480.438	315.83
480.874	287.74
481.31	313.49
481.746	353.27
482.181	329.87
482.617	357.96
483.053	297.1
483.488	247.95
483.924	306.46
484.36	379.02
484.795	327.53
485.23	329.87
485.666	238.59
486.101	320.51
486.536	374.34
486.971	339.23
487.407	304.12
487.842	360.3
488.277	313.49
488.712	240.93
489.146	332.21
489.581	332.21
490.016	327.53
490.451	322.85
490.885	306.46
491.32	266.67
491.755	355.62
492.189	264.33
492.624	322.85
493.058	301.78
493.492	346.25
493.927	343.91
494.361	299.44
494.795	290.08
495.229	304.12
495.663	315.83
496.097	315.83
496.531	311.14
496.965	273.7
497.399	280.72
497.833	301.78
498.266	362.64
498.7	294.76
499.134	332.21
499.567	395.4
500.001	360.3
500.434	343.91
500.868	299.44
501.301	346.25
501.734	346.25
502.168	350.93
502.601	297.1
503.034	306.46
503.467	259.65
503.9	353.27
504.333	285.4
504.766	278.38
505.199	311.14
505.632	329.87
506.064	292.42
506.497	355.62
506.93	320.51
507.362	332.21
507.795	308.8
508.227	336.89
508.66	348.59
509.092	299.44
509.524	304.12
509.956	306.46
510.389	315.83
510.821	346.25
511.253	329.87
511.685	327.53
512.117	292.42
512.549	339.23
512.981	278.38
513.412	276.04
513.844	278.38
514.276	304.12
514.707	336.89
515.139	311.14
515.571	299.44
516.002	343.91
516.433	360.3
516.865	311.14
517.296	350.93
517.727	306.46
518.159	348.59
518.59	322.85
519.021	336.89
519.452	318.17
519.883	339.23
520.314	346.25
520.744	318.17
521.175	301.78
521.606	315.83
522.037	294.76
522.467	329.87
522.898	329.87
523.328	299.44
523.759	372
524.189	271.36
524.62	346.25
525.05	299.44
525.48	357.96
525.91	264.33
526.341	287.74
526.771	353.27
527.201	306.46
527.631	266.67
528.061	322.85
528.49	329.87
528.92	306.46
529.35	311.14
529.78	322.85
530.209	294.76
530.639	304.12
531.068	404.77
531.498	355.62
531.927	304.12
532.357	364.98
532.786	271.36
533.215	308.8
533.644	334.55
534.074	304.12
534.503	320.51
534.932	381.36
535.361	287.74
535.79	339.23
536.218	346.25
536.647	280.72
537.076	325.19
537.505	250.29
537.933	233.91
538.362	315.83
538.79	329.87
539.219	367.32
539.647	353.27
540.076	339.23
540.504	292.42
540.932	299.44
541.36	304.12
541.788	231.57
542.217	332.21
542.645	299.44
543.073	348.59
543.5	252.63
543.928	287.74
544.356	332.21
544.784	325.19
545.211	285.4
545.639	339.23
546.067	320.51
546.494	355.62
546.922	292.42
547.349	285.4
547.776	369.66
548.204	271.36
548.631	269.02
549.058	276.04
549.485	294.76
549.912	304.12
550.339	320.51
550.766	283.06
551.193	364.98
551.62	308.8
552.047	355.62
552.474	308.8
552.9	299.44
553.327	329.87
553.754	301.78
554.18	245.61
554.607	278.38
555.033	301.78
555.459	327.53
555.886	308.8
556.312	350.93
556.738	357.96
557.164	355.62
557.59	287.74
558.016	306.46
558.442	350.93
558.868	336.89
559.294	259.65
559.72	311.14
560.145	348.59
560.571	243.27
560.997	278.38
561.422	334.55
561.848	332.21
562.273	304.12
562.699	362.64
563.124	372
563.549	315.83
563.974	290.08
564.4	332.21
564.825	315.83
565.25	376.68
565.675	311.14
566.1	306.46
566.525	341.57
566.95	297.1
567.374	336.89
567.799	336.89
568.224	283.06
568.648	369.66
569.073	376.68
569.497	297.1
569.922	329.87
570.346	299.44
570.771	280.72
571.195	280.72
571.619	297.1
572.043	332.21
572.467	325.19
572.891	278.38
573.315	292.42
573.739	269.02
574.163	285.4
574.587	306.46
575.011	301.78
575.435	304.12
575.858	292.42
576.282	336.89
576.705	329.87
577.129	346.25
577.552	327.53
577.976	318.17
578.399	306.46
578.822	252.63
579.245	357.96
579.669	240.93
580.092	367.32
580.515	306.46
580.938	311.14
581.361	318.17
581.784	311.14
582.206	322.85
582.629	301.78
583.052	285.4
583.474	334.55
583.897	290.08
584.32	290.08
584.742	285.4
585.165	290.08
585.587	353.27
586.009	301.78
586.431	315.83
586.854	285.4
587.276	325.19
587.698	292.42
588.12	341.57
588.542	325.19
588.964	322.85
589.386	278.38
589.807	346.25
590.229	299.44
590.651	287.74
591.073	336.89
591.494	329.87
591.916	315.83
592.337	311.14
592.759	353.27
593.18	278.38
593.601	355.62
594.022	306.46
594.444	322.85
594.865	320.51
595.286	320.51
595.707	273.7
596.128	325.19
596.549	261.99
596.97	233.91
597.39	247.95
597.811	313.49
598.232	329.87
598.652	315.83
599.073	273.7
599.494	318.17
599.914	257.31
600.334	322.85
600.755	269.02
601.175	341.57
601.595	297.1
602.015	308.8
602.436	322.85
602.856	409.45
603.276	332.21
603.696	334.55
604.115	362.64
604.535	308.8
604.955	357.96
605.375	336.89
605.794	325.19
606.214	287.74
606.634	306.46
607.053	308.8
607.473	259.65
607.892	315.83
608.311	264.33
608.731	278.38
609.15	343.91
609.569	283.06
609.988	357.96
610.407	294.76
610.826	306.46
611.245	329.87
611.664	350.93
612.083	322.85
612.501	327.53
612.92	325.19
613.339	332.21
613.757	308.8
614.176	271.36
614.594	301.78
615.013	348.59
615.431	327.53
615.85	348.59
616.268	264.33
616.686	276.04
617.104	350.93
617.522	353.27
617.94	266.67
618.358	350.93
618.776	322.85
619.194	336.89
619.612	306.46
620.03	374.34
620.447	360.3
620.865	332.21
621.282	315.83
621.7	334.55
622.117	372
622.535	229.23
622.952	285.4
623.369	329.87
623.787	339.23
624.204	297.1
624.621	266.67
625.038	369.66
625.455	313.49
625.872	346.25
626.289	386.04
626.706	364.98
627.123	332.21
627.539	360.3
627.956	334.55
628.373	355.62
628.789	297.1
629.206	327.53
629.622	364.98
630.038	297.1
630.455	357.96
630.871	372
631.287	231.57
631.703	306.46
632.12	315.83
632.536	402.43
632.952	283.06
633.368	334.55
633.783	386.04
634.199	264.33
634.615	315.83
635.031	308.8
635.446	311.14
635.862	318.17
636.277	318.17
636.693	367.32
637.108	311.14
637.524	280.72
637.939	325.19
638.354	264.33
638.77	304.12
639.185	313.49
639.6	297.1
640.015	348.59
640.43	313.49
640.845	327.53
641.259	350.93
641.674	273.7
642.089	336.89
642.504	294.76
642.918	306.46
643.333	322.85
643.747	322.85
644.162	343.91
644.576	313.49
644.991	264.33
645.405	285.4
645.819	285.4
646.233	334.55
646.647	341.57
647.061	308.8
647.475	266.67
647.889	290.08
648.303	343.91
648.717	280.72
649.131	264.33
649.545	276.04
649.958	320.51
650.372	292.42
650.785	376.68
651.199	238.59
651.612	304.12
652.026	346.25
652.439	336.89
652.852	369.66
653.266	285.4
653.679	294.76
654.092	329.87
654.505	306.46
654.918	285.4
655.331	299.44
655.744	332.21
656.156	318.17
656.569	269.02
656.982	308.8
657.394	264.33
657.807	280.72
658.22	287.74
658.632	325.19
659.044	306.46
659.457	313.49
659.869	301.78
660.281	329.87
660.693	245.61
661.106	297.1
661.518	308.8
661.93	379.02
662.342	346.25
662.754	346.25
663.165	292.42
663.577	259.65
663.989	294.76
664.401	334.55
664.812	306.46
665.224	318.17
665.635	273.7
666.047	374.34
666.458	315.83
666.869	292.42
667.281	339.23
667.692	252.63
668.103	320.51
668.514	287.74
668.925	327.53
669.336	318.17
669.747	254.97
670.158	318.17
670.569	334.55
670.979	357.96
671.39	283.06
671.801	304.12
672.211	348.59
672.622	301.78
673.032	271.36
673.443	336.89
673.853	285.4
674.263	346.25
674.674	327.53
675.084	348.59
675.494	357.96
675.904	304.12
676.314	306.46
676.724	273.7
677.134	322.85
677.544	271.36
677.953	294.76
678.363	343.91
678.773	271.36
679.182	257.31
679.592	329.87
680.001	304.12
680.411	306.46
680.82	287.74
681.23	313.49
681.639	360.3
682.048	318.17
682.457	297.1
682.866	273.7
683.275	257.31
683.684	313.49
684.093	348.59
684.502	325.19
684.911	271.36
685.32	336.89
685.728	285.4
686.137	304.12
686.546	283.06
686.954	376.68
687.363	259.65
687.771	266.67
688.179	322.85
688.588	280.72
688.996	290.08
689.404	325.19
689.812	346.25
690.22	322.85
690.628	334.55
691.036	386.04
691.444	343.91
691.852	301.78
692.26	299.44
692.667	297.1
693.075	341.57
693.483	287.74
693.89	290.08
694.298	325.19
694.705	278.38
695.112	290.08
695.52	315.83
695.927	301.78
696.334	278.38
696.741	311.14
697.148	357.96
697.555	329.87
697.962	261.99
698.369	372
698.776	276.04
699.183	318.17
699.59	294.76
699.996	306.46
700.403	343.91
700.81	308.8
701.216	297.1
701.623	304.12
702.029	301.78
702.435	264.33
702.842	329.87
703.248	343.91
703.654	285.4
704.06	332.21
704.466	322.85
704.872	327.53
705.278	339.23
705.684	355.62
706.09	304.12
706.496	308.8
706.901	287.74
707.307	299.44
707.712	348.59
708.118	313.49
708.523	334.55
708.929	362.64
709.334	301.78
709.74	299.44
710.145	322.85
710.55	287.74
710.955	372
711.36	355.62
711.765	264.33
712.17	299.44
712.575	283.06
712.98	966.49
713.385	343.91
713.789	346.25
714.194	311.14
714.599	308.8
715.003	308.8
715.408	343.91
715.812	329.87
716.217	318.17
716.621	269.02
717.025	343.91
717.429	301.78
717.833	280.72
718.238	273.7
718.642	329.87
719.046	306.46
719.449	346.25
719.853	273.7
720.257	336.89
720.661	336.89
721.065	254.97
721.468	353.27
721.872	238.59
722.275	320.51
722.679	325.19
723.082	360.3
723.485	283.06
723.889	304.12
724.292	318.17
724.695	250.29
725.098	266.67
725.501	210.5
725.904	299.44
726.307	287.74
726.71	367.32
727.113	327.53
727.516	257.31
727.918	301.78
728.321	297.1
728.724	350.93
729.126	292.42
729.529	304.12
729.931	294.76
730.333	320.51
730.736	243.27
731.138	285.4
731.54	285.4
731.942	322.85
732.344	238.59
732.746	315.83
733.148	318.17
733.55	327.53
733.952	332.21
734.354	299.44
734.756	292.42
735.157	240.93
735.559	283.06
735.96	397.74
736.362	315.83
736.763	285.4
737.165	273.7
737.566	294.76
737.967	313.49
738.368	343.91
738.77	285.4
739.171	332.21
739.572	299.44
739.973	294.76
740.374	254.97
740.774	346.25
741.175	257.31
741.576	353.27
741.977	327.53
742.377	318.17
742.778	362.64
743.178	322.85
743.579	306.46
743.979	315.83
744.379	297.1
744.78	357.96
745.18	304.12
745.58	311.14
745.98	320.51
746.38	306.46
746.78	369.66
747.18	299.44
747.58	257.31
747.98	266.67
748.38	339.23
748.779	294.76
749.179	236.25
749.578	379.02
749.978	285.4
750.377	336.89
750.777	294.76
751.176	290.08
751.575	332.21
751.975	280.72
752.374	301.78
752.773	360.3
753.172	315.83
753.571	327.53
753.97	334.55
754.369	299.44
754.768	379.02
755.166	315.83
755.565	339.23
755.964	334.55
756.362	315.83
756.761	379.02
757.159	315.83
757.558	276.04
757.956	339.23
758.354	357.96
758.753	313.49
759.151	334.55
759.549	332.21
759.947	308.8
760.345	308.8
760.743	318.17
761.141	278.38
761.539	341.57
761.936	339.23
762.334	353.27
762.732	334.55
763.129	311.14
763.527	308.8
763.924	304.12
764.322	306.46
764.719	334.55
765.117	313.49
765.514	292.42
765.911	350.93
766.308	240.93
