Data from Al_FLMS009871__1292__16-49-40-068.txt Node

Date: Fri Mar 08 16:49:40 CST 2024
User: pe5414po
Spectrometer: FLMS00987
Trigger mode: 0
Integration Time (sec): 1.000000E-1
Scans to average: 1
Electric dark correction enabled: true
Nonlinearity correction enabled: false
Boxcar width: 0
XAxis mode: Wavelengths
Number of Pixels in Spectrum: 2048
>>>>>Begin Spectral Data<<<<<
188.938	-165.3
189.409	-165.3
189.879	-165.3
190.349	-83.38
190.819	-92.74
191.29	-52.95
191.76	-123.17
192.23	-71.68
192.7	-132.53
193.17	-76.36
193.64	-20.19
194.109	-45.93
194.579	-29.55
195.049	0.88
195.519	71.09
195.988	10.24
196.458	64.07
196.927	5.56
197.397	73.43
197.866	131.95
198.336	195.14
198.805	80.46
199.274	169.4
199.744	202.16
200.213	185.78
200.682	216.21
201.151	225.57
201.62	218.55
202.089	211.53
202.558	263.02
203.027	270.04
203.495	302.81
203.964	241.95
204.433	258.34
204.902	227.91
205.37	267.7
205.839	279.4
206.307	305.15
206.776	267.7
207.244	274.72
207.712	286.42
208.181	286.42
208.649	272.38
209.117	244.29
209.585	302.81
210.053	216.21
210.521	234.93
210.989	284.08
211.457	316.85
211.925	279.4
212.393	223.23
212.861	265.36
213.328	260.68
213.796	230.25
214.264	267.7
214.731	253.66
215.199	209.19
215.666	244.29
216.133	291.1
216.601	230.25
217.068	256
217.535	260.68
218.003	265.36
218.47	265.36
218.937	253.66
219.404	260.68
219.871	295.79
220.338	312.17
220.805	199.82
221.271	237.27
221.738	202.16
222.205	277.06
222.671	270.04
223.138	279.4
223.605	265.36
224.071	188.12
224.538	295.79
225.004	230.25
225.47	211.53
225.937	223.23
226.403	181.1
226.869	258.34
227.335	319.19
227.801	258.34
228.267	267.7
228.733	246.63
229.199	230.25
229.665	260.68
230.131	230.25
230.597	300.47
231.062	241.95
231.528	239.61
231.994	277.06
232.459	248.97
232.925	270.04
233.39	234.93
233.856	258.34
234.321	164.72
234.786	291.1
235.252	305.15
235.717	232.59
236.182	291.1
236.647	258.34
237.112	218.55
237.577	333.23
238.042	239.61
238.507	358.98
238.972	234.93
239.436	340.26
239.901	291.1
240.366	267.7
240.83	213.87
241.295	218.55
241.76	321.53
242.224	335.57
242.688	291.1
243.153	300.47
243.617	279.4
244.081	237.27
244.545	253.66
245.01	293.44
245.474	284.08
245.938	309.83
246.402	256
246.866	256
247.33	260.68
247.793	307.49
248.257	293.44
248.721	218.55
249.185	260.68
249.648	267.7
250.112	281.74
250.575	223.23
251.039	241.95
251.502	272.38
251.965	239.61
252.429	237.27
252.892	300.47
253.355	291.1
253.818	284.08
254.281	366
254.744	274.72
255.207	251.32
255.67	246.63
256.133	302.81
256.596	293.44
257.059	265.36
257.522	277.06
257.984	213.87
258.447	256
258.909	288.76
259.372	321.53
259.834	295.79
260.297	263.02
260.759	284.08
261.221	244.29
261.684	246.63
262.146	263.02
262.608	279.4
263.07	312.17
263.532	316.85
263.994	312.17
264.456	246.63
264.918	309.83
265.38	298.13
265.842	225.57
266.303	302.81
266.765	270.04
267.227	293.44
267.688	220.89
268.15	251.32
268.611	284.08
269.072	356.64
269.534	279.4
269.995	230.25
270.456	277.06
270.918	227.91
271.379	260.68
271.84	291.1
272.301	291.1
272.762	314.51
273.223	274.72
273.684	267.7
274.144	270.04
274.605	302.81
275.066	267.7
275.527	298.13
275.987	300.47
276.448	309.83
276.908	312.17
277.369	319.19
277.829	248.97
278.289	284.08
278.75	274.72
279.21	260.68
279.67	293.44
280.13	314.51
280.59	260.68
281.05	279.4
281.51	319.19
281.97	298.13
282.43	347.28
282.89	281.74
283.35	225.57
283.809	260.68
284.269	309.83
284.729	321.53
285.188	274.72
285.648	284.08
286.107	263.02
286.567	288.76
287.026	251.32
287.485	312.17
287.944	270.04
288.404	246.63
288.863	272.38
289.322	253.66
289.781	256
290.24	323.87
290.699	246.63
291.158	316.85
291.616	251.32
292.075	349.62
292.534	220.89
292.992	302.81
293.451	267.7
293.91	314.51
294.368	274.72
294.827	253.66
295.285	232.59
295.743	234.93
296.202	234.93
296.66	288.76
297.118	251.32
297.576	272.38
298.034	284.08
298.492	270.04
298.95	281.74
299.408	286.42
299.866	274.72
300.324	279.4
300.781	319.19
301.239	298.13
301.697	216.21
302.154	265.36
302.612	319.19
303.069	260.68
303.527	323.87
303.984	218.55
304.441	265.36
304.899	344.94
305.356	253.66
305.813	319.19
306.27	265.36
306.727	256
307.184	295.79
307.641	274.72
308.098	260.68
308.555	227.91
309.012	293.44
309.468	295.79
309.925	316.85
310.382	333.23
310.838	260.68
311.295	344.94
311.751	295.79
312.208	253.66
312.664	305.15
313.12	342.6
313.577	314.51
314.033	281.74
314.489	316.85
314.945	319.19
315.401	319.19
315.857	253.66
316.313	326.21
316.769	309.83
317.225	307.49
317.681	237.27
318.136	251.32
318.592	361.32
319.048	349.62
319.503	337.91
319.959	251.32
320.414	351.96
320.869	281.74
321.325	340.26
321.78	274.72
322.235	380.04
322.691	291.1
323.146	302.81
323.601	307.49
324.056	270.04
324.511	347.28
324.966	288.76
325.421	312.17
325.875	277.06
326.33	258.34
326.785	293.44
327.24	305.15
327.694	298.13
328.149	305.15
328.603	337.91
329.058	293.44
329.512	333.23
329.966	272.38
330.421	286.42
330.875	274.72
331.329	307.49
331.783	239.61
332.237	307.49
332.691	328.55
333.145	368.34
333.599	272.38
334.053	295.79
334.507	356.64
334.96	293.44
335.414	316.85
335.868	316.85
336.321	272.38
336.775	265.36
337.228	302.81
337.682	253.66
338.135	314.51
338.588	270.04
339.042	382.39
339.495	330.89
339.948	246.63
340.401	342.6
340.854	305.15
341.307	295.79
341.76	330.89
342.213	326.21
342.666	277.06
343.119	277.06
343.571	323.87
344.024	288.76
344.477	309.83
344.929	291.1
345.382	281.74
345.834	333.23
346.287	291.1
346.739	270.04
347.191	307.49
347.644	302.81
348.096	333.23
348.548	288.76
349	267.7
349.452	267.7
349.904	270.04
350.356	263.02
350.808	220.89
351.26	258.34
351.711	295.79
352.163	328.55
352.615	321.53
353.066	342.6
353.518	319.19
353.969	272.38
354.421	335.57
354.872	279.4
355.324	323.87
355.775	288.76
356.226	368.34
356.677	286.42
357.128	309.83
357.579	309.83
358.03	366
358.481	293.44
358.932	258.34
359.383	321.53
359.834	312.17
360.285	354.3
360.735	256
361.186	328.55
361.637	241.95
362.087	288.76
362.538	239.61
362.988	358.98
363.438	265.36
363.889	263.02
364.339	300.47
364.789	286.42
365.239	307.49
365.689	349.62
366.139	307.49
366.589	274.72
367.039	305.15
367.489	319.19
367.939	288.76
368.389	403.45
368.839	354.3
369.288	291.1
369.738	237.27
370.187	272.38
370.637	302.81
371.086	225.57
371.536	330.89
371.985	354.3
372.434	326.21
372.884	288.76
373.333	288.76
373.782	288.76
374.231	244.29
374.68	342.6
375.129	267.7
375.578	244.29
376.027	319.19
376.475	298.13
376.924	314.51
377.373	277.06
377.822	260.68
378.27	307.49
378.719	248.97
379.167	342.6
379.616	366
380.064	220.89
380.512	263.02
380.961	309.83
381.409	272.38
381.857	298.13
382.305	314.51
382.753	344.94
383.201	330.89
383.649	293.44
384.097	286.42
384.545	319.19
384.992	309.83
385.44	274.72
385.888	391.75
386.335	319.19
386.783	401.11
387.231	335.57
387.678	312.17
388.125	263.02
388.573	274.72
389.02	281.74
389.467	267.7
389.914	256
390.362	316.85
390.809	274.72
391.256	307.49
391.703	267.7
392.15	260.68
392.596	305.15
393.043	260.68
393.49	314.51
393.937	328.55
394.383	291.1
394.83	291.1
395.276	305.15
395.723	351.96
396.169	330.89
396.616	354.3
397.062	265.36
397.508	291.1
397.954	248.97
398.401	326.21
398.847	309.83
399.293	335.57
399.739	284.08
400.185	305.15
400.631	239.61
401.076	316.85
401.522	309.83
401.968	344.94
402.414	347.28
402.859	319.19
403.305	319.19
403.75	307.49
404.196	277.06
404.641	260.68
405.086	326.21
405.532	298.13
405.977	319.19
406.422	300.47
406.867	314.51
407.312	366
407.757	356.64
408.202	288.76
408.647	340.26
409.092	319.19
409.537	279.4
409.982	279.4
410.426	281.74
410.871	363.66
411.316	298.13
411.76	319.19
412.205	277.06
412.649	302.81
413.093	351.96
413.538	267.7
413.982	326.21
414.426	361.32
414.87	293.44
415.314	347.28
415.758	314.51
416.202	295.79
416.646	366
417.09	387.07
417.534	321.53
417.978	356.64
418.421	281.74
418.865	265.36
419.309	312.17
419.752	298.13
420.196	284.08
420.639	274.72
421.083	321.53
421.526	293.44
421.969	337.91
422.412	316.85
422.856	316.85
423.299	256
423.742	316.85
424.185	321.53
424.628	286.42
425.071	277.06
425.513	312.17
425.956	267.7
426.399	274.72
426.842	305.15
427.284	295.79
427.727	312.17
428.169	328.55
428.612	330.89
429.054	309.83
429.497	220.89
429.939	302.81
430.381	274.72
430.823	335.57
431.265	293.44
431.707	272.38
432.149	298.13
432.591	326.21
433.033	347.28
433.475	256
433.917	326.21
434.359	314.51
434.8	206.84
435.242	302.81
435.684	284.08
436.125	361.32
436.567	295.79
437.008	340.26
437.449	284.08
437.891	354.3
438.332	277.06
438.773	291.1
439.214	363.66
439.656	284.08
440.097	356.64
440.538	281.74
440.978	340.26
441.419	337.91
441.86	340.26
442.301	354.3
442.742	340.26
443.182	344.94
443.623	358.98
444.063	298.13
444.504	309.83
444.944	344.94
445.385	333.23
445.825	288.76
446.265	295.79
446.706	302.81
447.146	258.34
447.586	375.36
448.026	230.25
448.466	375.36
448.906	312.17
449.346	248.97
449.786	340.26
450.225	295.79
450.665	302.81
451.105	256
451.544	300.47
451.984	223.23
452.424	300.47
452.863	260.68
453.302	260.68
453.742	307.49
454.181	286.42
454.62	316.85
455.059	309.83
455.499	277.06
455.938	188.12
456.377	351.96
456.816	244.29
457.254	298.13
457.693	333.23
458.132	270.04
458.571	328.55
459.01	274.72
459.448	300.47
459.887	314.51
460.325	295.79
460.764	349.62
461.202	335.57
461.641	335.57
462.079	319.19
462.517	305.15
462.955	302.81
463.393	295.79
463.832	328.55
464.27	293.44
464.708	295.79
465.145	265.36
465.583	295.79
466.021	335.57
466.459	298.13
466.897	333.23
467.334	293.44
467.772	361.32
468.209	286.42
468.647	351.96
469.084	342.6
469.522	326.21
469.959	258.34
470.396	291.1
470.833	272.38
471.271	300.47
471.708	281.74
472.145	328.55
472.582	316.85
473.019	354.3
473.456	335.57
473.892	358.98
474.329	330.89
474.766	300.47
475.202	277.06
475.639	319.19
476.076	363.66
476.512	377.7
476.949	298.13
477.385	263.02
477.821	312.17
478.258	277.06
478.694	284.08
479.13	253.66
479.566	312.17
480.002	298.13
480.438	333.23
480.874	279.4
481.31	340.26
481.746	368.34
482.181	277.06
482.617	305.15
483.053	351.96
483.488	279.4
483.924	270.04
484.36	333.23
484.795	305.15
485.23	291.1
485.666	248.97
486.101	248.97
486.536	267.7
486.971	286.42
487.407	330.89
487.842	244.29
488.277	356.64
488.712	337.91
489.146	351.96
489.581	288.76
490.016	307.49
490.451	279.4
490.885	279.4
491.32	258.34
491.755	300.47
492.189	277.06
492.624	361.32
493.058	300.47
493.492	366
493.927	284.08
494.361	309.83
494.795	314.51
495.229	284.08
495.663	302.81
496.097	307.49
496.531	246.63
496.965	295.79
497.399	373.02
497.833	298.13
498.266	337.91
498.7	288.76
499.134	333.23
499.567	333.23
500.001	281.74
500.434	274.72
500.868	403.45
501.301	323.87
501.734	281.74
502.168	293.44
502.601	340.26
503.034	260.68
503.467	333.23
503.9	246.63
504.333	316.85
504.766	274.72
505.199	337.91
505.632	366
506.064	368.34
506.497	323.87
506.93	330.89
507.362	363.66
507.795	326.21
508.227	312.17
508.66	272.38
509.092	326.21
509.524	295.79
509.956	305.15
510.389	270.04
510.821	307.49
511.253	309.83
511.685	337.91
512.117	305.15
512.549	342.6
512.981	267.7
513.412	368.34
513.844	237.27
514.276	192.8
514.707	337.91
515.139	351.96
515.571	340.26
516.002	307.49
516.433	291.1
516.865	326.21
517.296	337.91
517.727	321.53
518.159	305.15
518.59	293.44
519.021	248.97
519.452	326.21
519.883	265.36
520.314	356.64
520.744	354.3
521.175	389.41
521.606	300.47
522.037	316.85
522.467	307.49
522.898	305.15
523.328	277.06
523.759	312.17
524.189	375.36
524.62	351.96
525.05	333.23
525.48	286.42
525.91	335.57
526.341	260.68
526.771	305.15
527.201	337.91
527.631	272.38
528.061	300.47
528.49	248.97
528.92	319.19
529.35	302.81
529.78	279.4
530.209	293.44
530.639	314.51
531.068	340.26
531.498	312.17
531.927	300.47
532.357	316.85
532.786	319.19
533.215	251.32
533.644	307.49
534.074	284.08
534.503	230.25
534.932	279.4
535.361	347.28
535.79	272.38
536.218	284.08
536.647	370.68
537.076	323.87
537.505	288.76
537.933	270.04
538.362	274.72
538.79	337.91
539.219	309.83
539.647	309.83
540.076	333.23
540.504	270.04
540.932	237.27
541.36	335.57
541.788	279.4
542.217	309.83
542.645	286.42
543.073	293.44
543.5	300.47
543.928	309.83
544.356	312.17
544.784	300.47
545.211	298.13
545.639	279.4
546.067	270.04
546.494	344.94
546.922	251.32
547.349	319.19
547.776	277.06
548.204	295.79
548.631	305.15
549.058	300.47
549.485	260.68
549.912	314.51
550.339	328.55
550.766	309.83
551.193	330.89
551.62	272.38
552.047	291.1
552.474	279.4
552.9	284.08
553.327	260.68
553.754	302.81
554.18	274.72
554.607	351.96
555.033	307.49
555.459	323.87
555.886	293.44
556.312	312.17
556.738	277.06
557.164	366
557.59	300.47
558.016	270.04
558.442	298.13
558.868	263.02
559.294	284.08
559.72	293.44
560.145	277.06
560.571	305.15
560.997	330.89
561.422	246.63
561.848	307.49
562.273	366
562.699	286.42
563.124	223.23
563.549	312.17
563.974	319.19
564.4	373.02
564.825	305.15
565.25	258.34
565.675	363.66
566.1	293.44
566.525	309.83
566.95	272.38
567.374	291.1
567.799	314.51
568.224	349.62
568.648	335.57
569.073	335.57
569.497	316.85
569.922	305.15
570.346	302.81
570.771	258.34
571.195	300.47
571.619	347.28
572.043	342.6
572.467	330.89
572.891	291.1
573.315	316.85
573.739	312.17
574.163	342.6
574.587	326.21
575.011	302.81
575.435	333.23
575.858	326.21
576.282	333.23
576.705	337.91
577.129	326.21
577.552	253.66
577.976	389.41
578.399	272.38
578.822	270.04
579.245	300.47
579.669	316.85
580.092	319.19
580.515	288.76
580.938	328.55
581.361	237.27
581.784	253.66
582.206	274.72
582.629	347.28
583.052	302.81
583.474	335.57
583.897	330.89
584.32	293.44
584.742	349.62
585.165	293.44
585.587	305.15
586.009	326.21
586.431	349.62
586.854	279.4
587.276	270.04
587.698	342.6
588.12	258.34
588.542	326.21
588.964	286.42
589.386	295.79
589.807	380.04
590.229	323.87
590.651	291.1
591.073	323.87
591.494	337.91
591.916	281.74
592.337	337.91
592.759	298.13
593.18	300.47
593.601	293.44
594.022	279.4
594.444	293.44
594.865	314.51
595.286	270.04
595.707	256
596.128	347.28
596.549	340.26
596.97	314.51
597.39	309.83
597.811	227.91
598.232	265.36
598.652	302.81
599.073	300.47
599.494	265.36
599.914	316.85
600.334	387.07
600.755	288.76
601.175	293.44
601.595	307.49
602.015	342.6
602.436	349.62
602.856	506.43
603.276	302.81
603.696	309.83
604.115	248.97
604.535	274.72
604.955	330.89
605.375	307.49
605.794	307.49
606.214	286.42
606.634	387.07
607.053	312.17
607.473	277.06
607.892	337.91
608.311	300.47
608.731	312.17
609.15	298.13
609.569	394.09
609.988	288.76
610.407	354.3
610.826	363.66
611.245	337.91
611.664	321.53
612.083	323.87
612.501	305.15
612.92	291.1
613.339	298.13
613.757	293.44
614.176	281.74
614.594	337.91
615.013	251.32
615.431	314.51
615.85	288.76
616.268	363.66
616.686	321.53
617.104	328.55
617.522	375.36
617.94	314.51
618.358	314.51
618.776	265.36
619.194	298.13
619.612	293.44
620.03	267.7
620.447	314.51
620.865	326.21
621.282	244.29
621.7	382.39
622.117	328.55
622.535	328.55
622.952	323.87
623.369	312.17
623.787	314.51
624.204	298.13
624.621	298.13
625.038	361.32
625.455	293.44
625.872	436.22
626.289	314.51
626.706	323.87
627.123	323.87
627.539	298.13
627.956	337.91
628.373	394.09
628.789	333.23
629.206	333.23
629.622	281.74
630.038	288.76
630.455	279.4
630.871	253.66
631.287	258.34
631.703	246.63
632.12	272.38
632.536	300.47
632.952	288.76
633.368	291.1
633.783	270.04
634.199	284.08
634.615	298.13
635.031	281.74
635.446	312.17
635.862	295.79
636.277	368.34
636.693	281.74
637.108	326.21
637.524	354.3
637.939	291.1
638.354	288.76
638.77	330.89
639.185	291.1
639.6	272.38
640.015	293.44
640.43	291.1
640.845	298.13
641.259	274.72
641.674	326.21
642.089	241.95
642.504	274.72
642.918	342.6
643.333	270.04
643.747	286.42
644.162	361.32
644.576	302.81
644.991	347.28
645.405	366
645.819	253.66
646.233	291.1
646.647	335.57
647.061	284.08
647.475	302.81
647.889	344.94
648.303	256
648.717	295.79
649.131	330.89
649.545	265.36
649.958	258.34
650.372	293.44
650.785	286.42
651.199	302.81
651.612	284.08
652.026	347.28
652.439	274.72
652.852	258.34
653.266	330.89
653.679	279.4
654.092	307.49
654.505	326.21
654.918	347.28
655.331	284.08
655.744	342.6
656.156	337.91
656.569	337.91
656.982	349.62
657.394	237.27
657.807	370.68
658.22	307.49
658.632	302.81
659.044	330.89
659.457	358.98
659.869	286.42
660.281	248.97
660.693	321.53
661.106	363.66
661.518	302.81
661.93	323.87
662.342	225.57
662.754	382.39
663.165	319.19
663.577	316.85
663.989	267.7
664.401	326.21
664.812	394.09
665.224	330.89
665.635	319.19
666.047	361.32
666.458	281.74
666.869	270.04
667.281	288.76
667.692	330.89
668.103	295.79
668.514	307.49
668.925	258.34
669.336	380.04
669.747	293.44
670.158	347.28
670.569	295.79
670.979	286.42
671.39	333.23
671.801	279.4
672.211	382.39
672.622	342.6
673.032	347.28
673.443	314.51
673.853	323.87
674.263	314.51
674.674	342.6
675.084	298.13
675.494	375.36
675.904	305.15
676.314	234.93
676.724	309.83
677.134	328.55
677.544	321.53
677.953	351.96
678.363	302.81
678.773	373.02
679.182	307.49
679.592	256
680.001	351.96
680.411	335.57
680.82	300.47
681.23	244.29
681.639	274.72
682.048	239.61
682.457	328.55
682.866	340.26
683.275	288.76
683.684	321.53
684.093	253.66
684.502	260.68
684.911	321.53
685.32	305.15
685.728	284.08
686.137	326.21
686.546	319.19
686.954	270.04
687.363	263.02
687.771	298.13
688.179	272.38
688.588	293.44
688.996	309.83
689.404	340.26
689.812	319.19
690.22	363.66
690.628	316.85
691.036	316.85
691.444	284.08
691.852	312.17
692.26	281.74
692.667	319.19
693.075	272.38
693.483	312.17
693.89	340.26
694.298	232.59
694.705	335.57
695.112	307.49
695.52	307.49
695.927	307.49
696.334	239.61
696.741	239.61
697.148	323.87
697.555	244.29
697.962	314.51
698.369	319.19
698.776	356.64
699.183	314.51
699.59	335.57
699.996	267.7
700.403	335.57
700.81	260.68
701.216	286.42
701.623	347.28
702.029	300.47
702.435	309.83
702.842	272.38
703.248	351.96
703.654	270.04
704.06	326.21
704.466	349.62
704.872	312.17
705.278	309.83
705.684	319.19
706.09	291.1
706.496	260.68
706.901	265.36
707.307	373.02
707.712	321.53
708.118	330.89
708.523	267.7
708.929	316.85
709.334	356.64
709.74	237.27
710.145	330.89
710.55	239.61
710.955	248.97
711.36	241.95
711.765	312.17
712.17	260.68
712.575	314.51
712.98	923.05
713.385	277.06
713.789	307.49
714.194	258.34
714.599	328.55
715.003	291.1
715.408	277.06
715.812	309.83
716.217	305.15
716.621	270.04
717.025	284.08
717.429	300.47
717.833	316.85
718.238	309.83
718.642	351.96
719.046	344.94
719.449	288.76
719.853	211.53
720.257	344.94
720.661	323.87
721.065	272.38
721.468	197.48
721.872	277.06
722.275	319.19
722.679	309.83
723.082	349.62
723.485	260.68
723.889	286.42
724.292	284.08
724.695	330.89
725.098	270.04
725.501	234.93
725.904	300.47
726.307	279.4
726.71	274.72
727.113	319.19
727.516	279.4
727.918	330.89
728.321	333.23
728.724	349.62
729.126	321.53
729.529	347.28
729.931	288.76
730.333	342.6
730.736	209.19
731.138	312.17
731.54	321.53
731.942	342.6
732.344	267.7
732.746	307.49
733.148	312.17
733.55	316.85
733.952	300.47
734.354	272.38
734.756	291.1
735.157	312.17
735.559	234.93
735.96	368.34
736.362	358.98
736.763	274.72
737.165	279.4
737.566	223.23
737.967	274.72
738.368	298.13
738.77	260.68
739.171	361.32
739.572	291.1
739.973	260.68
740.374	277.06
740.774	286.42
741.175	305.15
741.576	316.85
741.977	295.79
742.377	263.02
742.778	342.6
743.178	272.38
743.579	323.87
743.979	319.19
744.379	246.63
744.78	234.93
745.18	265.36
745.58	206.84
745.98	307.49
746.38	260.68
746.78	321.53
747.18	256
747.58	302.81
747.98	314.51
748.38	286.42
748.779	246.63
749.179	302.81
749.578	316.85
749.978	309.83
750.377	300.47
750.777	330.89
751.176	288.76
751.575	309.83
751.975	288.76
752.374	344.94
752.773	307.49
753.172	300.47
753.571	307.49
753.97	281.74
754.369	272.38
754.768	286.42
755.166	373.02
755.565	281.74
755.964	288.76
756.362	316.85
756.761	333.23
757.159	277.06
757.558	265.36
757.956	286.42
758.354	300.47
758.753	337.91
759.151	263.02
759.549	288.76
759.947	267.7
760.345	256
760.743	307.49
761.141	293.44
761.539	267.7
761.936	248.97
762.334	246.63
762.732	267.7
763.129	302.81
763.527	291.1
763.924	323.87
764.322	293.44
764.719	281.74
765.117	274.72
765.514	279.4
765.911	272.38
766.308	288.76
766.705	256
767.102	316.85
