Data from Al_FLMS009871__1280__16-49-38-866.txt Node

Date: Fri Mar 08 16:49:38 CST 2024
User: pe5414po
Spectrometer: FLMS00987
Trigger mode: 0
Integration Time (sec): 1.000000E-1
Scans to average: 1
Electric dark correction enabled: true
Nonlinearity correction enabled: false
Boxcar width: 0
XAxis mode: Wavelengths
Number of Pixels in Spectrum: 2048
>>>>>Begin Spectral Data<<<<<
188.938	-36.42
189.409	-36.42
189.879	-36.42
190.349	-80.89
190.819	-125.36
191.29	-111.32
191.76	-130.05
192.23	-55.15
192.7	-66.85
193.17	-90.26
193.64	-41.11
194.109	-50.47
194.579	1.02
195.049	-22.38
195.519	-6
195.988	17.41
196.458	106.35
196.927	113.37
197.397	96.99
197.866	111.03
198.336	127.41
198.805	143.8
199.274	211.67
199.744	190.61
200.213	169.54
200.682	218.69
201.151	246.78
201.62	204.65
202.089	199.97
202.558	211.67
203.027	251.46
203.495	190.61
203.964	239.76
204.433	331.04
204.902	293.59
205.37	253.8
205.839	288.91
206.307	204.65
206.776	298.27
207.244	274.87
207.712	239.76
208.181	267.85
208.649	277.21
209.117	216.35
209.585	312.32
210.053	307.63
210.521	293.59
210.989	251.46
211.457	291.25
211.925	279.55
212.393	253.8
212.861	288.91
213.328	244.44
213.796	272.53
214.264	253.8
214.731	258.48
215.199	263.16
215.666	249.12
216.133	267.85
216.601	277.21
217.068	251.46
217.535	221.03
218.003	237.42
218.47	274.87
218.937	279.55
219.404	277.21
219.871	242.1
220.338	218.69
220.805	256.14
221.271	230.4
221.738	288.91
222.205	221.03
222.671	279.55
223.138	214.01
223.605	251.46
224.071	225.72
224.538	204.65
225.004	202.31
225.47	272.53
225.937	277.21
226.403	263.16
226.869	249.12
227.335	246.78
227.801	225.72
228.267	251.46
228.733	286.57
229.199	209.33
229.665	242.1
230.131	258.48
230.597	239.76
231.062	223.37
231.528	237.42
231.994	258.48
232.459	288.91
232.925	256.14
233.39	225.72
233.856	256.14
234.321	223.37
234.786	253.8
235.252	274.87
235.717	216.35
236.182	293.59
236.647	258.48
237.112	249.12
237.577	242.1
238.042	328.7
238.507	265.5
238.972	288.91
239.436	265.5
239.901	291.25
240.366	235.08
240.83	185.93
241.295	244.44
241.76	242.1
242.224	272.53
242.688	300.61
243.153	225.72
243.617	305.29
244.081	202.31
244.545	267.85
245.01	235.08
245.474	281.89
245.938	270.19
246.402	284.23
246.866	288.91
247.33	258.48
247.793	249.12
248.257	324.02
248.721	214.01
249.185	309.97
249.648	256.14
250.112	321.68
250.575	232.74
251.039	305.29
251.502	188.27
251.965	288.91
252.429	270.19
252.892	281.89
253.355	232.74
253.818	286.57
254.281	295.93
254.744	249.12
255.207	221.03
255.67	230.4
256.133	284.23
256.596	349.76
257.059	242.1
257.522	331.04
257.984	279.55
258.447	237.42
258.909	274.87
259.372	295.93
259.834	288.91
260.297	305.29
260.759	242.1
261.221	279.55
261.684	293.59
262.146	300.61
262.608	331.04
263.07	281.89
263.532	253.8
263.994	209.33
264.456	267.85
264.918	256.14
265.38	272.53
265.842	300.61
266.303	307.63
266.765	204.65
267.227	284.23
267.688	272.53
268.15	258.48
268.611	267.85
269.072	263.16
269.534	284.23
269.995	211.67
270.456	242.1
270.918	246.78
271.379	328.7
271.84	298.27
272.301	317
272.762	277.21
273.223	265.5
273.684	272.53
274.144	281.89
274.605	277.21
275.066	321.68
275.527	293.59
275.987	230.4
276.448	258.48
276.908	242.1
277.369	331.04
277.829	298.27
278.289	284.23
278.75	307.63
279.21	319.34
279.67	214.01
280.13	263.16
280.59	345.08
281.05	263.16
281.51	239.76
281.97	263.16
282.43	314.66
282.89	286.57
283.35	258.48
283.809	307.63
284.269	258.48
284.729	232.74
285.188	284.23
285.648	302.95
286.107	253.8
286.567	260.82
287.026	239.76
287.485	317
287.944	218.69
288.404	277.21
288.863	295.93
289.322	279.55
289.781	230.4
290.24	317
290.699	326.36
291.158	298.27
291.616	295.93
292.075	260.82
292.534	286.57
292.992	281.89
293.451	295.93
293.91	199.97
294.368	263.16
294.827	302.95
295.285	230.4
295.743	251.46
296.202	345.08
296.66	267.85
297.118	279.55
297.576	204.65
298.034	230.4
298.492	291.25
298.95	265.5
299.408	230.4
299.866	281.89
300.324	331.04
300.781	300.61
301.239	293.59
301.697	256.14
302.154	319.34
302.612	321.68
303.069	324.02
303.527	284.23
303.984	345.08
304.441	300.61
304.899	298.27
305.356	298.27
305.813	279.55
306.27	295.93
306.727	244.44
307.184	291.25
307.641	244.44
308.098	263.16
308.555	298.27
309.012	249.12
309.468	263.16
309.925	291.25
310.382	366.15
310.838	295.93
311.295	293.59
311.751	263.16
312.208	272.53
312.664	319.34
313.12	270.19
313.577	331.04
314.033	286.57
314.489	286.57
314.945	277.21
315.401	272.53
315.857	326.36
316.313	312.32
316.769	270.19
317.225	382.53
317.681	239.76
318.136	253.8
318.592	335.72
319.048	239.76
319.503	281.89
319.959	363.81
320.414	286.57
320.869	352.1
321.325	228.06
321.78	319.34
322.235	314.66
322.691	349.76
323.146	270.19
323.601	246.78
324.056	258.48
324.511	293.59
324.966	288.91
325.421	333.38
325.875	312.32
326.33	279.55
326.785	288.91
327.24	319.34
327.694	270.19
328.149	326.36
328.603	235.08
329.058	309.97
329.512	272.53
329.966	300.61
330.421	272.53
330.875	230.4
331.329	295.93
331.783	277.21
332.237	281.89
332.691	309.97
333.145	298.27
333.599	279.55
334.053	288.91
334.507	286.57
334.96	267.85
335.414	356.79
335.868	300.61
336.321	244.44
336.775	256.14
337.228	274.87
337.682	309.97
338.135	244.44
338.588	291.25
339.042	260.82
339.495	288.91
339.948	319.34
340.401	300.61
340.854	314.66
341.307	277.21
341.76	286.57
342.213	314.66
342.666	295.93
343.119	349.76
343.571	317
344.024	373.17
344.477	321.68
344.929	274.87
345.382	279.55
345.834	286.57
346.287	277.21
346.739	265.5
347.191	274.87
347.644	384.87
348.096	312.32
348.548	312.32
349	242.1
349.452	363.81
349.904	216.35
350.356	307.63
350.808	293.59
351.26	295.93
351.711	342.74
352.163	319.34
352.615	338.06
353.066	288.91
353.518	293.59
353.969	302.95
354.421	281.89
354.872	286.57
355.324	328.7
355.775	242.1
356.226	288.91
356.677	277.21
357.128	363.81
357.579	314.66
358.03	338.06
358.481	338.06
358.932	242.1
359.383	277.21
359.834	256.14
360.285	244.44
360.735	258.48
361.186	324.02
361.637	321.68
362.087	312.32
362.538	277.21
362.988	302.95
363.438	228.06
363.889	302.95
364.339	317
364.789	242.1
365.239	293.59
365.689	326.36
366.139	349.76
366.589	324.02
367.039	244.44
367.489	293.59
367.939	305.29
368.389	279.55
368.839	293.59
369.288	286.57
369.738	321.68
370.187	326.36
370.637	272.53
371.086	335.72
371.536	256.14
371.985	373.17
372.434	300.61
372.884	291.25
373.333	338.06
373.782	307.63
374.231	314.66
374.68	389.55
375.129	338.06
375.578	291.25
376.027	342.74
376.475	279.55
376.924	335.72
377.373	281.89
377.822	309.97
378.27	382.53
378.719	338.06
379.167	291.25
379.616	258.48
380.064	342.74
380.512	267.85
380.961	361.47
381.409	286.57
381.857	214.01
382.305	279.55
382.753	256.14
383.201	335.72
383.649	270.19
384.097	324.02
384.545	352.1
384.992	279.55
385.44	314.66
385.888	272.53
386.335	270.19
386.783	307.63
387.231	333.38
387.678	354.44
388.125	253.8
388.573	309.97
389.02	272.53
389.467	246.78
389.914	324.02
390.362	305.29
390.809	253.8
391.256	328.7
391.703	284.23
392.15	302.95
392.596	345.08
393.043	272.53
393.49	328.7
393.937	279.55
394.383	274.87
394.83	328.7
395.276	272.53
395.723	286.57
396.169	272.53
396.616	256.14
397.062	286.57
397.508	253.8
397.954	307.63
398.401	370.83
398.847	317
399.293	340.4
399.739	249.12
400.185	258.48
400.631	293.59
401.076	249.12
401.522	326.36
401.968	302.95
402.414	326.36
402.859	265.5
403.305	274.87
403.75	300.61
404.196	274.87
404.641	300.61
405.086	307.63
405.532	326.36
405.977	244.44
406.422	256.14
406.867	356.79
407.312	281.89
407.757	361.47
408.202	356.79
408.647	288.91
409.092	324.02
409.537	328.7
409.982	321.68
410.426	281.89
410.871	281.89
411.316	321.68
411.76	300.61
412.205	377.85
412.649	305.29
413.093	338.06
413.538	242.1
413.982	328.7
414.426	312.32
414.87	279.55
415.314	267.85
415.758	356.79
416.202	333.38
416.646	288.91
417.09	347.42
417.534	298.27
417.978	366.15
418.421	260.82
418.865	375.51
419.309	300.61
419.752	324.02
420.196	305.29
420.639	309.97
421.083	347.42
421.526	347.42
421.969	302.95
422.412	288.91
422.856	253.8
423.299	286.57
423.742	286.57
424.185	246.78
424.628	253.8
425.071	305.29
425.513	302.95
425.956	293.59
426.399	312.32
426.842	328.7
427.284	293.59
427.727	317
428.169	307.63
428.612	307.63
429.054	356.79
429.497	331.04
429.939	305.29
430.381	328.7
430.823	314.66
431.265	295.93
431.707	312.32
432.149	335.72
432.591	272.53
433.033	288.91
433.475	284.23
433.917	340.4
434.359	342.74
434.8	253.8
435.242	272.53
435.684	246.78
436.125	242.1
436.567	218.69
437.008	347.42
437.449	295.93
437.891	317
438.332	277.21
438.773	288.91
439.214	305.29
439.656	265.5
440.097	272.53
440.538	288.91
440.978	281.89
441.419	237.42
441.86	349.76
442.301	361.47
442.742	361.47
443.182	314.66
443.623	312.32
444.063	302.95
444.504	302.95
444.944	284.23
445.385	307.63
445.825	307.63
446.265	331.04
446.706	359.13
447.146	387.21
447.586	333.38
448.026	286.57
448.466	312.32
448.906	349.76
449.346	335.72
449.786	270.19
450.225	284.23
450.665	377.85
451.105	321.68
451.544	277.21
451.984	389.55
452.424	326.36
452.863	242.1
453.302	288.91
453.742	354.44
454.181	298.27
454.62	328.7
455.059	258.48
455.499	295.93
455.938	338.06
456.377	324.02
456.816	324.02
457.254	288.91
457.693	270.19
458.132	263.16
458.571	373.17
459.01	284.23
459.448	342.74
459.887	338.06
460.325	305.29
460.764	314.66
461.202	242.1
461.641	317
462.079	286.57
462.517	274.87
462.955	302.95
463.393	263.16
463.832	319.34
464.27	354.44
464.708	274.87
465.145	340.4
465.583	263.16
466.021	309.97
466.459	300.61
466.897	354.44
467.334	331.04
467.772	314.66
468.209	319.34
468.647	286.57
469.084	314.66
469.522	260.82
469.959	251.46
470.396	300.61
470.833	317
471.271	302.95
471.708	309.97
472.145	370.83
472.582	314.66
473.019	230.4
473.456	321.68
473.892	324.02
474.329	302.95
474.766	359.13
475.202	307.63
475.639	321.68
476.076	312.32
476.512	260.82
476.949	256.14
477.385	286.57
477.821	307.63
478.258	345.08
478.694	300.61
479.13	326.36
479.566	293.59
480.002	295.93
480.438	309.97
480.874	352.1
481.31	263.16
481.746	284.23
482.181	242.1
482.617	324.02
483.053	335.72
483.488	291.25
483.924	307.63
484.36	319.34
484.795	312.32
485.23	300.61
485.666	291.25
486.101	281.89
486.536	263.16
486.971	270.19
487.407	356.79
487.842	305.29
488.277	314.66
488.712	319.34
489.146	314.66
489.581	295.93
490.016	298.27
490.451	307.63
490.885	277.21
491.32	377.85
491.755	312.32
492.189	277.21
492.624	267.85
493.058	270.19
493.492	293.59
493.927	260.82
494.361	302.95
494.795	335.72
495.229	281.89
495.663	256.14
496.097	328.7
496.531	307.63
496.965	356.79
497.399	277.21
497.833	256.14
498.266	263.16
498.7	347.42
499.134	253.8
499.567	307.63
500.001	359.13
500.434	347.42
500.868	314.66
501.301	324.02
501.734	319.34
502.168	354.44
502.601	295.93
503.034	363.81
503.467	302.95
503.9	267.85
504.333	342.74
504.766	326.36
505.199	338.06
505.632	232.74
506.064	335.72
506.497	237.42
506.93	361.47
507.362	361.47
507.795	291.25
508.227	267.85
508.66	302.95
509.092	307.63
509.524	265.5
509.956	291.25
510.389	321.68
510.821	317
511.253	375.51
511.685	312.32
512.117	347.42
512.549	288.91
512.981	324.02
513.412	319.34
513.844	293.59
514.276	342.74
514.707	324.02
515.139	302.95
515.571	309.97
516.002	256.14
516.433	340.4
516.865	265.5
517.296	293.59
517.727	291.25
518.159	373.17
518.59	354.44
519.021	354.44
519.452	284.23
519.883	324.02
520.314	361.47
520.744	319.34
521.175	272.53
521.606	279.55
522.037	251.46
522.467	260.82
522.898	272.53
523.328	370.83
523.759	347.42
524.189	324.02
524.62	253.8
525.05	221.03
525.48	354.44
525.91	235.08
526.341	246.78
526.771	309.97
527.201	302.95
527.631	314.66
528.061	314.66
528.49	279.55
528.92	286.57
529.35	246.78
529.78	321.68
530.209	302.95
530.639	305.29
531.068	284.23
531.498	270.19
531.927	354.44
532.357	288.91
532.786	312.32
533.215	317
533.644	230.4
534.074	295.93
534.503	324.02
534.932	284.23
535.361	291.25
535.79	298.27
536.218	260.82
536.647	331.04
537.076	317
537.505	305.29
537.933	352.1
538.362	309.97
538.79	298.27
539.219	305.29
539.647	317
540.076	270.19
540.504	291.25
540.932	277.21
541.36	321.68
541.788	286.57
542.217	314.66
542.645	281.89
543.073	302.95
543.5	326.36
543.928	246.78
544.356	326.36
544.784	314.66
545.211	302.95
545.639	324.02
546.067	312.32
546.494	300.61
546.922	237.42
547.349	373.17
547.776	373.17
548.204	293.59
548.631	281.89
549.058	326.36
549.485	309.97
549.912	249.12
550.339	256.14
550.766	277.21
551.193	277.21
551.62	272.53
552.047	331.04
552.474	317
552.9	302.95
553.327	274.87
553.754	192.95
554.18	349.76
554.607	347.42
555.033	293.59
555.459	326.36
555.886	274.87
556.312	326.36
556.738	286.57
557.164	260.82
557.59	338.06
558.016	345.08
558.442	309.97
558.868	256.14
559.294	342.74
559.72	333.38
560.145	324.02
560.571	309.97
560.997	302.95
561.422	242.1
561.848	293.59
562.273	331.04
562.699	328.7
563.124	209.33
563.549	309.97
563.974	321.68
564.4	335.72
564.825	277.21
565.25	331.04
565.675	333.38
566.1	274.87
566.525	342.74
566.95	335.72
567.374	265.5
567.799	345.08
568.224	209.33
568.648	284.23
569.073	277.21
569.497	345.08
569.922	286.57
570.346	307.63
570.771	284.23
571.195	274.87
571.619	338.06
572.043	279.55
572.467	319.34
572.891	321.68
573.315	265.5
573.739	333.38
574.163	267.85
574.587	309.97
575.011	302.95
575.435	279.55
575.858	326.36
576.282	293.59
576.705	300.61
577.129	284.23
577.552	295.93
577.976	309.97
578.399	331.04
578.822	389.55
579.245	270.19
579.669	256.14
580.092	286.57
580.515	307.63
580.938	279.55
581.361	305.29
581.784	274.87
582.206	331.04
582.629	333.38
583.052	333.38
583.474	326.36
583.897	331.04
584.32	260.82
584.742	256.14
585.165	326.36
585.587	244.44
586.009	317
586.431	286.57
586.854	279.55
587.276	263.16
587.698	263.16
588.12	235.08
588.542	260.82
588.964	235.08
589.386	300.61
589.807	244.44
590.229	277.21
590.651	244.44
591.073	342.74
591.494	258.48
591.916	309.97
592.337	298.27
592.759	267.85
593.18	354.44
593.601	312.32
594.022	295.93
594.444	249.12
594.865	298.27
595.286	277.21
595.707	293.59
596.128	363.81
596.549	345.08
596.97	305.29
597.39	288.91
597.811	232.74
598.232	281.89
598.652	281.89
599.073	317
599.494	380.19
599.914	347.42
600.334	314.66
600.755	300.61
601.175	309.97
601.595	377.85
602.015	281.89
602.436	279.55
602.856	529.99
603.276	235.08
603.696	312.32
604.115	305.29
604.535	309.97
604.955	223.37
605.375	328.7
605.794	293.59
606.214	223.37
606.634	319.34
607.053	253.8
607.473	333.38
607.892	298.27
608.311	272.53
608.731	333.38
609.15	328.7
609.569	331.04
609.988	286.57
610.407	281.89
610.826	345.08
611.245	291.25
611.664	317
612.083	288.91
612.501	272.53
612.92	314.66
613.339	328.7
613.757	328.7
614.176	342.74
614.594	295.93
615.013	228.06
615.431	281.89
615.85	338.06
616.268	359.13
616.686	265.5
617.104	317
617.522	366.15
617.94	309.97
618.358	288.91
618.776	302.95
619.194	319.34
619.612	328.7
620.03	286.57
620.447	333.38
620.865	270.19
621.282	338.06
621.7	309.97
622.117	331.04
622.535	270.19
622.952	366.15
623.369	225.72
623.787	305.29
624.204	246.78
624.621	342.74
625.038	333.38
625.455	328.7
625.872	265.5
626.289	326.36
626.706	349.76
627.123	321.68
627.539	366.15
627.956	349.76
628.373	356.79
628.789	307.63
629.206	279.55
629.622	361.47
630.038	298.27
630.455	333.38
630.871	380.19
631.287	286.57
631.703	335.72
632.12	300.61
632.536	293.59
632.952	302.95
633.368	265.5
633.783	267.85
634.199	356.79
634.615	293.59
635.031	335.72
635.446	265.5
635.862	293.59
636.277	347.42
636.693	242.1
637.108	253.8
637.524	368.49
637.939	373.17
638.354	258.48
638.77	361.47
639.185	366.15
639.6	331.04
640.015	319.34
640.43	302.95
640.845	321.68
641.259	249.12
641.674	345.08
642.089	342.74
642.504	284.23
642.918	298.27
643.333	359.13
643.747	338.06
644.162	321.68
644.576	312.32
644.991	263.16
645.405	279.55
645.819	305.29
646.233	331.04
646.647	331.04
647.061	319.34
647.475	324.02
647.889	260.82
648.303	288.91
648.717	223.37
649.131	267.85
649.545	293.59
649.958	300.61
650.372	286.57
650.785	286.57
651.199	298.27
651.612	317
652.026	356.79
652.439	335.72
652.852	331.04
653.266	295.93
653.679	300.61
654.092	319.34
654.505	286.57
654.918	317
655.331	312.32
655.744	286.57
656.156	286.57
656.569	307.63
656.982	295.93
657.394	270.19
657.807	274.87
658.22	265.5
658.632	286.57
659.044	345.08
659.457	300.61
659.869	288.91
660.281	326.36
660.693	265.5
661.106	295.93
661.518	319.34
661.93	314.66
662.342	295.93
662.754	298.27
663.165	284.23
663.577	281.89
663.989	288.91
664.401	312.32
664.812	328.7
665.224	302.95
665.635	314.66
666.047	309.97
666.458	293.59
666.869	342.74
667.281	317
667.692	321.68
668.103	352.1
668.514	218.69
668.925	302.95
669.336	338.06
669.747	321.68
670.158	199.97
670.569	326.36
670.979	373.17
671.39	272.53
671.801	298.27
672.211	279.55
672.622	342.74
673.032	347.42
673.443	356.79
673.853	300.61
674.263	314.66
674.674	251.46
675.084	347.42
675.494	300.61
675.904	319.34
676.314	270.19
676.724	328.7
677.134	328.7
677.544	324.02
677.953	319.34
678.363	361.47
678.773	328.7
679.182	281.89
679.592	288.91
680.001	267.85
680.411	312.32
680.82	263.16
681.23	300.61
681.639	277.21
682.048	279.55
682.457	317
682.866	277.21
683.275	333.38
683.684	251.46
684.093	253.8
684.502	342.74
684.911	288.91
685.32	260.82
685.728	281.89
686.137	300.61
686.546	321.68
686.954	328.7
687.363	286.57
687.771	295.93
688.179	319.34
688.588	321.68
688.996	239.76
689.404	340.4
689.812	382.53
690.22	295.93
690.628	317
691.036	307.63
691.444	298.27
691.852	300.61
692.26	274.87
692.667	253.8
693.075	314.66
693.483	356.79
693.89	338.06
694.298	317
694.705	239.76
695.112	288.91
695.52	305.29
695.927	319.34
696.334	286.57
696.741	345.08
697.148	244.44
697.555	298.27
697.962	300.61
698.369	302.95
698.776	305.29
699.183	253.8
699.59	277.21
699.996	300.61
700.403	293.59
700.81	298.27
701.216	305.29
701.623	345.08
702.029	324.02
702.435	302.95
702.842	309.97
703.248	274.87
703.654	342.74
704.06	270.19
704.466	340.4
704.872	286.57
705.278	302.95
705.684	237.42
706.09	300.61
706.496	312.32
706.901	298.27
707.307	302.95
707.712	302.95
708.118	291.25
708.523	242.1
708.929	333.38
709.334	274.87
709.74	321.68
710.145	324.02
710.55	305.29
710.955	293.59
711.36	288.91
711.765	326.36
712.17	288.91
712.575	382.53
712.98	925.54
713.385	366.15
713.789	366.15
714.194	324.02
714.599	309.97
715.003	305.29
715.408	235.08
715.812	314.66
716.217	321.68
716.621	375.51
717.025	270.19
717.429	267.85
717.833	288.91
718.238	302.95
718.642	305.29
719.046	235.08
719.449	195.29
719.853	281.89
720.257	349.76
720.661	274.87
721.065	267.85
721.468	263.16
721.872	338.06
722.275	288.91
722.679	363.81
723.082	256.14
723.485	253.8
723.889	267.85
724.292	258.48
724.695	286.57
725.098	288.91
725.501	366.15
725.904	293.59
726.307	279.55
726.71	298.27
727.113	314.66
727.516	309.97
727.918	260.82
728.321	267.85
728.724	295.93
729.126	321.68
729.529	267.85
729.931	333.38
730.333	302.95
730.736	265.5
731.138	293.59
731.54	298.27
731.942	331.04
732.344	326.36
732.746	293.59
733.148	260.82
733.55	267.85
733.952	228.06
734.354	267.85
734.756	317
735.157	244.44
735.559	288.91
735.96	288.91
736.362	242.1
736.763	366.15
737.165	328.7
737.566	277.21
737.967	286.57
738.368	253.8
738.77	328.7
739.171	235.08
739.572	317
739.973	251.46
740.374	305.29
740.774	263.16
741.175	342.74
741.576	314.66
741.977	305.29
742.377	274.87
742.778	319.34
743.178	274.87
743.579	246.78
743.979	284.23
744.379	284.23
744.78	309.97
745.18	260.82
745.58	326.36
745.98	270.19
746.38	274.87
746.78	267.85
747.18	319.34
747.58	361.47
747.98	286.57
748.38	260.82
748.779	354.44
749.179	286.57
749.578	288.91
749.978	331.04
750.377	291.25
750.777	277.21
751.176	326.36
751.575	267.85
751.975	279.55
752.374	235.08
752.773	331.04
753.172	263.16
753.571	340.4
753.97	352.1
754.369	342.74
754.768	279.55
755.166	258.48
755.565	293.59
755.964	288.91
756.362	251.46
756.761	300.61
757.159	326.36
757.558	293.59
757.956	347.42
758.354	300.61
758.753	342.74
759.151	305.29
759.549	302.95
759.947	324.02
760.345	295.93
760.743	284.23
761.141	326.36
761.539	335.72
761.936	279.55
762.334	284.23
762.732	354.44
763.129	295.93
763.527	249.12
763.924	319.34
764.322	345.08
764.719	356.79
765.117	302.95
765.514	256.14
765.911	235.08
766.308	286.57
766.705	272.53
