Data from Al_FLMS009871__1288__16-49-39-666.txt Node

Date: Fri Mar 08 16:49:39 CST 2024
User: pe5414po
Spectrometer: FLMS00987
Trigger mode: 0
Integration Time (sec): 1.000000E-1
Scans to average: 1
Electric dark correction enabled: true
Nonlinearity correction enabled: false
Boxcar width: 0
XAxis mode: Wavelengths
Number of Pixels in Spectrum: 2048
>>>>>Begin Spectral Data<<<<<
188.938	-68.17
189.409	-68.17
189.879	-68.17
190.349	-84.55
190.819	-110.3
191.29	-84.55
191.76	-9.65
192.23	-122
192.7	-68.17
193.17	-119.66
193.64	-58.81
194.109	-58.81
194.579	11.41
195.049	46.52
195.519	20.77
195.988	27.79
196.458	69.92
196.927	48.86
197.397	58.22
197.866	147.16
198.336	90.99
198.805	158.86
199.274	189.29
199.744	217.38
200.213	247.8
200.682	200.99
201.151	231.42
201.62	250.14
202.089	217.38
202.558	299.3
203.027	266.53
203.495	271.21
203.964	285.25
204.433	301.64
204.902	208.02
205.37	294.61
205.839	325.04
206.307	318.02
206.776	231.42
207.244	320.36
207.712	327.38
208.181	402.28
208.649	268.87
209.117	261.85
209.585	325.04
210.053	268.87
210.521	287.59
210.989	257.17
211.457	296.96
211.925	289.93
212.393	303.98
212.861	303.98
213.328	177.59
213.796	271.21
214.264	240.78
214.731	341.43
215.199	261.85
215.666	292.27
216.133	250.14
216.601	280.57
217.068	289.93
217.535	250.14
218.003	329.72
218.47	275.89
218.937	268.87
219.404	226.74
219.871	294.61
220.338	301.64
220.805	257.17
221.271	233.76
221.738	273.55
222.205	247.8
222.671	348.45
223.138	336.74
223.605	217.38
224.071	353.13
224.538	318.02
225.004	296.96
225.47	254.83
225.937	222.06
226.403	252.49
226.869	254.83
227.335	289.93
227.801	311
228.267	280.57
228.733	268.87
229.199	320.36
229.665	217.38
230.131	254.83
230.597	259.51
231.062	257.17
231.528	268.87
231.994	254.83
232.459	245.46
232.925	233.76
233.39	261.85
233.856	285.25
234.321	287.59
234.786	208.02
235.252	278.23
235.717	325.04
236.182	219.72
236.647	285.25
237.112	301.64
237.577	266.53
238.042	271.21
238.507	196.31
238.972	238.44
239.436	320.36
239.901	243.12
240.366	343.77
240.83	268.87
241.295	313.34
241.76	231.42
242.224	325.04
242.688	294.61
243.153	275.89
243.617	289.93
244.081	219.72
244.545	266.53
245.01	261.85
245.474	261.85
245.938	348.45
246.402	313.34
246.866	318.02
247.33	287.59
247.793	339.09
248.257	306.32
248.721	299.3
249.185	301.64
249.648	308.66
250.112	311
250.575	271.21
251.039	325.04
251.502	306.32
251.965	301.64
252.429	292.27
252.892	273.55
253.355	299.3
253.818	341.43
254.281	311
254.744	273.55
255.207	245.46
255.67	334.4
256.133	332.06
256.596	353.13
257.059	301.64
257.522	325.04
257.984	332.06
258.447	341.43
258.909	360.15
259.372	273.55
259.834	406.96
260.297	280.57
260.759	252.49
261.221	350.79
261.684	250.14
262.146	289.93
262.608	250.14
263.07	250.14
263.532	243.12
263.994	285.25
264.456	245.46
264.918	252.49
265.38	285.25
265.842	306.32
266.303	322.7
266.765	315.68
267.227	334.4
267.688	243.12
268.15	299.3
268.611	313.34
269.072	280.57
269.534	341.43
269.995	292.27
270.456	240.78
270.918	261.85
271.379	301.64
271.84	294.61
272.301	282.91
272.762	252.49
273.223	217.38
273.684	311
274.144	346.11
274.605	259.51
275.066	245.46
275.527	254.83
275.987	306.32
276.448	343.77
276.908	289.93
277.369	301.64
277.829	240.78
278.289	294.61
278.75	271.21
279.21	292.27
279.67	268.87
280.13	322.7
280.59	229.08
281.05	287.59
281.51	282.91
281.97	243.12
282.43	336.74
282.89	355.47
283.35	341.43
283.809	254.83
284.269	301.64
284.729	334.4
285.188	301.64
285.648	336.74
286.107	376.53
286.567	287.59
287.026	327.38
287.485	325.04
287.944	254.83
288.404	240.78
288.863	252.49
289.322	296.96
289.781	327.38
290.24	278.23
290.699	275.89
291.158	282.91
291.616	332.06
292.075	315.68
292.534	322.7
292.992	299.3
293.451	325.04
293.91	289.93
294.368	336.74
294.827	261.85
295.285	273.55
295.743	318.02
296.202	278.23
296.66	362.49
297.118	301.64
297.576	240.78
298.034	315.68
298.492	257.17
298.95	332.06
299.408	259.51
299.866	341.43
300.324	266.53
300.781	327.38
301.239	289.93
301.697	336.74
302.154	299.3
302.612	360.15
303.069	287.59
303.527	311
303.984	325.04
304.441	311
304.899	313.34
305.356	252.49
305.813	320.36
306.27	332.06
306.727	325.04
307.184	355.47
307.641	329.72
308.098	357.81
308.555	313.34
309.012	289.93
309.468	357.81
309.925	273.55
310.382	292.27
310.838	313.34
311.295	296.96
311.751	268.87
312.208	292.27
312.664	343.77
313.12	350.79
313.577	318.02
314.033	280.57
314.489	334.4
314.945	332.06
315.401	313.34
315.857	329.72
316.313	320.36
316.769	285.25
317.225	289.93
317.681	229.08
318.136	268.87
318.592	287.59
319.048	271.21
319.503	282.91
319.959	341.43
320.414	355.47
320.869	313.34
321.325	306.32
321.78	315.68
322.235	341.43
322.691	348.45
323.146	280.57
323.601	318.02
324.056	294.61
324.511	308.66
324.966	353.13
325.421	231.42
325.875	250.14
326.33	303.98
326.785	311
327.24	280.57
327.694	303.98
328.149	280.57
328.603	285.25
329.058	240.78
329.512	343.77
329.966	243.12
330.421	357.81
330.875	303.98
331.329	318.02
331.783	369.51
332.237	292.27
332.691	278.23
333.145	350.79
333.599	343.77
334.053	350.79
334.507	367.17
334.96	322.7
335.414	289.93
335.868	332.06
336.321	392.92
336.775	315.68
337.228	285.25
337.682	357.81
338.135	336.74
338.588	353.13
339.042	355.47
339.495	322.7
339.948	381.21
340.401	278.23
340.854	346.11
341.307	311
341.76	341.43
342.213	303.98
342.666	378.87
343.119	301.64
343.571	268.87
344.024	289.93
344.477	388.24
344.929	308.66
345.382	296.96
345.834	322.7
346.287	268.87
346.739	360.15
347.191	348.45
347.644	374.19
348.096	275.89
348.548	336.74
349	299.3
349.452	278.23
349.904	320.36
350.356	294.61
350.808	306.32
351.26	296.96
351.711	346.11
352.163	231.42
352.615	332.06
353.066	294.61
353.518	346.11
353.969	334.4
354.421	332.06
354.872	294.61
355.324	266.53
355.775	292.27
356.226	341.43
356.677	346.11
357.128	285.25
357.579	360.15
358.03	301.64
358.481	271.21
358.932	339.09
359.383	364.83
359.834	318.02
360.285	315.68
360.735	339.09
361.186	287.59
361.637	334.4
362.087	329.72
362.538	299.3
362.988	381.21
363.438	266.53
363.889	346.11
364.339	320.36
364.789	287.59
365.239	327.38
365.689	388.24
366.139	273.55
366.589	278.23
367.039	294.61
367.489	348.45
367.939	346.11
368.389	381.21
368.839	332.06
369.288	411.64
369.738	367.17
370.187	287.59
370.637	336.74
371.086	303.98
371.536	376.53
371.985	311
372.434	266.53
372.884	329.72
373.333	294.61
373.782	367.17
374.231	325.04
374.68	299.3
375.129	329.72
375.578	313.34
376.027	343.77
376.475	332.06
376.924	264.19
377.373	301.64
377.822	294.61
378.27	318.02
378.719	332.06
379.167	367.17
379.616	306.32
380.064	271.21
380.512	301.64
380.961	322.7
381.409	362.49
381.857	289.93
382.305	385.9
382.753	282.91
383.201	285.25
383.649	285.25
384.097	278.23
384.545	381.21
384.992	357.81
385.44	261.85
385.888	247.8
386.335	332.06
386.783	332.06
387.231	381.21
387.678	245.46
388.125	355.47
388.573	257.17
389.02	341.43
389.467	388.24
389.914	353.13
390.362	376.53
390.809	289.93
391.256	313.34
391.703	327.38
392.15	313.34
392.596	343.77
393.043	334.4
393.49	378.87
393.937	334.4
394.383	271.21
394.83	285.25
395.276	360.15
395.723	336.74
396.169	388.24
396.616	296.96
397.062	271.21
397.508	313.34
397.954	390.58
398.401	327.38
398.847	303.98
399.293	334.4
399.739	327.38
400.185	322.7
400.631	287.59
401.076	383.56
401.522	327.38
401.968	362.49
402.414	346.11
402.859	350.79
403.305	311
403.75	273.55
404.196	360.15
404.641	273.55
405.086	392.92
405.532	301.64
405.977	311
406.422	336.74
406.867	357.81
407.312	320.36
407.757	329.72
408.202	292.27
408.647	311
409.092	348.45
409.537	376.53
409.982	348.45
410.426	301.64
410.871	329.72
411.316	250.14
411.76	367.17
412.205	367.17
412.649	287.59
413.093	325.04
413.538	280.57
413.982	329.72
414.426	395.26
414.87	364.83
415.314	294.61
415.758	320.36
416.202	376.53
416.646	311
417.09	320.36
417.534	336.74
417.978	273.55
418.421	329.72
418.865	329.72
419.309	301.64
419.752	348.45
420.196	311
420.639	329.72
421.083	296.96
421.526	282.91
421.969	395.26
422.412	367.17
422.856	278.23
423.299	336.74
423.742	409.3
424.185	353.13
424.628	329.72
425.071	313.34
425.513	311
425.956	327.38
426.399	266.53
426.842	301.64
427.284	299.3
427.727	292.27
428.169	301.64
428.612	355.47
429.054	264.19
429.497	236.1
429.939	385.9
430.381	367.17
430.823	306.32
431.265	339.09
431.707	357.81
432.149	390.58
432.591	278.23
433.033	318.02
433.475	343.77
433.917	339.09
434.359	318.02
434.8	252.49
435.242	325.04
435.684	308.66
436.125	357.81
436.567	329.72
437.008	385.9
437.449	341.43
437.891	301.64
438.332	329.72
438.773	301.64
439.214	376.53
439.656	346.11
440.097	320.36
440.538	390.58
440.978	385.9
441.419	339.09
441.86	311
442.301	362.49
442.742	280.57
443.182	329.72
443.623	315.68
444.063	311
444.504	332.06
444.944	278.23
445.385	301.64
445.825	271.21
446.265	343.77
446.706	327.38
447.146	294.61
447.586	301.64
448.026	282.91
448.466	322.7
448.906	357.81
449.346	318.02
449.786	348.45
450.225	306.32
450.665	289.93
451.105	273.55
451.544	306.32
451.984	278.23
452.424	336.74
452.863	292.27
453.302	339.09
453.742	299.3
454.181	303.98
454.62	320.36
455.059	292.27
455.499	315.68
455.938	376.53
456.377	299.3
456.816	325.04
457.254	334.4
457.693	383.56
458.132	301.64
458.571	273.55
459.01	346.11
459.448	313.34
459.887	278.23
460.325	264.19
460.764	339.09
461.202	320.36
461.641	275.89
462.079	346.11
462.517	306.32
462.955	334.4
463.393	367.17
463.832	350.79
464.27	273.55
464.708	271.21
465.145	355.47
465.583	320.36
466.021	299.3
466.459	404.62
466.897	268.87
467.334	301.64
467.772	250.14
468.209	268.87
468.647	282.91
469.084	350.79
469.522	334.4
469.959	364.83
470.396	294.61
470.833	287.59
471.271	369.51
471.708	318.02
472.145	334.4
472.582	364.83
473.019	355.47
473.456	308.66
473.892	287.59
474.329	299.3
474.766	315.68
475.202	376.53
475.639	301.64
476.076	289.93
476.512	287.59
476.949	346.11
477.385	353.13
477.821	301.64
478.258	273.55
478.694	392.92
479.13	311
479.566	364.83
480.002	329.72
480.438	320.36
480.874	353.13
481.31	259.51
481.746	311
482.181	353.13
482.617	311
483.053	266.53
483.488	332.06
483.924	282.91
484.36	285.25
484.795	268.87
485.23	327.38
485.666	350.79
486.101	343.77
486.536	299.3
486.971	341.43
487.407	325.04
487.842	346.11
488.277	303.98
488.712	329.72
489.146	392.92
489.581	299.3
490.016	329.72
490.451	332.06
490.885	371.85
491.32	348.45
491.755	292.27
492.189	353.13
492.624	332.06
493.058	308.66
493.492	301.64
493.927	376.53
494.361	336.74
494.795	271.21
495.229	264.19
495.663	320.36
496.097	367.17
496.531	254.83
496.965	301.64
497.399	367.17
497.833	367.17
498.266	296.96
498.7	311
499.134	259.51
499.567	282.91
500.001	296.96
500.434	285.25
500.868	367.17
501.301	369.51
501.734	282.91
502.168	294.61
502.601	308.66
503.034	268.87
503.467	360.15
503.9	329.72
504.333	299.3
504.766	339.09
505.199	318.02
505.632	364.83
506.064	282.91
506.497	311
506.93	329.72
507.362	329.72
507.795	306.32
508.227	367.17
508.66	353.13
509.092	390.58
509.524	325.04
509.956	289.93
510.389	301.64
510.821	280.57
511.253	378.87
511.685	303.98
512.117	334.4
512.549	325.04
512.981	320.36
513.412	336.74
513.844	341.43
514.276	378.87
514.707	308.66
515.139	311
515.571	357.81
516.002	261.85
516.433	383.56
516.865	264.19
517.296	343.77
517.727	329.72
518.159	343.77
518.59	311
519.021	306.32
519.452	303.98
519.883	315.68
520.314	350.79
520.744	315.68
521.175	257.17
521.606	322.7
522.037	364.83
522.467	388.24
522.898	275.89
523.328	280.57
523.759	313.34
524.189	348.45
524.62	313.34
525.05	285.25
525.48	357.81
525.91	271.21
526.341	301.64
526.771	275.89
527.201	308.66
527.631	343.77
528.061	381.21
528.49	306.32
528.92	261.85
529.35	343.77
529.78	374.19
530.209	411.64
530.639	355.47
531.068	320.36
531.498	360.15
531.927	329.72
532.357	282.91
532.786	320.36
533.215	329.72
533.644	332.06
534.074	315.68
534.503	320.36
534.932	357.81
535.361	371.85
535.79	275.89
536.218	247.8
536.647	339.09
537.076	296.96
537.505	364.83
537.933	332.06
538.362	369.51
538.79	292.27
539.219	341.43
539.647	282.91
540.076	322.7
540.504	299.3
540.932	315.68
541.36	261.85
541.788	320.36
542.217	303.98
542.645	367.17
543.073	322.7
543.5	306.32
543.928	282.91
544.356	294.61
544.784	329.72
545.211	360.15
545.639	275.89
546.067	296.96
546.494	336.74
546.922	343.77
547.349	322.7
547.776	355.47
548.204	308.66
548.631	292.27
549.058	303.98
549.485	332.06
549.912	353.13
550.339	296.96
550.766	371.85
551.193	289.93
551.62	374.19
552.047	355.47
552.474	313.34
552.9	336.74
553.327	320.36
553.754	348.45
554.18	315.68
554.607	341.43
555.033	320.36
555.459	231.42
555.886	334.4
556.312	336.74
556.738	318.02
557.164	320.36
557.59	313.34
558.016	332.06
558.442	343.77
558.868	343.77
559.294	325.04
559.72	308.66
560.145	364.83
560.571	378.87
560.997	341.43
561.422	360.15
561.848	334.4
562.273	329.72
562.699	318.02
563.124	322.7
563.549	313.34
563.974	294.61
564.4	348.45
564.825	264.19
565.25	355.47
565.675	346.11
566.1	332.06
566.525	325.04
566.95	325.04
567.374	287.59
567.799	371.85
568.224	355.47
568.648	318.02
569.073	322.7
569.497	350.79
569.922	383.56
570.346	390.58
570.771	409.3
571.195	336.74
571.619	322.7
572.043	306.32
572.467	308.66
572.891	341.43
573.315	278.23
573.739	388.24
574.163	388.24
574.587	334.4
575.011	318.02
575.435	350.79
575.858	360.15
576.282	332.06
576.705	308.66
577.129	367.17
577.552	332.06
577.976	350.79
578.399	299.3
578.822	343.77
579.245	320.36
579.669	374.19
580.092	243.12
580.515	348.45
580.938	336.74
581.361	264.19
581.784	339.09
582.206	348.45
582.629	292.27
583.052	315.68
583.474	357.81
583.897	339.09
584.32	334.4
584.742	301.64
585.165	336.74
585.587	399.94
586.009	343.77
586.431	378.87
586.854	357.81
587.276	325.04
587.698	346.11
588.12	261.85
588.542	332.06
588.964	311
589.386	285.25
589.807	329.72
590.229	348.45
590.651	289.93
591.073	301.64
591.494	318.02
591.916	311
592.337	343.77
592.759	292.27
593.18	273.55
593.601	357.81
594.022	311
594.444	318.02
594.865	320.36
595.286	334.4
595.707	287.59
596.128	287.59
596.549	329.72
596.97	250.14
597.39	374.19
597.811	289.93
598.232	308.66
598.652	325.04
599.073	341.43
599.494	348.45
599.914	353.13
600.334	339.09
600.755	308.66
601.175	327.38
601.595	287.59
602.015	224.4
602.436	339.09
602.856	446.75
603.276	301.64
603.696	383.56
604.115	273.55
604.535	334.4
604.955	303.98
605.375	315.68
605.794	334.4
606.214	395.26
606.634	313.34
607.053	336.74
607.473	397.6
607.892	350.79
608.311	334.4
608.731	308.66
609.15	273.55
609.569	341.43
609.988	364.83
610.407	350.79
610.826	306.32
611.245	311
611.664	261.85
612.083	301.64
612.501	299.3
612.92	327.38
613.339	325.04
613.757	306.32
614.176	381.21
614.594	371.85
615.013	339.09
615.431	294.61
615.85	346.11
616.268	313.34
616.686	388.24
617.104	348.45
617.522	294.61
617.94	306.32
618.358	257.17
618.776	346.11
619.194	320.36
619.612	341.43
620.03	280.57
620.447	280.57
620.865	325.04
621.282	334.4
621.7	364.83
622.117	301.64
622.535	287.59
622.952	303.98
623.369	388.24
623.787	311
624.204	362.49
624.621	327.38
625.038	313.34
625.455	360.15
625.872	273.55
626.289	392.92
626.706	311
627.123	299.3
627.539	350.79
627.956	268.87
628.373	278.23
628.789	301.64
629.206	292.27
629.622	318.02
630.038	318.02
630.455	303.98
630.871	292.27
631.287	222.06
631.703	311
632.12	362.49
632.536	360.15
632.952	296.96
633.368	336.74
633.783	296.96
634.199	332.06
634.615	364.83
635.031	280.57
635.446	362.49
635.862	303.98
636.277	336.74
636.693	306.32
637.108	325.04
637.524	369.51
637.939	341.43
638.354	325.04
638.77	313.34
639.185	308.66
639.6	294.61
640.015	271.21
640.43	322.7
640.845	322.7
641.259	315.68
641.674	346.11
642.089	306.32
642.504	303.98
642.918	318.02
643.333	289.93
643.747	376.53
644.162	350.79
644.576	336.74
644.991	287.59
645.405	282.91
645.819	282.91
646.233	289.93
646.647	259.51
647.061	271.21
647.475	320.36
647.889	273.55
648.303	278.23
648.717	355.47
649.131	353.13
649.545	315.68
649.958	329.72
650.372	360.15
650.785	334.4
651.199	383.56
651.612	318.02
652.026	301.64
652.439	360.15
652.852	313.34
653.266	287.59
653.679	245.46
654.092	334.4
654.505	313.34
654.918	327.38
655.331	294.61
655.744	278.23
656.156	280.57
656.569	318.02
656.982	325.04
657.394	294.61
657.807	336.74
658.22	306.32
658.632	301.64
659.044	308.66
659.457	346.11
659.869	236.1
660.281	374.19
660.693	315.68
661.106	306.32
661.518	250.14
661.93	353.13
662.342	362.49
662.754	378.87
663.165	346.11
663.577	346.11
663.989	355.47
664.401	299.3
664.812	271.21
665.224	282.91
665.635	334.4
666.047	348.45
666.458	343.77
666.869	376.53
667.281	320.36
667.692	294.61
668.103	292.27
668.514	350.79
668.925	357.81
669.336	367.17
669.747	294.61
670.158	296.96
670.569	285.25
670.979	292.27
671.39	311
671.801	271.21
672.211	378.87
672.622	322.7
673.032	343.77
673.443	273.55
673.853	264.19
674.263	355.47
674.674	266.53
675.084	308.66
675.494	353.13
675.904	306.32
676.314	376.53
676.724	308.66
677.134	282.91
677.544	350.79
677.953	313.34
678.363	367.17
678.773	376.53
679.182	315.68
679.592	350.79
680.001	257.17
680.411	315.68
680.82	250.14
681.23	313.34
681.639	350.79
682.048	341.43
682.457	360.15
682.866	378.87
683.275	294.61
683.684	322.7
684.093	243.12
684.502	285.25
684.911	299.3
685.32	318.02
685.728	341.43
686.137	250.14
686.546	285.25
686.954	390.58
687.363	301.64
687.771	285.25
688.179	308.66
688.588	360.15
688.996	360.15
689.404	236.1
689.812	280.57
690.22	264.19
690.628	308.66
691.036	327.38
691.444	339.09
691.852	301.64
692.26	385.9
692.667	339.09
693.075	343.77
693.483	357.81
693.89	306.32
694.298	301.64
694.705	311
695.112	303.98
695.52	334.4
695.927	346.11
696.334	334.4
696.741	329.72
697.148	322.7
697.555	322.7
697.962	311
698.369	280.57
698.776	296.96
699.183	294.61
699.59	205.67
699.996	273.55
700.403	404.62
700.81	346.11
701.216	346.11
701.623	301.64
702.029	353.13
702.435	357.81
702.842	268.87
703.248	334.4
703.654	320.36
704.06	308.66
704.466	287.59
704.872	327.38
705.278	346.11
705.684	343.77
706.09	362.49
706.496	327.38
706.901	357.81
707.307	409.3
707.712	271.21
708.118	303.98
708.523	329.72
708.929	334.4
709.334	285.25
709.74	367.17
710.145	289.93
710.55	348.45
710.955	322.7
711.36	346.11
711.765	325.04
712.17	329.72
712.575	264.19
712.98	931.24
713.385	311
713.789	299.3
714.194	292.27
714.599	339.09
715.003	341.43
715.408	273.55
715.812	296.96
716.217	348.45
716.621	339.09
717.025	303.98
717.429	306.32
717.833	332.06
718.238	367.17
718.642	329.72
719.046	266.53
719.449	257.17
719.853	303.98
720.257	301.64
720.661	381.21
721.065	369.51
721.468	327.38
721.872	336.74
722.275	348.45
722.679	308.66
723.082	332.06
723.485	367.17
723.889	381.21
724.292	339.09
724.695	287.59
725.098	322.7
725.501	301.64
725.904	308.66
726.307	362.49
726.71	350.79
727.113	285.25
727.516	287.59
727.918	357.81
728.321	303.98
728.724	313.34
729.126	294.61
729.529	346.11
729.931	254.83
730.333	327.38
730.736	341.43
731.138	341.43
731.54	357.81
731.942	390.58
732.344	376.53
732.746	285.25
733.148	322.7
733.55	296.96
733.952	318.02
734.354	357.81
734.756	341.43
735.157	336.74
735.559	341.43
735.96	278.23
736.362	357.81
736.763	332.06
737.165	292.27
737.566	327.38
737.967	332.06
738.368	325.04
738.77	294.61
739.171	306.32
739.572	343.77
739.973	350.79
740.374	252.49
740.774	318.02
741.175	322.7
741.576	350.79
741.977	271.21
742.377	381.21
742.778	315.68
743.178	285.25
743.579	280.57
743.979	357.81
744.379	322.7
744.78	318.02
745.18	215.04
745.58	348.45
745.98	325.04
746.38	318.02
746.78	348.45
747.18	315.68
747.58	343.77
747.98	280.57
748.38	282.91
748.779	357.81
749.179	388.24
749.578	275.89
749.978	348.45
750.377	353.13
750.777	273.55
751.176	261.85
751.575	289.93
751.975	381.21
752.374	275.89
752.773	306.32
753.172	292.27
753.571	273.55
753.97	318.02
754.369	294.61
754.768	313.34
755.166	367.17
755.565	301.64
755.964	320.36
756.362	285.25
756.761	308.66
757.159	315.68
757.558	325.04
757.956	325.04
758.354	275.89
758.753	339.09
759.151	318.02
759.549	350.79
759.947	289.93
760.345	303.98
760.743	343.77
761.141	325.04
761.539	275.89
761.936	334.4
762.334	285.25
762.732	360.15
763.129	313.34
763.527	332.06
763.924	271.21
764.322	406.96
764.719	303.98
765.117	313.34
765.514	280.57
765.911	287.59
766.308	318.02
766.705	313.34
767.102	346.11
