Data from Al_FLMS009871__1297__16-49-40-566.txt Node

Date: Fri Mar 08 16:49:40 CST 2024
User: pe5414po
Spectrometer: FLMS00987
Trigger mode: 0
Integration Time (sec): 1.000000E-1
Scans to average: 1
Electric dark correction enabled: true
Nonlinearity correction enabled: false
Boxcar width: 0
XAxis mode: Wavelengths
Number of Pixels in Spectrum: 2048
>>>>>Begin Spectral Data<<<<<
188.938	-59.24
189.409	-59.24
189.879	-59.24
190.349	-150.53
190.819	-17.12
191.29	-89.67
191.76	-131.8
192.23	-138.82
192.7	-141.16
193.17	-54.56
193.64	-63.93
194.109	-70.95
194.579	-3.07
195.049	3.95
195.519	62.46
195.988	76.51
196.458	57.78
196.927	88.21
197.397	67.14
197.866	167.79
198.336	170.13
198.805	156.08
199.274	193.53
199.744	184.17
200.213	205.24
200.682	221.62
201.151	200.55
201.62	261.41
202.089	280.13
202.558	289.5
203.027	228.64
203.495	216.94
203.964	233.32
204.433	228.64
204.902	275.45
205.37	268.43
205.839	235.66
206.307	303.54
206.776	277.79
207.244	226.3
207.712	326.94
208.181	291.84
208.649	343.33
209.117	369.07
209.585	362.05
210.053	294.18
210.521	324.6
210.989	355.03
211.457	254.39
211.925	326.94
212.393	268.43
212.861	275.45
213.328	322.26
213.796	338.65
214.264	280.13
214.731	261.41
215.199	305.88
215.666	315.24
216.133	268.43
216.601	280.13
217.068	317.58
217.535	355.03
218.003	247.37
218.47	209.92
218.937	209.92
219.404	284.81
219.871	266.09
220.338	319.92
220.805	319.92
221.271	277.79
221.738	277.79
222.205	240.34
222.671	287.15
223.138	315.24
223.605	247.37
224.071	275.45
224.538	256.73
225.004	256.73
225.47	228.64
225.937	230.98
226.403	249.71
226.869	221.62
227.335	296.52
227.801	249.71
228.267	284.81
228.733	322.26
229.199	312.9
229.665	280.13
230.131	280.13
230.597	343.33
231.062	305.88
231.528	291.84
231.994	266.09
232.459	322.26
232.925	280.13
233.39	233.32
233.856	357.37
234.321	198.21
234.786	254.39
235.252	289.5
235.717	326.94
236.182	338.65
236.647	301.2
237.112	263.75
237.577	326.94
238.042	298.86
238.507	263.75
238.972	301.2
239.436	310.56
239.901	266.09
240.366	266.09
240.83	319.92
241.295	259.07
241.76	301.2
242.224	310.56
242.688	357.37
243.153	357.37
243.617	284.81
244.081	315.24
244.545	310.56
245.01	310.56
245.474	329.28
245.938	366.73
246.402	289.5
246.866	376.09
247.33	263.75
247.793	310.56
248.257	376.09
248.721	345.67
249.185	245.02
249.648	291.84
250.112	296.52
250.575	277.79
251.039	289.5
251.502	319.92
251.965	296.52
252.429	345.67
252.892	284.81
253.355	336.31
253.818	305.88
254.281	322.26
254.744	345.67
255.207	352.69
255.67	266.09
256.133	298.86
256.596	291.84
257.059	223.96
257.522	336.31
257.984	282.47
258.447	345.67
258.909	348.01
259.372	355.03
259.834	298.86
260.297	333.97
260.759	303.54
261.221	319.92
261.684	256.73
262.146	252.05
262.608	336.31
263.07	324.6
263.532	259.07
263.994	296.52
264.456	289.5
264.918	308.22
265.38	270.77
265.842	336.31
266.303	364.39
266.765	275.45
267.227	266.09
267.688	317.58
268.15	345.67
268.611	298.86
269.072	329.28
269.534	263.75
269.995	326.94
270.456	303.54
270.918	359.71
271.379	338.65
271.84	319.92
272.301	275.45
272.762	291.84
273.223	273.11
273.684	333.97
274.144	324.6
274.605	287.15
275.066	362.05
275.527	296.52
275.987	326.94
276.448	308.22
276.908	294.18
277.369	284.81
277.829	345.67
278.289	284.81
278.75	397.16
279.21	301.2
279.67	282.47
280.13	280.13
280.59	296.52
281.05	230.98
281.51	301.2
281.97	324.6
282.43	317.58
282.89	298.86
283.35	261.41
283.809	366.73
284.269	350.35
284.729	284.81
285.188	317.58
285.648	270.77
286.107	287.15
286.567	324.6
287.026	357.37
287.485	284.81
287.944	298.86
288.404	373.75
288.863	336.31
289.322	310.56
289.781	296.52
290.24	359.71
290.699	312.9
291.158	266.09
291.616	319.92
292.075	298.86
292.534	371.41
292.992	301.2
293.451	333.97
293.91	291.84
294.368	369.07
294.827	322.26
295.285	338.65
295.743	247.37
296.202	310.56
296.66	343.33
297.118	310.56
297.576	291.84
298.034	333.97
298.492	263.75
298.95	340.99
299.408	263.75
299.866	296.52
300.324	312.9
300.781	277.79
301.239	366.73
301.697	352.69
302.154	303.54
302.612	357.37
303.069	336.31
303.527	352.69
303.984	312.9
304.441	362.05
304.899	357.37
305.356	261.41
305.813	345.67
306.27	305.88
306.727	275.45
307.184	324.6
307.641	326.94
308.098	317.58
308.555	308.22
309.012	296.52
309.468	378.44
309.925	369.07
310.382	336.31
310.838	266.09
311.295	340.99
311.751	319.92
312.208	291.84
312.664	355.03
313.12	287.15
313.577	348.01
314.033	324.6
314.489	362.05
314.945	359.71
315.401	312.9
315.857	324.6
316.313	340.99
316.769	359.71
317.225	343.33
317.681	305.88
318.136	312.9
318.592	324.6
319.048	277.79
319.503	322.26
319.959	350.35
320.414	352.69
320.869	326.94
321.325	326.94
321.78	338.65
322.235	343.33
322.691	369.07
323.146	303.54
323.601	298.86
324.056	352.69
324.511	364.39
324.966	333.97
325.421	291.84
325.875	298.86
326.33	336.31
326.785	317.58
327.24	364.39
327.694	319.92
328.149	336.31
328.603	308.22
329.058	345.67
329.512	336.31
329.966	413.54
330.421	308.22
330.875	350.35
331.329	266.09
331.783	294.18
332.237	343.33
332.691	331.62
333.145	324.6
333.599	362.05
334.053	291.84
334.507	359.71
334.96	333.97
335.414	387.8
335.868	373.75
336.321	324.6
336.775	301.2
337.228	345.67
337.682	385.46
338.135	345.67
338.588	336.31
339.042	310.56
339.495	355.03
339.948	310.56
340.401	336.31
340.854	350.35
341.307	305.88
341.76	322.26
342.213	357.37
342.666	355.03
343.119	319.92
343.571	383.12
344.024	277.79
344.477	329.28
344.929	364.39
345.382	287.15
345.834	350.35
346.287	317.58
346.739	315.24
347.191	383.12
347.644	303.54
348.096	366.73
348.548	289.5
349	317.58
349.452	336.31
349.904	301.2
350.356	310.56
350.808	359.71
351.26	415.88
351.711	415.88
352.163	371.41
352.615	333.97
353.066	371.41
353.518	301.2
353.969	362.05
354.421	280.13
354.872	270.77
355.324	289.5
355.775	362.05
356.226	373.75
356.677	373.75
357.128	397.16
357.579	303.54
358.03	378.44
358.481	392.48
358.932	331.62
359.383	310.56
359.834	376.09
360.285	301.2
360.735	359.71
361.186	268.43
361.637	371.41
362.087	366.73
362.538	348.01
362.988	376.09
363.438	266.09
363.889	326.94
364.339	296.52
364.789	301.2
365.239	333.97
365.689	324.6
366.139	345.67
366.589	289.5
367.039	291.84
367.489	378.44
367.939	350.35
368.389	406.52
368.839	298.86
369.288	371.41
369.738	291.84
370.187	343.33
370.637	333.97
371.086	359.71
371.536	340.99
371.985	277.79
372.434	340.99
372.884	238
373.333	343.33
373.782	348.01
374.231	284.81
374.68	380.78
375.129	390.14
375.578	336.31
376.027	319.92
376.475	362.05
376.924	350.35
377.373	369.07
377.822	350.35
378.27	277.79
378.719	369.07
379.167	357.37
379.616	371.41
380.064	380.78
380.512	401.84
380.961	324.6
381.409	319.92
381.857	355.03
382.305	317.58
382.753	364.39
383.201	308.22
383.649	380.78
384.097	383.12
384.545	401.84
384.992	359.71
385.44	312.9
385.888	406.52
386.335	355.03
386.783	322.26
387.231	315.24
387.678	385.46
388.125	357.37
388.573	345.67
389.02	296.52
389.467	326.94
389.914	348.01
390.362	329.28
390.809	298.86
391.256	331.62
391.703	336.31
392.15	315.24
392.596	263.75
393.043	308.22
393.49	296.52
393.937	345.67
394.383	355.03
394.83	376.09
395.276	397.16
395.723	340.99
396.169	359.71
396.616	298.86
397.062	348.01
397.508	348.01
397.954	380.78
398.401	343.33
398.847	359.71
399.293	319.92
399.739	329.28
400.185	378.44
400.631	326.94
401.076	352.69
401.522	366.73
401.968	324.6
402.414	315.24
402.859	280.13
403.305	326.94
403.75	348.01
404.196	392.48
404.641	434.61
405.086	369.07
405.532	369.07
405.977	343.33
406.422	322.26
406.867	362.05
407.312	296.52
407.757	333.97
408.202	322.26
408.647	324.6
409.092	322.26
409.537	350.35
409.982	336.31
410.426	385.46
410.871	350.35
411.316	371.41
411.76	249.71
412.205	326.94
412.649	348.01
413.093	352.69
413.538	350.35
413.982	383.12
414.426	387.8
414.87	362.05
415.314	331.62
415.758	282.47
416.202	420.57
416.646	282.47
417.09	289.5
417.534	319.92
417.978	357.37
418.421	308.22
418.865	348.01
419.309	280.13
419.752	259.07
420.196	324.6
420.639	336.31
421.083	352.69
421.526	331.62
421.969	312.9
422.412	378.44
422.856	355.03
423.299	369.07
423.742	357.37
424.185	329.28
424.628	432.27
425.071	294.18
425.513	324.6
425.956	333.97
426.399	418.22
426.842	338.65
427.284	310.56
427.727	345.67
428.169	355.03
428.612	355.03
429.054	357.37
429.497	296.52
429.939	378.44
430.381	355.03
430.823	308.22
431.265	348.01
431.707	312.9
432.149	385.46
432.591	294.18
433.033	289.5
433.475	324.6
433.917	301.2
434.359	371.41
434.8	343.33
435.242	312.9
435.684	340.99
436.125	338.65
436.567	312.9
437.008	331.62
437.449	343.33
437.891	348.01
438.332	338.65
438.773	404.18
439.214	362.05
439.656	322.26
440.097	310.56
440.538	390.14
440.978	305.88
441.419	350.35
441.86	329.28
442.301	343.33
442.742	359.71
443.182	387.8
443.623	324.6
444.063	362.05
444.504	355.03
444.944	324.6
445.385	376.09
445.825	275.45
446.265	261.41
446.706	298.86
447.146	387.8
447.586	380.78
448.026	418.22
448.466	340.99
448.906	359.71
449.346	315.24
449.786	326.94
450.225	373.75
450.665	319.92
451.105	371.41
451.544	275.45
451.984	373.75
452.424	326.94
452.863	315.24
453.302	336.31
453.742	291.84
454.181	369.07
454.62	326.94
455.059	284.81
455.499	294.18
455.938	333.97
456.377	319.92
456.816	336.31
457.254	352.69
457.693	390.14
458.132	345.67
458.571	404.18
459.01	383.12
459.448	294.18
459.887	294.18
460.325	387.8
460.764	287.15
461.202	238
461.641	263.75
462.079	399.5
462.517	273.11
462.955	392.48
463.393	329.28
463.832	348.01
464.27	373.75
464.708	324.6
465.145	308.22
465.583	343.33
466.021	324.6
466.459	322.26
466.897	298.86
467.334	340.99
467.772	345.67
468.209	378.44
468.647	296.52
469.084	359.71
469.522	296.52
469.959	369.07
470.396	319.92
470.833	336.31
471.271	333.97
471.708	308.22
472.145	362.05
472.582	263.75
473.019	303.54
473.456	298.86
473.892	364.39
474.329	331.62
474.766	338.65
475.202	343.33
475.639	298.86
476.076	322.26
476.512	371.41
476.949	366.73
477.385	322.26
477.821	275.45
478.258	329.28
478.694	340.99
479.13	329.28
479.566	329.28
480.002	287.15
480.438	371.41
480.874	319.92
481.31	310.56
481.746	362.05
482.181	359.71
482.617	378.44
483.053	305.88
483.488	338.65
483.924	345.67
484.36	301.2
484.795	305.88
485.23	359.71
485.666	324.6
486.101	364.39
486.536	348.01
486.971	326.94
487.407	338.65
487.842	373.75
488.277	317.58
488.712	362.05
489.146	364.39
489.581	291.84
490.016	331.62
490.451	317.58
490.885	312.9
491.32	364.39
491.755	362.05
492.189	287.15
492.624	411.2
493.058	259.07
493.492	359.71
493.927	312.9
494.361	322.26
494.795	350.35
495.229	350.35
495.663	371.41
496.097	296.52
496.531	315.24
496.965	348.01
497.399	357.37
497.833	326.94
498.266	331.62
498.7	308.22
499.134	404.18
499.567	338.65
500.001	308.22
500.434	352.69
500.868	322.26
501.301	333.97
501.734	338.65
502.168	298.86
502.601	373.75
503.034	273.11
503.467	266.09
503.9	348.01
504.333	336.31
504.766	326.94
505.199	338.65
505.632	319.92
506.064	376.09
506.497	397.16
506.93	303.54
507.362	390.14
507.795	371.41
508.227	329.28
508.66	310.56
509.092	408.86
509.524	308.22
509.956	406.52
510.389	315.24
510.821	362.05
511.253	238
511.685	378.44
512.117	362.05
512.549	373.75
512.981	340.99
513.412	329.28
513.844	338.65
514.276	331.62
514.707	401.84
515.139	385.46
515.571	348.01
516.002	399.5
516.433	305.88
516.865	340.99
517.296	319.92
517.727	259.07
518.159	312.9
518.59	364.39
519.021	310.56
519.452	315.24
519.883	298.86
520.314	324.6
520.744	364.39
521.175	338.65
521.606	383.12
522.037	238
522.467	326.94
522.898	284.81
523.328	338.65
523.759	420.57
524.189	348.01
524.62	308.22
525.05	333.97
525.48	296.52
525.91	350.35
526.341	287.15
526.771	331.62
527.201	326.94
527.631	345.67
528.061	291.84
528.49	340.99
528.92	319.92
529.35	326.94
529.78	369.07
530.209	296.52
530.639	338.65
531.068	352.69
531.498	322.26
531.927	319.92
532.357	322.26
532.786	315.24
533.215	355.03
533.644	343.33
534.074	329.28
534.503	305.88
534.932	359.71
535.361	378.44
535.79	289.5
536.218	366.73
536.647	359.71
537.076	352.69
537.505	362.05
537.933	406.52
538.362	385.46
538.79	338.65
539.219	355.03
539.647	331.62
540.076	263.75
540.504	329.28
540.932	376.09
541.36	326.94
541.788	348.01
542.217	329.28
542.645	301.2
543.073	338.65
543.5	275.45
543.928	324.6
544.356	357.37
544.784	287.15
545.211	380.78
545.639	287.15
546.067	280.13
546.494	296.52
546.922	359.71
547.349	317.58
547.776	331.62
548.204	284.81
548.631	369.07
549.058	249.71
549.485	364.39
549.912	329.28
550.339	315.24
550.766	348.01
551.193	326.94
551.62	326.94
552.047	385.46
552.474	317.58
552.9	362.05
553.327	340.99
553.754	326.94
554.18	338.65
554.607	345.67
555.033	369.07
555.459	259.07
555.886	383.12
556.312	348.01
556.738	317.58
557.164	366.73
557.59	355.03
558.016	312.9
558.442	357.37
558.868	378.44
559.294	305.88
559.72	308.22
560.145	394.82
560.571	348.01
560.997	315.24
561.422	336.31
561.848	326.94
562.273	362.05
562.699	343.33
563.124	336.31
563.549	340.99
563.974	331.62
564.4	359.71
564.825	312.9
565.25	364.39
565.675	287.15
566.1	362.05
566.525	357.37
566.95	394.82
567.374	322.26
567.799	345.67
568.224	359.71
568.648	310.56
569.073	338.65
569.497	277.79
569.922	406.52
570.346	333.97
570.771	376.09
571.195	338.65
571.619	345.67
572.043	268.43
572.467	326.94
572.891	329.28
573.315	376.09
573.739	331.62
574.163	336.31
574.587	340.99
575.011	282.47
575.435	404.18
575.858	329.28
576.282	340.99
576.705	310.56
577.129	376.09
577.552	305.88
577.976	324.6
578.399	319.92
578.822	348.01
579.245	324.6
579.669	359.71
580.092	303.54
580.515	324.6
580.938	343.33
581.361	350.35
581.784	282.47
582.206	329.28
582.629	312.9
583.052	340.99
583.474	310.56
583.897	333.97
584.32	380.78
584.742	357.37
585.165	352.69
585.587	305.88
586.009	317.58
586.431	364.39
586.854	366.73
587.276	350.35
587.698	336.31
588.12	312.9
588.542	364.39
588.964	352.69
589.386	390.14
589.807	345.67
590.229	291.84
590.651	308.22
591.073	312.9
591.494	303.54
591.916	355.03
592.337	352.69
592.759	317.58
593.18	376.09
593.601	338.65
594.022	298.86
594.444	261.41
594.865	270.77
595.286	348.01
595.707	333.97
596.128	303.54
596.549	322.26
596.97	345.67
597.39	333.97
597.811	331.62
598.232	333.97
598.652	366.73
599.073	355.03
599.494	322.26
599.914	324.6
600.334	322.26
600.755	371.41
601.175	336.31
601.595	338.65
602.015	322.26
602.436	338.65
602.856	472.06
603.276	383.12
603.696	301.2
604.115	329.28
604.535	301.2
604.955	362.05
605.375	322.26
605.794	305.88
606.214	390.14
606.634	357.37
607.053	270.77
607.473	380.78
607.892	340.99
608.311	350.35
608.731	310.56
609.15	359.71
609.569	312.9
609.988	357.37
610.407	380.78
610.826	305.88
611.245	263.75
611.664	366.73
612.083	427.59
612.501	350.35
612.92	392.48
613.339	296.52
613.757	385.46
614.176	369.07
614.594	305.88
615.013	322.26
615.431	355.03
615.85	333.97
616.268	343.33
616.686	336.31
617.104	343.33
617.522	294.18
617.94	294.18
618.358	308.22
618.776	355.03
619.194	345.67
619.612	366.73
620.03	348.01
620.447	298.86
620.865	331.62
621.282	355.03
621.7	362.05
622.117	329.28
622.535	355.03
622.952	343.33
623.369	284.81
623.787	355.03
624.204	371.41
624.621	312.9
625.038	355.03
625.455	310.56
625.872	345.67
626.289	308.22
626.706	348.01
627.123	266.09
627.539	352.69
627.956	378.44
628.373	331.62
628.789	301.2
629.206	376.09
629.622	317.58
630.038	333.97
630.455	338.65
630.871	352.69
631.287	268.43
631.703	364.39
632.12	355.03
632.536	296.52
632.952	308.22
633.368	317.58
633.783	345.67
634.199	336.31
634.615	397.16
635.031	350.35
635.446	336.31
635.862	364.39
636.277	378.44
636.693	305.88
637.108	296.52
637.524	317.58
637.939	369.07
638.354	371.41
638.77	378.44
639.185	397.16
639.6	392.48
640.015	305.88
640.43	345.67
640.845	329.28
641.259	305.88
641.674	392.48
642.089	317.58
642.504	317.58
642.918	343.33
643.333	280.13
643.747	303.54
644.162	350.35
644.576	392.48
644.991	322.26
645.405	298.86
645.819	371.41
646.233	399.5
646.647	275.45
647.061	291.84
647.475	298.86
647.889	415.88
648.303	364.39
648.717	324.6
649.131	301.2
649.545	303.54
649.958	263.75
650.372	355.03
650.785	280.13
651.199	310.56
651.612	305.88
652.026	287.15
652.439	298.86
652.852	340.99
653.266	385.46
653.679	317.58
654.092	308.22
654.505	238
654.918	324.6
655.331	376.09
655.744	294.18
656.156	359.71
656.569	352.69
656.982	355.03
657.394	291.84
657.807	371.41
658.22	305.88
658.632	350.35
659.044	359.71
659.457	338.65
659.869	340.99
660.281	336.31
660.693	380.78
661.106	324.6
661.518	329.28
661.93	376.09
662.342	350.35
662.754	298.86
663.165	397.16
663.577	352.69
663.989	240.34
664.401	376.09
664.812	326.94
665.224	329.28
665.635	340.99
666.047	369.07
666.458	296.52
666.869	326.94
667.281	362.05
667.692	399.5
668.103	319.92
668.514	350.35
668.925	326.94
669.336	369.07
669.747	322.26
670.158	273.11
670.569	319.92
670.979	387.8
671.39	366.73
671.801	385.46
672.211	296.52
672.622	376.09
673.032	362.05
673.443	296.52
673.853	352.69
674.263	340.99
674.674	324.6
675.084	369.07
675.494	312.9
675.904	284.81
676.314	366.73
676.724	336.31
677.134	357.37
677.544	329.28
677.953	287.15
678.363	362.05
678.773	345.67
679.182	366.73
679.592	343.33
680.001	289.5
680.411	298.86
680.82	355.03
681.23	385.46
681.639	336.31
682.048	359.71
682.457	355.03
682.866	331.62
683.275	319.92
683.684	326.94
684.093	357.37
684.502	326.94
684.911	310.56
685.32	296.52
685.728	322.26
686.137	343.33
686.546	345.67
686.954	324.6
687.363	331.62
687.771	301.2
688.179	340.99
688.588	373.75
688.996	336.31
689.404	319.92
689.812	371.41
690.22	404.18
690.628	308.22
691.036	340.99
691.444	319.92
691.852	350.35
692.26	362.05
692.667	326.94
693.075	371.41
693.483	348.01
693.89	366.73
694.298	378.44
694.705	331.62
695.112	312.9
695.52	380.78
695.927	366.73
696.334	348.01
696.741	338.65
697.148	338.65
697.555	275.45
697.962	394.82
698.369	418.22
698.776	333.97
699.183	319.92
699.59	338.65
699.996	310.56
700.403	355.03
700.81	340.99
701.216	301.2
701.623	310.56
702.029	376.09
702.435	322.26
702.842	338.65
703.248	338.65
703.654	296.52
704.06	371.41
704.466	329.28
704.872	324.6
705.278	343.33
705.684	340.99
706.09	308.22
706.496	268.43
706.901	298.86
707.307	275.45
707.712	329.28
708.118	345.67
708.523	284.81
708.929	387.8
709.334	329.28
709.74	380.78
710.145	364.39
710.55	348.01
710.955	305.88
711.36	362.05
711.765	336.31
712.17	345.67
712.575	273.11
712.98	996.34
713.385	355.03
713.789	345.67
714.194	326.94
714.599	352.69
715.003	305.88
715.408	336.31
715.812	331.62
716.217	294.18
716.621	331.62
717.025	355.03
717.429	317.58
717.833	352.69
718.238	366.73
718.642	329.28
719.046	331.62
719.449	336.31
719.853	364.39
720.257	296.52
720.661	310.56
721.065	333.97
721.468	350.35
721.872	322.26
722.275	364.39
722.679	376.09
723.082	359.71
723.485	324.6
723.889	390.14
724.292	373.75
724.695	357.37
725.098	310.56
725.501	387.8
725.904	275.45
726.307	303.54
726.71	273.11
727.113	357.37
727.516	357.37
727.918	348.01
728.321	319.92
728.724	310.56
729.126	301.2
729.529	338.65
729.931	362.05
730.333	338.65
730.736	343.33
731.138	287.15
731.54	324.6
731.942	355.03
732.344	324.6
732.746	331.62
733.148	340.99
733.55	331.62
733.952	369.07
734.354	303.54
734.756	371.41
735.157	315.24
735.559	343.33
735.96	259.07
736.362	408.86
736.763	298.86
737.165	326.94
737.566	383.12
737.967	280.13
738.368	373.75
738.77	294.18
739.171	411.2
739.572	331.62
739.973	383.12
740.374	397.16
740.774	343.33
741.175	345.67
741.576	348.01
741.977	415.88
742.377	310.56
742.778	317.58
743.178	364.39
743.579	310.56
743.979	348.01
744.379	348.01
744.78	336.31
745.18	336.31
745.58	352.69
745.98	287.15
746.38	333.97
746.78	383.12
747.18	345.67
747.58	294.18
747.98	336.31
748.38	303.54
748.779	387.8
749.179	331.62
749.578	273.11
749.978	336.31
750.377	362.05
750.777	310.56
751.176	282.47
751.575	301.2
751.975	359.71
752.374	326.94
752.773	376.09
753.172	366.73
753.571	413.54
753.97	348.01
754.369	303.54
754.768	259.07
755.166	305.88
755.565	333.97
755.964	324.6
756.362	348.01
756.761	383.12
757.159	378.44
757.558	392.48
757.956	340.99
758.354	380.78
758.753	275.45
759.151	282.47
759.549	373.75
759.947	301.2
760.345	340.99
760.743	343.33
761.141	310.56
761.539	411.2
761.936	362.05
762.334	319.92
762.732	355.03
763.129	296.52
763.527	303.54
763.924	406.52
764.322	348.01
764.719	317.58
765.117	378.44
