Data from Al_FLMS009871__895__16-17-04-625.txt Node

Date: Fri Mar 08 16:17:04 CST 2024
User: pe5414po
Spectrometer: FLMS00987
Trigger mode: 0
Integration Time (sec): 1.000000E-1
Scans to average: 1
Electric dark correction enabled: true
Nonlinearity correction enabled: false
Boxcar width: 0
XAxis mode: Wavelengths
Number of Pixels in Spectrum: 2048
>>>>>Begin Spectral Data<<<<<
188.938	-62.46
189.409	-62.46
189.879	-62.46
190.349	-135.02
190.819	-85.87
191.29	-92.89
191.76	-34.38
192.23	-95.23
192.7	-97.57
193.17	-57.78
193.64	-6.29
194.109	-41.4
194.579	-43.74
195.049	-17.99
195.519	31.16
195.988	33.5
196.458	28.82
196.927	70.95
197.397	110.74
197.866	80.31
198.336	131.8
198.805	166.91
199.274	197.34
199.744	213.72
200.213	220.74
200.682	209.04
201.151	199.68
201.62	246.49
202.089	293.3
202.558	276.91
203.027	187.97
203.495	300.32
203.964	225.42
204.433	305
204.902	272.23
205.37	251.17
205.839	302.66
206.307	302.66
206.776	314.36
207.244	246.49
207.712	307.34
208.181	290.96
208.649	234.78
209.117	248.83
209.585	319.04
210.053	386.92
210.521	251.17
210.989	316.7
211.457	281.6
211.925	321.38
212.393	314.36
212.861	265.21
213.328	232.44
213.796	288.62
214.264	290.96
214.731	262.87
215.199	267.55
215.666	265.21
216.133	293.3
216.601	223.08
217.068	251.17
217.535	351.81
218.003	262.87
218.47	319.04
218.937	288.62
219.404	288.62
219.871	305
220.338	326.07
220.805	260.53
221.271	321.38
221.738	223.08
222.205	225.42
222.671	269.89
223.138	241.81
223.605	272.23
224.071	232.44
224.538	269.89
225.004	274.57
225.47	232.44
225.937	316.7
226.403	260.53
226.869	297.98
227.335	262.87
227.801	340.11
228.267	312.02
228.733	330.75
229.199	307.34
229.665	218.4
230.131	319.04
230.597	267.55
231.062	295.64
231.528	265.21
231.994	267.55
232.459	293.3
232.925	244.15
233.39	239.47
233.856	276.91
234.321	286.28
234.786	286.28
235.252	297.98
235.717	267.55
236.182	211.38
236.647	272.23
237.112	276.91
237.577	246.49
238.042	300.32
238.507	290.96
238.972	269.89
239.436	225.42
239.901	230.1
240.366	241.81
240.83	269.89
241.295	293.3
241.76	279.26
242.224	230.1
242.688	283.94
243.153	316.7
243.617	295.64
244.081	312.02
244.545	253.51
245.01	314.36
245.474	260.53
245.938	314.36
246.402	323.73
246.866	246.49
247.33	276.91
247.793	321.38
248.257	286.28
248.721	253.51
249.185	244.15
249.648	267.55
250.112	309.68
250.575	258.19
251.039	293.3
251.502	312.02
251.965	276.91
252.429	326.07
252.892	351.81
253.355	286.28
253.818	314.36
254.281	342.45
254.744	312.02
255.207	342.45
255.67	281.6
256.133	319.04
256.596	267.55
257.059	300.32
257.522	258.19
257.984	312.02
258.447	330.75
258.909	262.87
259.372	297.98
259.834	314.36
260.297	267.55
260.759	281.6
261.221	368.2
261.684	269.89
262.146	276.91
262.608	234.78
263.07	302.66
263.532	305
263.994	279.26
264.456	276.91
264.918	227.76
265.38	305
265.842	244.15
266.303	232.44
266.765	286.28
267.227	286.28
267.688	328.41
268.15	321.38
268.611	297.98
269.072	244.15
269.534	262.87
269.995	321.38
270.456	244.15
270.918	265.21
271.379	237.13
271.84	288.62
272.301	225.42
272.762	279.26
273.223	328.41
273.684	286.28
274.144	312.02
274.605	321.38
275.066	218.4
275.527	335.43
275.987	234.78
276.448	272.23
276.908	286.28
277.369	253.51
277.829	255.85
278.289	237.13
278.75	279.26
279.21	276.91
279.67	316.7
280.13	281.6
280.59	342.45
281.05	288.62
281.51	276.91
281.97	330.75
282.43	260.53
282.89	244.15
283.35	312.02
283.809	309.68
284.269	347.13
284.729	326.07
285.188	330.75
285.648	290.96
286.107	297.98
286.567	288.62
287.026	372.88
287.485	239.47
287.944	372.88
288.404	349.47
288.863	321.38
289.322	283.94
289.781	290.96
290.24	302.66
290.699	305
291.158	342.45
291.616	290.96
292.075	283.94
292.534	295.64
292.992	319.04
293.451	333.09
293.91	274.57
294.368	333.09
294.827	309.68
295.285	335.43
295.743	305
296.202	323.73
296.66	337.77
297.118	283.94
297.576	307.34
298.034	342.45
298.492	290.96
298.95	349.47
299.408	328.41
299.866	297.98
300.324	305
300.781	312.02
301.239	337.77
301.697	326.07
302.154	237.13
302.612	342.45
303.069	342.45
303.527	293.3
303.984	340.11
304.441	309.68
304.899	309.68
305.356	309.68
305.813	276.91
306.27	300.32
306.727	302.66
307.184	312.02
307.641	288.62
308.098	384.58
308.555	241.81
309.012	365.85
309.468	365.85
309.925	302.66
310.382	293.3
310.838	307.34
311.295	321.38
311.751	260.53
312.208	276.91
312.664	365.85
313.12	326.07
313.577	351.81
314.033	321.38
314.489	272.23
314.945	363.51
315.401	279.26
315.857	337.77
316.313	239.47
316.769	363.51
317.225	293.3
317.681	340.11
318.136	288.62
318.592	309.68
319.048	330.75
319.503	248.83
319.959	272.23
320.414	335.43
320.869	283.94
321.325	333.09
321.78	234.78
322.235	335.43
322.691	326.07
323.146	314.36
323.601	286.28
324.056	326.07
324.511	321.38
324.966	260.53
325.421	290.96
325.875	314.36
326.33	288.62
326.785	314.36
327.24	307.34
327.694	321.38
328.149	314.36
328.603	316.7
329.058	276.91
329.512	297.98
329.966	342.45
330.421	272.23
330.875	368.2
331.329	244.15
331.783	349.47
332.237	309.68
332.691	297.98
333.145	300.32
333.599	344.79
334.053	342.45
334.507	293.3
334.96	354.15
335.414	340.11
335.868	312.02
336.321	305
336.775	337.77
337.228	307.34
337.682	290.96
338.135	295.64
338.588	370.54
339.042	321.38
339.495	335.43
339.948	316.7
340.401	337.77
340.854	319.04
341.307	328.41
341.76	269.89
342.213	288.62
342.666	321.38
343.119	344.79
343.571	302.66
344.024	297.98
344.477	269.89
344.929	258.19
345.382	349.47
345.834	333.09
346.287	335.43
346.739	260.53
347.191	375.22
347.644	300.32
348.096	337.77
348.548	213.72
349	279.26
349.452	344.79
349.904	410.33
350.356	326.07
350.808	330.75
351.26	321.38
351.711	302.66
352.163	312.02
352.615	297.98
353.066	286.28
353.518	384.58
353.969	347.13
354.421	295.64
354.872	246.49
355.324	337.77
355.775	344.79
356.226	326.07
356.677	300.32
357.128	272.23
357.579	358.83
358.03	368.2
358.481	368.2
358.932	321.38
359.383	358.83
359.834	333.09
360.285	267.55
360.735	319.04
361.186	347.13
361.637	272.23
362.087	342.45
362.538	300.32
362.988	283.94
363.438	297.98
363.889	312.02
364.339	351.81
364.789	307.34
365.239	323.73
365.689	326.07
366.139	365.85
366.589	323.73
367.039	321.38
367.489	290.96
367.939	326.07
368.389	279.26
368.839	351.81
369.288	323.73
369.738	302.66
370.187	312.02
370.637	363.51
371.086	309.68
371.536	319.04
371.985	384.58
372.434	314.36
372.884	297.98
373.333	297.98
373.782	307.34
374.231	321.38
374.68	323.73
375.129	349.47
375.578	307.34
376.027	293.3
376.475	333.09
376.924	319.04
377.373	314.36
377.822	335.43
378.27	347.13
378.719	365.85
379.167	326.07
379.616	319.04
380.064	358.83
380.512	335.43
380.961	307.34
381.409	279.26
381.857	349.47
382.305	319.04
382.753	293.3
383.201	349.47
383.649	335.43
384.097	328.41
384.545	297.98
384.992	281.6
385.44	337.77
385.888	302.66
386.335	330.75
386.783	246.49
387.231	330.75
387.678	335.43
388.125	361.17
388.573	375.22
389.02	314.36
389.467	314.36
389.914	316.7
390.362	239.47
390.809	330.75
391.256	337.77
391.703	309.68
392.15	330.75
392.596	309.68
393.043	295.64
393.49	330.75
393.937	297.98
394.383	319.04
394.83	358.83
395.276	295.64
395.723	384.58
396.169	382.24
396.616	372.88
397.062	314.36
397.508	281.6
397.954	293.3
398.401	354.15
398.847	307.34
399.293	342.45
399.739	246.49
400.185	305
400.631	265.21
401.076	312.02
401.522	356.49
401.968	276.91
402.414	314.36
402.859	290.96
403.305	305
403.75	302.66
404.196	365.85
404.641	314.36
405.086	344.79
405.532	305
405.977	272.23
406.422	288.62
406.867	309.68
407.312	293.3
407.757	319.04
408.202	335.43
408.647	330.75
409.092	302.66
409.537	281.6
409.982	316.7
410.426	274.57
410.871	305
411.316	290.96
411.76	349.47
412.205	283.94
412.649	323.73
413.093	342.45
413.538	227.76
413.982	248.83
414.426	267.55
414.87	281.6
415.314	347.13
415.758	234.78
416.202	305
416.646	281.6
417.09	251.17
417.534	321.38
417.978	330.75
418.421	276.91
418.865	288.62
419.309	283.94
419.752	290.96
420.196	323.73
420.639	375.22
421.083	349.47
421.526	389.26
421.969	293.3
422.412	328.41
422.856	340.11
423.299	333.09
423.742	314.36
424.185	351.81
424.628	335.43
425.071	319.04
425.513	319.04
425.956	347.13
426.399	351.81
426.842	312.02
427.284	377.56
427.727	288.62
428.169	297.98
428.612	309.68
429.054	323.73
429.497	384.58
429.939	344.79
430.381	344.79
430.823	316.7
431.265	323.73
431.707	279.26
432.149	279.26
432.591	386.92
433.033	349.47
433.475	309.68
433.917	377.56
434.359	326.07
434.8	328.41
435.242	347.13
435.684	312.02
436.125	309.68
436.567	354.15
437.008	297.98
437.449	288.62
437.891	272.23
438.332	335.43
438.773	391.6
439.214	265.21
439.656	302.66
440.097	288.62
440.538	321.38
440.978	260.53
441.419	314.36
441.86	351.81
442.301	330.75
442.742	253.51
443.182	349.47
443.623	314.36
444.063	347.13
444.504	305
444.944	297.98
445.385	337.77
445.825	305
446.265	340.11
446.706	356.49
447.146	330.75
447.586	293.3
448.026	305
448.466	305
448.906	297.98
449.346	309.68
449.786	276.91
450.225	276.91
450.665	365.85
451.105	363.51
451.544	312.02
451.984	309.68
452.424	300.32
452.863	358.83
453.302	293.3
453.742	276.91
454.181	283.94
454.62	344.79
455.059	314.36
455.499	295.64
455.938	337.77
456.377	305
456.816	302.66
457.254	248.83
457.693	319.04
458.132	349.47
458.571	347.13
459.01	365.85
459.448	342.45
459.887	288.62
460.325	323.73
460.764	251.17
461.202	246.49
461.641	342.45
462.079	340.11
462.517	333.09
462.955	223.08
463.393	319.04
463.832	323.73
464.27	337.77
464.708	342.45
465.145	340.11
465.583	377.56
466.021	286.28
466.459	302.66
466.897	347.13
467.334	309.68
467.772	267.55
468.209	337.77
468.647	333.09
469.084	227.76
469.522	321.38
469.959	300.32
470.396	344.79
470.833	272.23
471.271	314.36
471.708	319.04
472.145	349.47
472.582	363.51
473.019	335.43
473.456	276.91
473.892	283.94
474.329	319.04
474.766	218.4
475.202	326.07
475.639	286.28
476.076	286.28
476.512	297.98
476.949	272.23
477.385	377.56
477.821	426.71
478.258	319.04
478.694	283.94
479.13	354.15
479.566	309.68
480.002	309.68
480.438	326.07
480.874	300.32
481.31	312.02
481.746	326.07
482.181	326.07
482.617	302.66
483.053	396.28
483.488	281.6
483.924	283.94
484.36	293.3
484.795	347.13
485.23	337.77
485.666	349.47
486.101	305
486.536	319.04
486.971	358.83
487.407	335.43
487.842	323.73
488.277	323.73
488.712	335.43
489.146	323.73
489.581	279.26
490.016	305
490.451	305
490.885	344.79
491.32	333.09
491.755	415.01
492.189	323.73
492.624	337.77
493.058	312.02
493.492	323.73
493.927	239.47
494.361	305
494.795	410.33
495.229	305
495.663	347.13
496.097	314.36
496.531	342.45
496.965	307.34
497.399	281.6
497.833	358.83
498.266	351.81
498.7	323.73
499.134	363.51
499.567	326.07
500.001	276.91
500.434	267.55
500.868	276.91
501.301	349.47
501.734	288.62
502.168	328.41
502.601	333.09
503.034	295.64
503.467	309.68
503.9	340.11
504.333	354.15
504.766	276.91
505.199	337.77
505.632	316.7
506.064	295.64
506.497	368.2
506.93	337.77
507.362	255.85
507.795	297.98
508.227	300.32
508.66	393.94
509.092	316.7
509.524	286.28
509.956	335.43
510.389	316.7
510.821	293.3
511.253	307.34
511.685	328.41
512.117	368.2
512.549	363.51
512.981	333.09
513.412	283.94
513.844	297.98
514.276	309.68
514.707	372.88
515.139	370.54
515.571	286.28
516.002	307.34
516.433	330.75
516.865	283.94
517.296	365.85
517.727	295.64
518.159	335.43
518.59	361.17
519.021	290.96
519.452	340.11
519.883	314.36
520.314	321.38
520.744	248.83
521.175	265.21
521.606	295.64
522.037	323.73
522.467	300.32
522.898	323.73
523.328	295.64
523.759	393.94
524.189	290.96
524.62	316.7
525.05	356.49
525.48	342.45
525.91	283.94
526.341	321.38
526.771	293.3
527.201	358.83
527.631	356.49
528.061	347.13
528.49	347.13
528.92	337.77
529.35	305
529.78	297.98
530.209	274.57
530.639	321.38
531.068	321.38
531.498	295.64
531.927	316.7
532.357	239.47
532.786	323.73
533.215	351.81
533.644	290.96
534.074	410.33
534.503	276.91
534.932	309.68
535.361	319.04
535.79	307.34
536.218	330.75
536.647	305
537.076	260.53
537.505	297.98
537.933	344.79
538.362	323.73
538.79	300.32
539.219	283.94
539.647	372.88
540.076	293.3
540.504	328.41
540.932	312.02
541.36	337.77
541.788	321.38
542.217	333.09
542.645	354.15
543.073	290.96
543.5	326.07
543.928	276.91
544.356	248.83
544.784	227.76
545.211	363.51
545.639	260.53
546.067	281.6
546.494	305
546.922	253.51
547.349	335.43
547.776	260.53
548.204	302.66
548.631	309.68
549.058	363.51
549.485	279.26
549.912	335.43
550.339	309.68
550.766	344.79
551.193	288.62
551.62	368.2
552.047	321.38
552.474	260.53
552.9	335.43
553.327	344.79
553.754	281.6
554.18	281.6
554.607	260.53
555.033	260.53
555.459	316.7
555.886	316.7
556.312	312.02
556.738	255.85
557.164	279.26
557.59	344.79
558.016	283.94
558.442	258.19
558.868	328.41
559.294	312.02
559.72	321.38
560.145	361.17
560.571	361.17
560.997	279.26
561.422	365.85
561.848	361.17
562.273	319.04
562.699	290.96
563.124	377.56
563.549	330.75
563.974	314.36
564.4	330.75
564.825	368.2
565.25	370.54
565.675	300.32
566.1	300.32
566.525	295.64
566.95	365.85
567.374	333.09
567.799	297.98
568.224	312.02
568.648	351.81
569.073	349.47
569.497	290.96
569.922	349.47
570.346	281.6
570.771	319.04
571.195	305
571.619	283.94
572.043	398.62
572.467	330.75
572.891	297.98
573.315	384.58
573.739	361.17
574.163	314.36
574.587	314.36
575.011	344.79
575.435	326.07
575.858	314.36
576.282	361.17
576.705	281.6
577.129	344.79
577.552	354.15
577.976	323.73
578.399	356.49
578.822	344.79
579.245	293.3
579.669	269.89
580.092	379.9
580.515	340.11
580.938	307.34
581.361	328.41
581.784	274.57
582.206	262.87
582.629	300.32
583.052	340.11
583.474	326.07
583.897	356.49
584.32	326.07
584.742	316.7
585.165	314.36
585.587	307.34
586.009	283.94
586.431	297.98
586.854	288.62
587.276	290.96
587.698	368.2
588.12	333.09
588.542	312.02
588.964	283.94
589.386	354.15
589.807	314.36
590.229	342.45
590.651	281.6
591.073	351.81
591.494	293.3
591.916	379.9
592.337	276.91
592.759	293.3
593.18	323.73
593.601	300.32
594.022	314.36
594.444	337.77
594.865	314.36
595.286	272.23
595.707	307.34
596.128	239.47
596.549	344.79
596.97	290.96
597.39	382.24
597.811	307.34
598.232	370.54
598.652	326.07
599.073	330.75
599.494	302.66
599.914	265.21
600.334	333.09
600.755	340.11
601.175	375.22
601.595	323.73
602.015	351.81
602.436	305
602.856	431.39
603.276	283.94
603.696	328.41
604.115	347.13
604.535	290.96
604.955	321.38
605.375	351.81
605.794	265.21
606.214	330.75
606.634	326.07
607.053	370.54
607.473	328.41
607.892	276.91
608.311	384.58
608.731	349.47
609.15	356.49
609.569	349.47
609.988	305
610.407	297.98
610.826	286.28
611.245	358.83
611.664	365.85
612.083	300.32
612.501	274.57
612.92	328.41
613.339	295.64
613.757	335.43
614.176	297.98
614.594	356.49
615.013	344.79
615.431	295.64
615.85	307.34
616.268	312.02
616.686	307.34
617.104	344.79
617.522	375.22
617.94	363.51
618.358	365.85
618.776	344.79
619.194	274.57
619.612	358.83
620.03	358.83
620.447	340.11
620.865	340.11
621.282	328.41
621.7	305
622.117	305
622.535	309.68
622.952	337.77
623.369	340.11
623.787	328.41
624.204	305
624.621	288.62
625.038	368.2
625.455	384.58
625.872	316.7
626.289	323.73
626.706	279.26
627.123	305
627.539	321.38
627.956	265.21
628.373	328.41
628.789	391.6
629.206	347.13
629.622	295.64
630.038	361.17
630.455	307.34
630.871	321.38
631.287	330.75
631.703	258.19
632.12	356.49
632.536	274.57
632.952	258.19
633.368	328.41
633.783	281.6
634.199	307.34
634.615	328.41
635.031	333.09
635.446	265.21
635.862	340.11
636.277	391.6
636.693	265.21
637.108	356.49
637.524	365.85
637.939	347.13
638.354	326.07
638.77	290.96
639.185	316.7
639.6	330.75
640.015	368.2
640.43	321.38
640.845	316.7
641.259	363.51
641.674	295.64
642.089	342.45
642.504	342.45
642.918	307.34
643.333	297.98
643.747	276.91
644.162	272.23
644.576	328.41
644.991	344.79
645.405	372.88
645.819	305
646.233	288.62
646.647	349.47
647.061	251.17
647.475	358.83
647.889	314.36
648.303	265.21
648.717	253.51
649.131	251.17
649.545	300.32
649.958	309.68
650.372	290.96
650.785	340.11
651.199	307.34
651.612	391.6
652.026	344.79
652.439	344.79
652.852	361.17
653.266	293.3
653.679	340.11
654.092	297.98
654.505	321.38
654.918	272.23
655.331	342.45
655.744	347.13
656.156	316.7
656.569	337.77
656.982	283.94
657.394	309.68
657.807	307.34
658.22	288.62
658.632	269.89
659.044	305
659.457	349.47
659.869	307.34
660.281	321.38
660.693	321.38
661.106	365.85
661.518	417.35
661.93	335.43
662.342	375.22
662.754	309.68
663.165	335.43
663.577	379.9
663.989	344.79
664.401	382.24
664.812	335.43
665.224	321.38
665.635	347.13
666.047	363.51
666.458	274.57
666.869	302.66
667.281	309.68
667.692	358.83
668.103	354.15
668.514	328.41
668.925	305
669.336	377.56
669.747	323.73
670.158	330.75
670.569	368.2
670.979	347.13
671.39	370.54
671.801	309.68
672.211	351.81
672.622	309.68
673.032	340.11
673.443	351.81
673.853	307.34
674.263	309.68
674.674	396.28
675.084	361.17
675.494	323.73
675.904	354.15
676.314	349.47
676.724	314.36
677.134	272.23
677.544	305
677.953	293.3
678.363	328.41
678.773	347.13
679.182	358.83
679.592	314.36
680.001	300.32
680.411	349.47
680.82	307.34
681.23	225.42
681.639	347.13
682.048	232.44
682.457	314.36
682.866	312.02
683.275	316.7
683.684	302.66
684.093	326.07
684.502	375.22
684.911	319.04
685.32	330.75
685.728	276.91
686.137	340.11
686.546	358.83
686.954	293.3
687.363	314.36
687.771	384.58
688.179	248.83
688.588	347.13
688.996	286.28
689.404	305
689.812	260.53
690.22	379.9
690.628	354.15
691.036	314.36
691.444	328.41
691.852	307.34
692.26	305
692.667	293.3
693.075	347.13
693.483	302.66
693.89	297.98
694.298	319.04
694.705	356.49
695.112	354.15
695.52	417.35
695.927	312.02
696.334	321.38
696.741	251.17
697.148	330.75
697.555	375.22
697.962	375.22
698.369	370.54
698.776	349.47
699.183	267.55
699.59	279.26
699.996	326.07
700.403	244.15
700.81	295.64
701.216	351.81
701.623	232.44
702.029	312.02
702.435	302.66
702.842	337.77
703.248	323.73
703.654	297.98
704.06	276.91
704.466	300.32
704.872	279.26
705.278	384.58
705.684	279.26
706.09	342.45
706.496	316.7
706.901	377.56
707.307	321.38
707.712	297.98
708.118	319.04
708.523	400.96
708.929	328.41
709.334	290.96
709.74	269.89
710.145	335.43
710.55	340.11
710.955	302.66
711.36	321.38
711.765	302.66
712.17	377.56
712.575	319.04
712.98	908.86
713.385	328.41
713.789	323.73
714.194	309.68
714.599	312.02
715.003	232.44
715.408	293.3
715.812	337.77
716.217	265.21
716.621	323.73
717.025	326.07
717.429	328.41
717.833	321.38
718.238	333.09
718.642	314.36
719.046	293.3
719.449	297.98
719.853	290.96
720.257	347.13
720.661	323.73
721.065	267.55
721.468	316.7
721.872	279.26
722.275	363.51
722.679	365.85
723.082	305
723.485	335.43
723.889	316.7
724.292	297.98
724.695	316.7
725.098	337.77
725.501	321.38
725.904	330.75
726.307	316.7
726.71	321.38
727.113	297.98
727.516	309.68
727.918	295.64
728.321	326.07
728.724	365.85
729.126	316.7
729.529	335.43
729.931	290.96
730.333	321.38
730.736	326.07
731.138	307.34
731.54	312.02
731.942	307.34
732.344	351.81
732.746	424.37
733.148	326.07
733.55	314.36
733.952	283.94
734.354	309.68
734.756	403.3
735.157	283.94
735.559	276.91
735.96	272.23
736.362	349.47
736.763	340.11
737.165	314.36
737.566	333.09
737.967	316.7
738.368	323.73
738.77	305
739.171	272.23
739.572	370.54
739.973	349.47
740.374	267.55
740.774	333.09
741.175	344.79
741.576	286.28
741.977	323.73
742.377	286.28
742.778	333.09
743.178	340.11
743.579	412.67
743.979	342.45
744.379	319.04
744.78	333.09
745.18	305
745.58	312.02
745.98	319.04
746.38	330.75
746.78	365.85
747.18	305
747.58	361.17
747.98	312.02
748.38	286.28
748.779	377.56
749.179	365.85
749.578	305
749.978	328.41
750.377	305
750.777	314.36
751.176	335.43
751.575	379.9
751.975	283.94
752.374	309.68
752.773	286.28
753.172	391.6
753.571	290.96
753.97	370.54
754.369	326.07
754.768	337.77
755.166	293.3
755.565	335.43
755.964	412.67
756.362	265.21
756.761	316.7
757.159	361.17
757.558	293.3
757.956	316.7
758.354	333.09
758.753	307.34
759.151	300.32
759.549	305
759.947	330.75
760.345	267.55
760.743	330.75
761.141	340.11
761.539	323.73
761.936	319.04
762.334	295.64
762.732	295.64
763.129	286.28
763.527	314.36
763.924	293.3
764.322	342.45
764.719	286.28
765.117	379.9
765.514	351.81
765.911	309.68
766.308	286.28
766.705	361.17
767.102	314.36
767.499	281.6
767.896	358.83
768.293	305
