Data from Al_FLMS009871__886__16-17-03-725.txt Node

Date: Fri Mar 08 16:17:03 CST 2024
User: pe5414po
Spectrometer: FLMS00987
Trigger mode: 0
Integration Time (sec): 1.000000E-1
Scans to average: 1
Electric dark correction enabled: true
Nonlinearity correction enabled: false
Boxcar width: 0
XAxis mode: Wavelengths
Number of Pixels in Spectrum: 2048
>>>>>Begin Spectral Data<<<<<
188.938	-120.25
189.409	-120.25
189.879	-120.25
190.349	-61.73
190.819	-89.82
191.29	-43.01
191.76	-164.72
192.23	-71.09
192.7	-113.22
193.17	-52.37
193.64	-66.41
194.109	-5.56
194.579	-28.96
195.049	24.87
195.519	13.17
195.988	20.19
196.458	45.93
196.927	48.27
197.397	123.17
197.866	92.74
198.336	177
198.805	137.21
199.274	116.15
199.744	162.96
200.213	198.07
200.682	169.98
201.151	198.07
201.62	256.58
202.089	256.58
202.558	247.22
203.027	242.54
203.495	256.58
203.964	289.35
204.433	308.07
204.902	289.35
205.37	338.5
205.839	303.39
206.307	287.01
206.776	263.6
207.244	310.41
207.712	312.75
208.181	368.93
208.649	315.09
209.117	270.62
209.585	289.35
210.053	270.62
210.521	279.99
210.989	272.96
211.457	310.41
211.925	216.79
212.393	216.79
212.861	301.05
213.328	261.26
213.796	294.03
214.264	317.44
214.731	350.2
215.199	289.35
215.666	249.56
216.133	308.07
216.601	301.05
217.068	265.94
217.535	226.15
218.003	343.18
218.47	301.05
218.937	251.9
219.404	279.99
219.871	242.54
220.338	272.96
220.805	265.94
221.271	249.56
221.738	277.65
222.205	287.01
222.671	275.31
223.138	312.75
223.605	249.56
224.071	244.88
224.538	258.92
225.004	289.35
225.47	270.62
225.937	235.52
226.403	270.62
226.869	249.56
227.335	305.73
227.801	258.92
228.267	261.26
228.733	310.41
229.199	277.65
229.665	310.41
230.131	230.84
230.597	305.73
231.062	345.52
231.528	301.05
231.994	270.62
232.459	268.28
232.925	277.65
233.39	221.47
233.856	312.75
234.321	301.05
234.786	277.65
235.252	263.6
235.717	315.09
236.182	251.9
236.647	200.41
237.112	254.24
237.577	214.45
238.042	282.33
238.507	254.24
238.972	214.45
239.436	275.31
239.901	277.65
240.366	233.18
240.83	284.67
241.295	296.37
241.76	270.62
242.224	235.52
242.688	235.52
243.153	308.07
243.617	301.05
244.081	324.46
244.545	251.9
245.01	237.86
245.474	244.88
245.938	251.9
246.402	254.24
246.866	301.05
247.33	326.8
247.793	340.84
248.257	244.88
248.721	275.31
249.185	275.31
249.648	254.24
250.112	279.99
250.575	256.58
251.039	284.67
251.502	331.48
251.965	284.67
252.429	282.33
252.892	308.07
253.355	294.03
253.818	284.67
254.281	289.35
254.744	294.03
255.207	282.33
255.67	317.44
256.133	265.94
256.596	329.14
257.059	303.39
257.522	265.94
257.984	226.15
258.447	256.58
258.909	354.88
259.372	331.48
259.834	294.03
260.297	298.71
260.759	237.86
261.221	263.6
261.684	279.99
262.146	247.22
262.608	291.69
263.07	251.9
263.532	322.12
263.994	319.78
264.456	331.48
264.918	294.03
265.38	310.41
265.842	303.39
266.303	237.86
266.765	331.48
267.227	289.35
267.688	340.84
268.15	275.31
268.611	340.84
269.072	336.16
269.534	329.14
269.995	256.58
270.456	303.39
270.918	275.31
271.379	291.69
271.84	256.58
272.301	256.58
272.762	275.31
273.223	312.75
273.684	275.31
274.144	303.39
274.605	317.44
275.066	322.12
275.527	331.48
275.987	331.48
276.448	247.22
276.908	319.78
277.369	345.52
277.829	294.03
278.289	322.12
278.75	308.07
279.21	270.62
279.67	310.41
280.13	294.03
280.59	308.07
281.05	282.33
281.51	244.88
281.97	294.03
282.43	331.48
282.89	301.05
283.35	312.75
283.809	294.03
284.269	322.12
284.729	317.44
285.188	340.84
285.648	284.67
286.107	251.9
286.567	322.12
287.026	301.05
287.485	364.25
287.944	294.03
288.404	272.96
288.863	331.48
289.322	242.54
289.781	244.88
290.24	298.71
290.699	303.39
291.158	350.2
291.616	301.05
292.075	289.35
292.534	347.86
292.992	322.12
293.451	284.67
293.91	275.31
294.368	319.78
294.827	279.99
295.285	294.03
295.743	228.49
296.202	331.48
296.66	284.67
297.118	347.86
297.576	265.94
298.034	331.48
298.492	228.49
298.95	308.07
299.408	308.07
299.866	368.93
300.324	289.35
300.781	298.71
301.239	319.78
301.697	333.82
302.154	326.8
302.612	319.78
303.069	263.6
303.527	336.16
303.984	319.78
304.441	310.41
304.899	279.99
305.356	284.67
305.813	244.88
306.27	308.07
306.727	331.48
307.184	329.14
307.641	322.12
308.098	359.56
308.555	329.14
309.012	345.52
309.468	279.99
309.925	256.58
310.382	294.03
310.838	265.94
311.295	385.31
311.751	301.05
312.208	331.48
312.664	303.39
313.12	308.07
313.577	312.75
314.033	331.48
314.489	312.75
314.945	359.56
315.401	301.05
315.857	303.39
316.313	256.58
316.769	350.2
317.225	247.22
317.681	289.35
318.136	294.03
318.592	228.49
319.048	317.44
319.503	345.52
319.959	319.78
320.414	289.35
320.869	317.44
321.325	338.5
321.78	301.05
322.235	275.31
322.691	310.41
323.146	324.46
323.601	256.58
324.056	294.03
324.511	289.35
324.966	303.39
325.421	347.86
325.875	312.75
326.33	359.56
326.785	282.33
327.24	303.39
327.694	326.8
328.149	331.48
328.603	312.75
329.058	294.03
329.512	233.18
329.966	291.69
330.421	265.94
330.875	247.22
331.329	322.12
331.783	268.28
332.237	289.35
332.691	284.67
333.145	261.26
333.599	256.58
334.053	291.69
334.507	282.33
334.96	303.39
335.414	254.24
335.868	289.35
336.321	303.39
336.775	322.12
337.228	284.67
337.682	326.8
338.135	310.41
338.588	340.84
339.042	326.8
339.495	289.35
339.948	301.05
340.401	312.75
340.854	336.16
341.307	347.86
341.76	258.92
342.213	336.16
342.666	294.03
343.119	357.22
343.571	326.8
344.024	375.95
344.477	296.37
344.929	331.48
345.382	322.12
345.834	258.92
346.287	331.48
346.739	282.33
347.191	326.8
347.644	308.07
348.096	301.05
348.548	340.84
349	340.84
349.452	324.46
349.904	301.05
350.356	317.44
350.808	303.39
351.26	275.31
351.711	333.82
352.163	265.94
352.615	301.05
353.066	308.07
353.518	350.2
353.969	310.41
354.421	279.99
354.872	373.61
355.324	301.05
355.775	294.03
356.226	303.39
356.677	282.33
357.128	357.22
357.579	279.99
358.03	322.12
358.481	298.71
358.932	317.44
359.383	336.16
359.834	301.05
360.285	308.07
360.735	258.92
361.186	291.69
361.637	291.69
362.087	331.48
362.538	319.78
362.988	338.5
363.438	340.84
363.889	294.03
364.339	322.12
364.789	261.26
365.239	312.75
365.689	364.25
366.139	279.99
366.589	340.84
367.039	291.69
367.489	336.16
367.939	329.14
368.389	408.72
368.839	312.75
369.288	364.25
369.738	333.82
370.187	322.12
370.637	301.05
371.086	312.75
371.536	399.35
371.985	324.46
372.434	340.84
372.884	294.03
373.333	294.03
373.782	385.31
374.231	347.86
374.68	420.42
375.129	359.56
375.578	345.52
376.027	303.39
376.475	256.58
376.924	287.01
377.373	340.84
377.822	291.69
378.27	317.44
378.719	364.25
379.167	361.91
379.616	340.84
380.064	350.2
380.512	249.56
380.961	258.92
381.409	333.82
381.857	336.16
382.305	331.48
382.753	277.65
383.201	324.46
383.649	347.86
384.097	254.24
384.545	270.62
384.992	310.41
385.44	296.37
385.888	261.26
386.335	312.75
386.783	301.05
387.231	294.03
387.678	338.5
388.125	272.96
388.573	317.44
389.02	317.44
389.467	298.71
389.914	345.52
390.362	247.22
390.809	277.65
391.256	324.46
391.703	329.14
392.15	287.01
392.596	294.03
393.043	310.41
393.49	272.96
393.937	167.64
394.383	310.41
394.83	322.12
395.276	317.44
395.723	387.65
396.169	291.69
396.616	326.8
397.062	317.44
397.508	338.5
397.954	378.29
398.401	326.8
398.847	324.46
399.293	352.54
399.739	303.39
400.185	270.62
400.631	347.86
401.076	338.5
401.522	282.33
401.968	284.67
402.414	315.09
402.859	350.2
403.305	298.71
403.75	298.71
404.196	368.93
404.641	347.86
405.086	406.38
405.532	254.24
405.977	291.69
406.422	256.58
406.867	345.52
407.312	359.56
407.757	336.16
408.202	331.48
408.647	298.71
409.092	315.09
409.537	270.62
409.982	357.22
410.426	354.88
410.871	291.69
411.316	258.92
411.76	347.86
412.205	308.07
412.649	254.24
413.093	308.07
413.538	235.52
413.982	359.56
414.426	324.46
414.87	354.88
415.314	347.86
415.758	340.84
416.202	294.03
416.646	258.92
417.09	413.4
417.534	308.07
417.978	298.71
418.421	354.88
418.865	338.5
419.309	326.8
419.752	277.65
420.196	291.69
420.639	352.54
421.083	336.16
421.526	324.46
421.969	333.82
422.412	298.71
422.856	240.2
423.299	315.09
423.742	347.86
424.185	329.14
424.628	287.01
425.071	301.05
425.513	315.09
425.956	364.25
426.399	308.07
426.842	329.14
427.284	298.71
427.727	310.41
428.169	352.54
428.612	268.28
429.054	312.75
429.497	301.05
429.939	322.12
430.381	329.14
430.823	357.22
431.265	326.8
431.707	275.31
432.149	331.48
432.591	265.94
433.033	340.84
433.475	333.82
433.917	317.44
434.359	303.39
434.8	359.56
435.242	326.8
435.684	272.96
436.125	324.46
436.567	308.07
437.008	228.49
437.449	287.01
437.891	317.44
438.332	301.05
438.773	291.69
439.214	354.88
439.656	305.73
440.097	385.31
440.538	228.49
440.978	289.35
441.419	301.05
441.86	338.5
442.301	336.16
442.742	284.67
443.182	268.28
443.623	354.88
444.063	284.67
444.504	287.01
444.944	294.03
445.385	282.33
445.825	296.37
446.265	284.67
446.706	301.05
447.146	265.94
447.586	350.2
448.026	338.5
448.466	364.25
448.906	350.2
449.346	298.71
449.786	256.58
450.225	279.99
450.665	272.96
451.105	284.67
451.544	319.78
451.984	359.56
452.424	263.6
452.863	382.97
453.302	294.03
453.742	322.12
454.181	322.12
454.62	279.99
455.059	310.41
455.499	331.48
455.938	322.12
456.377	322.12
456.816	315.09
457.254	303.39
457.693	303.39
458.132	251.9
458.571	368.93
459.01	268.28
459.448	279.99
459.887	317.44
460.325	333.82
460.764	340.84
461.202	371.27
461.641	319.78
462.079	319.78
462.517	324.46
462.955	303.39
463.393	282.33
463.832	289.35
464.27	289.35
464.708	291.69
465.145	303.39
465.583	354.88
466.021	301.05
466.459	343.18
466.897	312.75
467.334	237.86
467.772	272.96
468.209	312.75
468.647	296.37
469.084	275.31
469.522	317.44
469.959	322.12
470.396	289.35
470.833	310.41
471.271	317.44
471.708	263.6
472.145	359.56
472.582	357.22
473.019	265.94
473.456	319.78
473.892	326.8
474.329	275.31
474.766	326.8
475.202	350.2
475.639	312.75
476.076	315.09
476.512	308.07
476.949	357.22
477.385	354.88
477.821	331.48
478.258	296.37
478.694	319.78
479.13	289.35
479.566	324.46
480.002	261.26
480.438	305.73
480.874	298.71
481.31	258.92
481.746	282.33
482.181	287.01
482.617	329.14
483.053	357.22
483.488	268.28
483.924	303.39
484.36	230.84
484.795	364.25
485.23	294.03
485.666	347.86
486.101	326.8
486.536	319.78
486.971	254.24
487.407	279.99
487.842	401.69
488.277	315.09
488.712	317.44
489.146	265.94
489.581	324.46
490.016	375.95
490.451	272.96
490.885	254.24
491.32	364.25
491.755	291.69
492.189	336.16
492.624	350.2
493.058	294.03
493.492	347.86
493.927	364.25
494.361	310.41
494.795	228.49
495.229	308.07
495.663	350.2
496.097	357.22
496.531	265.94
496.965	350.2
497.399	352.54
497.833	308.07
498.266	359.56
498.7	373.61
499.134	303.39
499.567	324.46
500.001	338.5
500.434	261.26
500.868	361.91
501.301	340.84
501.734	258.92
502.168	364.25
502.601	366.59
503.034	277.65
503.467	298.71
503.9	301.05
504.333	394.67
504.766	397.01
505.199	291.69
505.632	310.41
506.064	336.16
506.497	275.31
506.93	354.88
507.362	308.07
507.795	284.67
508.227	338.5
508.66	336.16
509.092	408.72
509.524	380.63
509.956	289.35
510.389	303.39
510.821	357.22
511.253	375.95
511.685	301.05
512.117	329.14
512.549	284.67
512.981	322.12
513.412	340.84
513.844	364.25
514.276	317.44
514.707	322.12
515.139	312.75
515.571	336.16
516.002	366.59
516.433	352.54
516.865	340.84
517.296	312.75
517.727	287.01
518.159	312.75
518.59	305.73
519.021	298.71
519.452	368.93
519.883	324.46
520.314	326.8
520.744	361.91
521.175	301.05
521.606	331.48
522.037	301.05
522.467	291.69
522.898	338.5
523.328	251.9
523.759	336.16
524.189	359.56
524.62	345.52
525.05	322.12
525.48	272.96
525.91	352.54
526.341	326.8
526.771	338.5
527.201	312.75
527.631	294.03
528.061	324.46
528.49	291.69
528.92	359.56
529.35	359.56
529.78	312.75
530.209	324.46
530.639	326.8
531.068	308.07
531.498	317.44
531.927	331.48
532.357	291.69
532.786	352.54
533.215	296.37
533.644	301.05
534.074	359.56
534.503	289.35
534.932	272.96
535.361	357.22
535.79	298.71
536.218	331.48
536.647	305.73
537.076	354.88
537.505	289.35
537.933	282.33
538.362	275.31
538.79	268.28
539.219	301.05
539.647	333.82
540.076	317.44
540.504	336.16
540.932	347.86
541.36	336.16
541.788	343.18
542.217	319.78
542.645	277.65
543.073	303.39
543.5	352.54
543.928	263.6
544.356	331.48
544.784	319.78
545.211	312.75
545.639	329.14
546.067	326.8
546.494	340.84
546.922	345.52
547.349	336.16
547.776	279.99
548.204	235.52
548.631	237.86
549.058	268.28
549.485	357.22
549.912	352.54
550.339	336.16
550.766	312.75
551.193	310.41
551.62	378.29
552.047	291.69
552.474	296.37
552.9	364.25
553.327	308.07
553.754	340.84
554.18	298.71
554.607	357.22
555.033	329.14
555.459	296.37
555.886	275.31
556.312	399.35
556.738	312.75
557.164	317.44
557.59	333.82
558.016	308.07
558.442	329.14
558.868	247.22
559.294	296.37
559.72	375.95
560.145	310.41
560.571	270.62
560.997	336.16
561.422	366.59
561.848	298.71
562.273	326.8
562.699	324.46
563.124	315.09
563.549	350.2
563.974	324.46
564.4	329.14
564.825	310.41
565.25	347.86
565.675	308.07
566.1	352.54
566.525	279.99
566.95	322.12
567.374	317.44
567.799	305.73
568.224	315.09
568.648	347.86
569.073	294.03
569.497	329.14
569.922	319.78
570.346	333.82
570.771	378.29
571.195	294.03
571.619	312.75
572.043	345.52
572.467	310.41
572.891	298.71
573.315	294.03
573.739	289.35
574.163	301.05
574.587	345.52
575.011	296.37
575.435	317.44
575.858	305.73
576.282	336.16
576.705	338.5
577.129	329.14
577.552	296.37
577.976	296.37
578.399	277.65
578.822	242.54
579.245	331.48
579.669	315.09
580.092	329.14
580.515	338.5
580.938	361.91
581.361	317.44
581.784	254.24
582.206	326.8
582.629	298.71
583.052	277.65
583.474	277.65
583.897	298.71
584.32	347.86
584.742	258.92
585.165	310.41
585.587	301.05
586.009	277.65
586.431	308.07
586.854	301.05
587.276	251.9
587.698	336.16
588.12	385.31
588.542	352.54
588.964	350.2
589.386	361.91
589.807	301.05
590.229	340.84
590.651	361.91
591.073	284.67
591.494	301.05
591.916	284.67
592.337	336.16
592.759	272.96
593.18	265.94
593.601	308.07
594.022	331.48
594.444	343.18
594.865	303.39
595.286	312.75
595.707	343.18
596.128	331.48
596.549	338.5
596.97	359.56
597.39	378.29
597.811	291.69
598.232	270.62
598.652	289.35
599.073	345.52
599.494	275.31
599.914	294.03
600.334	385.31
600.755	310.41
601.175	333.82
601.595	392.33
602.015	359.56
602.436	331.48
602.856	425.1
603.276	385.31
603.696	277.65
604.115	382.97
604.535	256.58
604.955	322.12
605.375	312.75
605.794	329.14
606.214	333.82
606.634	247.22
607.053	265.94
607.473	298.71
607.892	289.35
608.311	333.82
608.731	317.44
609.15	308.07
609.569	343.18
609.988	338.5
610.407	352.54
610.826	343.18
611.245	310.41
611.664	305.73
612.083	279.99
612.501	338.5
612.92	315.09
613.339	326.8
613.757	366.59
614.176	361.91
614.594	373.61
615.013	375.95
615.431	361.91
615.85	378.29
616.268	319.78
616.686	301.05
617.104	308.07
617.522	315.09
617.94	331.48
618.358	350.2
618.776	275.31
619.194	268.28
619.612	366.59
620.03	303.39
620.447	237.86
620.865	322.12
621.282	301.05
621.7	303.39
622.117	303.39
622.535	265.94
622.952	294.03
623.369	284.67
623.787	331.48
624.204	322.12
624.621	294.03
625.038	308.07
625.455	359.56
625.872	261.26
626.289	242.54
626.706	326.8
627.123	357.22
627.539	345.52
627.956	324.46
628.373	258.92
628.789	301.05
629.206	247.22
629.622	333.82
630.038	338.5
630.455	347.86
630.871	331.48
631.287	303.39
631.703	301.05
632.12	294.03
632.536	322.12
632.952	387.65
633.368	312.75
633.783	312.75
634.199	364.25
634.615	275.31
635.031	336.16
635.446	303.39
635.862	364.25
636.277	296.37
636.693	340.84
637.108	338.5
637.524	364.25
637.939	268.28
638.354	268.28
638.77	303.39
639.185	368.93
639.6	301.05
640.015	324.46
640.43	291.69
640.845	331.48
641.259	331.48
641.674	322.12
642.089	301.05
642.504	350.2
642.918	331.48
643.333	261.26
643.747	340.84
644.162	261.26
644.576	298.71
644.991	261.26
645.405	338.5
645.819	359.56
646.233	296.37
646.647	291.69
647.061	277.65
647.475	308.07
647.889	354.88
648.303	305.73
648.717	326.8
649.131	305.73
649.545	329.14
649.958	310.41
650.372	296.37
650.785	347.86
651.199	329.14
651.612	275.31
652.026	312.75
652.439	361.91
652.852	284.67
653.266	251.9
653.679	340.84
654.092	289.35
654.505	343.18
654.918	223.81
655.331	319.78
655.744	368.93
656.156	296.37
656.569	310.41
656.982	324.46
657.394	303.39
657.807	340.84
658.22	375.95
658.632	326.8
659.044	324.46
659.457	265.94
659.869	331.48
660.281	322.12
660.693	287.01
661.106	338.5
661.518	317.44
661.93	312.75
662.342	289.35
662.754	305.73
663.165	317.44
663.577	282.33
663.989	289.35
664.401	352.54
664.812	333.82
665.224	291.69
665.635	350.2
666.047	333.82
666.458	305.73
666.869	272.96
667.281	345.52
667.692	308.07
668.103	324.46
668.514	310.41
668.925	317.44
669.336	380.63
669.747	258.92
670.158	301.05
670.569	345.52
670.979	305.73
671.39	287.01
671.801	282.33
672.211	345.52
672.622	296.37
673.032	301.05
673.443	319.78
673.853	298.71
674.263	305.73
674.674	389.99
675.084	275.31
675.494	326.8
675.904	301.05
676.314	301.05
676.724	291.69
677.134	298.71
677.544	287.01
677.953	275.31
678.363	303.39
678.773	317.44
679.182	305.73
679.592	310.41
680.001	322.12
680.411	298.71
680.82	324.46
681.23	282.33
681.639	340.84
682.048	275.31
682.457	287.01
682.866	310.41
683.275	298.71
683.684	308.07
684.093	345.52
684.502	329.14
684.911	364.25
685.32	282.33
685.728	389.99
686.137	343.18
686.546	354.88
686.954	347.86
687.363	326.8
687.771	329.14
688.179	343.18
688.588	310.41
688.996	326.8
689.404	254.24
689.812	308.07
690.22	291.69
690.628	289.35
691.036	305.73
691.444	317.44
691.852	329.14
692.26	279.99
692.667	263.6
693.075	315.09
693.483	324.46
693.89	303.39
694.298	249.56
694.705	354.88
695.112	366.59
695.52	296.37
695.927	317.44
696.334	347.86
696.741	258.92
697.148	279.99
697.555	324.46
697.962	296.37
698.369	345.52
698.776	296.37
699.183	343.18
699.59	287.01
699.996	301.05
700.403	277.65
700.81	305.73
701.216	404.03
701.623	352.54
702.029	261.26
702.435	319.78
702.842	282.33
703.248	275.31
703.654	338.5
704.06	254.24
704.466	312.75
704.872	303.39
705.278	331.48
705.684	322.12
706.09	331.48
706.496	308.07
706.901	340.84
707.307	256.58
707.712	265.94
708.118	294.03
708.523	338.5
708.929	308.07
709.334	303.39
709.74	350.2
710.145	312.75
710.55	209.77
710.955	329.14
711.36	312.75
711.765	261.26
712.17	354.88
712.575	331.48
712.98	874.48
713.385	303.39
713.789	301.05
714.194	338.5
714.599	284.67
715.003	340.84
715.408	308.07
715.812	312.75
716.217	312.75
716.621	364.25
717.025	359.56
717.429	394.67
717.833	298.71
718.238	387.65
718.642	319.78
719.046	364.25
719.449	312.75
719.853	254.24
720.257	275.31
720.661	317.44
721.065	333.82
721.468	284.67
721.872	326.8
722.275	279.99
722.679	282.33
723.082	282.33
723.485	331.48
723.889	338.5
724.292	352.54
724.695	303.39
725.098	359.56
725.501	294.03
725.904	331.48
726.307	385.31
726.71	303.39
727.113	312.75
727.516	303.39
727.918	294.03
728.321	303.39
728.724	350.2
729.126	289.35
729.529	298.71
729.931	308.07
730.333	359.56
730.736	265.94
731.138	282.33
731.54	263.6
731.942	333.82
732.344	326.8
732.746	322.12
733.148	326.8
733.55	275.31
733.952	263.6
734.354	371.27
734.756	312.75
735.157	366.59
735.559	322.12
735.96	275.31
736.362	338.5
736.763	378.29
737.165	265.94
737.566	331.48
737.967	298.71
738.368	289.35
738.77	345.52
739.171	336.16
739.572	308.07
739.973	258.92
740.374	282.33
740.774	324.46
741.175	333.82
741.576	310.41
741.977	319.78
742.377	317.44
742.778	291.69
743.178	329.14
743.579	303.39
743.979	275.31
744.379	333.82
744.78	303.39
745.18	340.84
745.58	284.67
745.98	265.94
746.38	338.5
746.78	308.07
747.18	308.07
747.58	336.16
747.98	340.84
748.38	303.39
748.779	291.69
749.179	333.82
749.578	272.96
749.978	303.39
750.377	303.39
750.777	336.16
751.176	366.59
751.575	322.12
751.975	303.39
752.374	317.44
752.773	310.41
753.172	364.25
753.571	303.39
753.97	294.03
754.369	343.18
754.768	340.84
755.166	385.31
755.565	317.44
755.964	279.99
756.362	352.54
756.761	261.26
757.159	326.8
757.558	333.82
757.956	305.73
758.354	413.4
758.753	301.05
759.151	315.09
759.549	333.82
759.947	301.05
760.345	359.56
760.743	251.9
761.141	361.91
761.539	338.5
761.936	317.44
762.334	270.62
762.732	301.05
763.129	385.31
763.527	275.31
763.924	263.6
764.322	347.86
