Data from Al_FLMS009871__899__16-17-05-025.txt Node

Date: Fri Mar 08 16:17:05 CST 2024
User: pe5414po
Spectrometer: FLMS00987
Trigger mode: 0
Integration Time (sec): 1.000000E-1
Scans to average: 1
Electric dark correction enabled: true
Nonlinearity correction enabled: false
Boxcar width: 0
XAxis mode: Wavelengths
Number of Pixels in Spectrum: 2048
>>>>>Begin Spectral Data<<<<<
188.938	37.45
189.409	37.45
189.879	37.45
190.349	-138.09
190.819	-46.81
191.29	-49.15
191.76	-110.01
192.23	-74.9
192.7	-81.92
193.17	-63.19
193.64	-107.66
194.109	-58.51
194.579	-21.06
195.049	16.38
195.519	25.75
195.988	32.77
196.458	65.54
196.927	9.36
197.397	93.62
197.866	168.52
198.336	154.48
198.805	152.13
199.274	203.63
199.744	133.41
200.213	227.03
200.682	205.97
201.151	208.31
201.62	196.61
202.089	264.48
202.558	255.12
203.027	278.52
203.495	283.2
203.964	315.97
204.433	278.52
204.902	325.33
205.37	262.14
205.839	264.48
206.307	280.86
206.776	294.91
207.244	238.73
207.712	362.78
208.181	301.93
208.649	315.97
209.117	262.14
209.585	360.44
210.053	322.99
210.521	301.93
210.989	341.72
211.457	264.48
211.925	299.59
212.393	290.23
212.861	292.57
213.328	341.72
213.796	358.1
214.264	259.8
214.731	301.93
215.199	269.16
215.666	248.1
216.133	231.71
216.601	294.91
217.068	287.89
217.535	294.91
218.003	266.82
218.47	257.46
218.937	337.04
219.404	257.46
219.871	201.29
220.338	337.04
220.805	280.86
221.271	292.57
221.738	248.1
222.205	234.05
222.671	315.97
223.138	273.84
223.605	241.08
224.071	252.78
224.538	241.08
225.004	248.1
225.47	259.8
225.937	271.5
226.403	278.52
226.869	290.23
227.335	280.86
227.801	299.59
228.267	255.12
228.733	299.59
229.199	297.25
229.665	236.39
230.131	273.84
230.597	301.93
231.062	259.8
231.528	332.36
231.994	259.8
232.459	217.67
232.925	231.71
233.39	294.91
233.856	322.99
234.321	332.36
234.786	325.33
235.252	299.59
235.717	229.37
236.182	304.27
236.647	252.78
237.112	257.46
237.577	236.39
238.042	332.36
238.507	290.23
238.972	198.95
239.436	276.18
239.901	273.84
240.366	290.23
240.83	344.06
241.295	250.44
241.76	191.92
242.224	250.44
242.688	297.25
243.153	318.31
243.617	280.86
244.081	285.55
244.545	299.59
245.01	271.5
245.474	334.7
245.938	311.29
246.402	243.42
246.866	301.93
247.33	292.57
247.793	322.99
248.257	315.97
248.721	287.89
249.185	245.76
249.648	273.84
250.112	252.78
250.575	290.23
251.039	224.69
251.502	325.33
251.965	269.16
252.429	255.12
252.892	255.12
253.355	297.25
253.818	238.73
254.281	280.86
254.744	301.93
255.207	255.12
255.67	299.59
256.133	290.23
256.596	283.2
257.059	315.97
257.522	264.48
257.984	297.25
258.447	325.33
258.909	306.61
259.372	341.72
259.834	250.44
260.297	248.1
260.759	205.97
261.221	243.42
261.684	322.99
262.146	304.27
262.608	290.23
263.07	325.33
263.532	283.2
263.994	313.63
264.456	262.14
264.918	231.71
265.38	304.27
265.842	283.2
266.303	280.86
266.765	283.2
267.227	294.91
267.688	290.23
268.15	287.89
268.611	311.29
269.072	287.89
269.534	290.23
269.995	264.48
270.456	355.76
270.918	325.33
271.379	304.27
271.84	292.57
272.301	353.42
272.762	292.57
273.223	327.68
273.684	341.72
274.144	325.33
274.605	332.36
275.066	306.61
275.527	301.93
275.987	346.4
276.448	248.1
276.908	332.36
277.369	351.08
277.829	330.02
278.289	287.89
278.75	276.18
279.21	294.91
279.67	332.36
280.13	264.48
280.59	285.55
281.05	257.46
281.51	332.36
281.97	252.78
282.43	301.93
282.89	266.82
283.35	346.4
283.809	299.59
284.269	278.52
284.729	334.7
285.188	290.23
285.648	231.71
286.107	297.25
286.567	271.5
287.026	332.36
287.485	278.52
287.944	360.44
288.404	337.04
288.863	301.93
289.322	257.46
289.781	327.68
290.24	285.55
290.699	292.57
291.158	320.65
291.616	322.99
292.075	344.06
292.534	332.36
292.992	339.38
293.451	255.12
293.91	271.5
294.368	327.68
294.827	351.08
295.285	330.02
295.743	330.02
296.202	330.02
296.66	292.57
297.118	308.95
297.576	358.1
298.034	287.89
298.492	278.52
298.95	315.97
299.408	283.2
299.866	311.29
300.324	379.17
300.781	332.36
301.239	280.86
301.697	320.65
302.154	315.97
302.612	304.27
303.069	285.55
303.527	287.89
303.984	325.33
304.441	290.23
304.899	341.72
305.356	280.86
305.813	280.86
306.27	322.99
306.727	320.65
307.184	337.04
307.641	386.19
308.098	297.25
308.555	313.63
309.012	297.25
309.468	306.61
309.925	344.06
310.382	355.76
310.838	285.55
311.295	308.95
311.751	285.55
312.208	318.31
312.664	306.61
313.12	276.18
313.577	301.93
314.033	374.49
314.489	287.89
314.945	346.4
315.401	294.91
315.857	292.57
316.313	311.29
316.769	280.86
317.225	273.84
317.681	313.63
318.136	315.97
318.592	344.06
319.048	344.06
319.503	292.57
319.959	318.31
320.414	341.72
320.869	243.42
321.325	351.08
321.78	334.7
322.235	334.7
322.691	360.44
323.146	320.65
323.601	327.68
324.056	341.72
324.511	355.76
324.966	308.95
325.421	334.7
325.875	325.33
326.33	262.14
326.785	344.06
327.24	358.1
327.694	276.18
328.149	341.72
328.603	344.06
329.058	308.95
329.512	297.25
329.966	379.17
330.421	318.31
330.875	308.95
331.329	353.42
331.783	234.05
332.237	294.91
332.691	273.84
333.145	325.33
333.599	351.08
334.053	339.38
334.507	355.76
334.96	376.83
335.414	290.23
335.868	313.63
336.321	348.74
336.775	301.93
337.228	353.42
337.682	297.25
338.135	290.23
338.588	334.7
339.042	306.61
339.495	318.31
339.948	318.31
340.401	386.19
340.854	313.63
341.307	290.23
341.76	255.12
342.213	353.42
342.666	297.25
343.119	313.63
343.571	292.57
344.024	367.46
344.477	313.63
344.929	313.63
345.382	337.04
345.834	381.51
346.287	358.1
346.739	290.23
347.191	346.4
347.644	287.89
348.096	337.04
348.548	348.74
349	320.65
349.452	311.29
349.904	388.53
350.356	353.42
350.808	334.7
351.26	320.65
351.711	311.29
352.163	290.23
352.615	304.27
353.066	294.91
353.518	362.78
353.969	362.78
354.421	348.74
354.872	341.72
355.324	355.76
355.775	271.5
356.226	341.72
356.677	311.29
357.128	360.44
357.579	325.33
358.03	376.83
358.481	327.68
358.932	353.42
359.383	299.59
359.834	379.17
360.285	334.7
360.735	287.89
361.186	351.08
361.637	334.7
362.087	351.08
362.538	313.63
362.988	257.46
363.438	304.27
363.889	299.59
364.339	332.36
364.789	308.95
365.239	313.63
365.689	383.85
366.139	330.02
366.589	280.86
367.039	353.42
367.489	318.31
367.939	283.2
368.389	344.06
368.839	292.57
369.288	308.95
369.738	297.25
370.187	301.93
370.637	379.17
371.086	311.29
371.536	330.02
371.985	337.04
372.434	273.84
372.884	318.31
373.333	358.1
373.782	344.06
374.231	283.2
374.68	297.25
375.129	325.33
375.578	315.97
376.027	327.68
376.475	315.97
376.924	360.44
377.373	327.68
377.822	346.4
378.27	283.2
378.719	337.04
379.167	290.23
379.616	273.84
380.064	283.2
380.512	353.42
380.961	306.61
381.409	339.38
381.857	344.06
382.305	358.1
382.753	318.31
383.201	318.31
383.649	334.7
384.097	308.95
384.545	372.15
384.992	264.48
385.44	362.78
385.888	332.36
386.335	348.74
386.783	337.04
387.231	395.55
387.678	351.08
388.125	332.36
388.573	311.29
389.02	339.38
389.467	311.29
389.914	337.04
390.362	304.27
390.809	287.89
391.256	348.74
391.703	330.02
392.15	287.89
392.596	299.59
393.043	332.36
393.49	353.42
393.937	301.93
394.383	369.8
394.83	400.23
395.276	341.72
395.723	280.86
396.169	311.29
396.616	341.72
397.062	332.36
397.508	322.99
397.954	325.33
398.401	348.74
398.847	294.91
399.293	276.18
399.739	280.86
400.185	285.55
400.631	344.06
401.076	327.68
401.522	304.27
401.968	330.02
402.414	346.4
402.859	332.36
403.305	358.1
403.75	308.95
404.196	301.93
404.641	283.2
405.086	341.72
405.532	325.33
405.977	315.97
406.422	330.02
406.867	334.7
407.312	351.08
407.757	271.5
408.202	360.44
408.647	264.48
409.092	346.4
409.537	346.4
409.982	348.74
410.426	318.31
410.871	301.93
411.316	330.02
411.76	334.7
412.205	339.38
412.649	292.57
413.093	283.2
413.538	292.57
413.982	332.36
414.426	292.57
414.87	344.06
415.314	372.15
415.758	287.89
416.202	341.72
416.646	348.74
417.09	337.04
417.534	337.04
417.978	299.59
418.421	332.36
418.865	236.39
419.309	287.89
419.752	301.93
420.196	311.29
420.639	308.95
421.083	395.55
421.526	276.18
421.969	330.02
422.412	330.02
422.856	353.42
423.299	339.38
423.742	276.18
424.185	330.02
424.628	334.7
425.071	346.4
425.513	325.33
425.956	327.68
426.399	353.42
426.842	285.55
427.284	390.87
427.727	308.95
428.169	315.97
428.612	318.31
429.054	294.91
429.497	276.18
429.939	283.2
430.381	266.82
430.823	273.84
431.265	360.44
431.707	299.59
432.149	348.74
432.591	337.04
433.033	283.2
433.475	322.99
433.917	362.78
434.359	315.97
434.8	372.15
435.242	315.97
435.684	304.27
436.125	341.72
436.567	318.31
437.008	313.63
437.449	388.53
437.891	327.68
438.332	294.91
438.773	269.16
439.214	337.04
439.656	337.04
440.097	320.65
440.538	379.17
440.978	304.27
441.419	287.89
441.86	320.65
442.301	325.33
442.742	411.93
443.182	313.63
443.623	360.44
444.063	306.61
444.504	308.95
444.944	292.57
445.385	327.68
445.825	355.76
446.265	407.25
446.706	367.46
447.146	358.1
447.586	330.02
448.026	330.02
448.466	346.4
448.906	348.74
449.346	297.25
449.786	315.97
450.225	334.7
450.665	315.97
451.105	306.61
451.544	266.82
451.984	327.68
452.424	369.8
452.863	322.99
453.302	318.31
453.742	313.63
454.181	287.89
454.62	332.36
455.059	294.91
455.499	292.57
455.938	379.17
456.377	318.31
456.816	337.04
457.254	304.27
457.693	330.02
458.132	346.4
458.571	358.1
459.01	297.25
459.448	304.27
459.887	381.51
460.325	348.74
460.764	330.02
461.202	318.31
461.641	304.27
462.079	327.68
462.517	283.2
462.955	292.57
463.393	330.02
463.832	393.21
464.27	278.52
464.708	330.02
465.145	315.97
465.583	330.02
466.021	353.42
466.459	308.95
466.897	311.29
467.334	327.68
467.772	348.74
468.209	397.89
468.647	334.7
469.084	297.25
469.522	269.16
469.959	297.25
470.396	313.63
470.833	294.91
471.271	332.36
471.708	299.59
472.145	355.76
472.582	285.55
473.019	308.95
473.456	355.76
473.892	297.25
474.329	255.12
474.766	304.27
475.202	344.06
475.639	287.89
476.076	397.89
476.512	348.74
476.949	304.27
477.385	299.59
477.821	341.72
478.258	360.44
478.694	325.33
479.13	318.31
479.566	320.65
480.002	308.95
480.438	299.59
480.874	327.68
481.31	344.06
481.746	344.06
482.181	320.65
482.617	414.27
483.053	339.38
483.488	290.23
483.924	383.85
484.36	344.06
484.795	348.74
485.23	306.61
485.666	367.46
486.101	297.25
486.536	355.76
486.971	315.97
487.407	304.27
487.842	320.65
488.277	257.46
488.712	306.61
489.146	351.08
489.581	379.17
490.016	358.1
490.451	327.68
490.885	341.72
491.32	294.91
491.755	327.68
492.189	325.33
492.624	315.97
493.058	299.59
493.492	290.23
493.927	344.06
494.361	346.4
494.795	322.99
495.229	325.33
495.663	334.7
496.097	294.91
496.531	325.33
496.965	393.21
497.399	337.04
497.833	374.49
498.266	290.23
498.7	369.8
499.134	273.84
499.567	306.61
500.001	344.06
500.434	311.29
500.868	379.17
501.301	358.1
501.734	262.14
502.168	346.4
502.601	339.38
503.034	304.27
503.467	376.83
503.9	320.65
504.333	381.51
504.766	255.12
505.199	341.72
505.632	348.74
506.064	301.93
506.497	351.08
506.93	315.97
507.362	285.55
507.795	358.1
508.227	334.7
508.66	327.68
509.092	322.99
509.524	402.57
509.956	273.84
510.389	346.4
510.821	353.42
511.253	262.14
511.685	334.7
512.117	320.65
512.549	362.78
512.981	318.31
513.412	367.46
513.844	271.5
514.276	264.48
514.707	313.63
515.139	325.33
515.571	376.83
516.002	330.02
516.433	334.7
516.865	304.27
517.296	351.08
517.727	358.1
518.159	353.42
518.59	332.36
519.021	332.36
519.452	374.49
519.883	306.61
520.314	369.8
520.744	355.76
521.175	304.27
521.606	325.33
522.037	379.17
522.467	360.44
522.898	227.03
523.328	351.08
523.759	365.12
524.189	351.08
524.62	313.63
525.05	348.74
525.48	285.55
525.91	330.02
526.341	341.72
526.771	276.18
527.201	334.7
527.631	402.57
528.061	320.65
528.49	341.72
528.92	369.8
529.35	346.4
529.78	339.38
530.209	292.57
530.639	308.95
531.068	234.05
531.498	381.51
531.927	386.19
532.357	390.87
532.786	311.29
533.215	428.32
533.644	322.99
534.074	311.29
534.503	365.12
534.932	348.74
535.361	360.44
535.79	351.08
536.218	301.93
536.647	362.78
537.076	353.42
537.505	257.46
537.933	271.5
538.362	325.33
538.79	355.76
539.219	294.91
539.647	313.63
540.076	273.84
540.504	355.76
540.932	315.97
541.36	383.85
541.788	341.72
542.217	334.7
542.645	315.97
543.073	355.76
543.5	264.48
543.928	341.72
544.356	285.55
544.784	360.44
545.211	259.8
545.639	339.38
546.067	374.49
546.494	355.76
546.922	313.63
547.349	341.72
547.776	358.1
548.204	362.78
548.631	325.33
549.058	365.12
549.485	402.57
549.912	315.97
550.339	346.4
550.766	299.59
551.193	372.15
551.62	330.02
552.047	313.63
552.474	362.78
552.9	306.61
553.327	337.04
553.754	400.23
554.18	322.99
554.607	308.95
555.033	341.72
555.459	297.25
555.886	351.08
556.312	351.08
556.738	297.25
557.164	327.68
557.59	290.23
558.016	308.95
558.442	318.31
558.868	369.8
559.294	273.84
559.72	386.19
560.145	320.65
560.571	283.2
560.997	290.23
561.422	372.15
561.848	320.65
562.273	306.61
562.699	306.61
563.124	311.29
563.549	374.49
563.974	339.38
564.4	318.31
564.825	337.04
565.25	353.42
565.675	339.38
566.1	320.65
566.525	362.78
566.95	287.89
567.374	294.91
567.799	358.1
568.224	306.61
568.648	318.31
569.073	327.68
569.497	313.63
569.922	320.65
570.346	308.95
570.771	297.25
571.195	320.65
571.619	332.36
572.043	376.83
572.467	301.93
572.891	341.72
573.315	334.7
573.739	402.57
574.163	283.2
574.587	315.97
575.011	308.95
575.435	365.12
575.858	358.1
576.282	297.25
576.705	285.55
577.129	315.97
577.552	330.02
577.976	334.7
578.399	346.4
578.822	374.49
579.245	318.31
579.669	301.93
580.092	355.76
580.515	339.38
580.938	372.15
581.361	400.23
581.784	320.65
582.206	358.1
582.629	306.61
583.052	337.04
583.474	285.55
583.897	367.46
584.32	339.38
584.742	290.23
585.165	372.15
585.587	276.18
586.009	306.61
586.431	372.15
586.854	344.06
587.276	318.31
587.698	351.08
588.12	318.31
588.542	313.63
588.964	355.76
589.386	339.38
589.807	393.21
590.229	372.15
590.651	322.99
591.073	320.65
591.494	325.33
591.916	358.1
592.337	318.31
592.759	341.72
593.18	306.61
593.601	318.31
594.022	334.7
594.444	306.61
594.865	332.36
595.286	341.72
595.707	367.46
596.128	337.04
596.549	351.08
596.97	318.31
597.39	351.08
597.811	334.7
598.232	306.61
598.652	318.31
599.073	381.51
599.494	304.27
599.914	322.99
600.334	308.95
600.755	330.02
601.175	304.27
601.595	337.04
602.015	318.31
602.436	325.33
602.856	461.09
603.276	299.59
603.696	330.02
604.115	334.7
604.535	346.4
604.955	353.42
605.375	334.7
605.794	348.74
606.214	262.14
606.634	325.33
607.053	299.59
607.473	379.17
607.892	353.42
608.311	348.74
608.731	308.95
609.15	315.97
609.569	304.27
609.988	294.91
610.407	292.57
610.826	292.57
611.245	346.4
611.664	327.68
612.083	318.31
612.501	301.93
612.92	222.35
613.339	306.61
613.757	367.46
614.176	315.97
614.594	330.02
615.013	327.68
615.431	304.27
615.85	330.02
616.268	355.76
616.686	315.97
617.104	273.84
617.522	318.31
617.94	315.97
618.358	320.65
618.776	294.91
619.194	325.33
619.612	372.15
620.03	285.55
620.447	278.52
620.865	299.59
621.282	271.5
621.7	327.68
622.117	332.36
622.535	369.8
622.952	376.83
623.369	301.93
623.787	306.61
624.204	318.31
624.621	365.12
625.038	330.02
625.455	320.65
625.872	318.31
626.289	292.57
626.706	376.83
627.123	330.02
627.539	330.02
627.956	297.25
628.373	339.38
628.789	278.52
629.206	330.02
629.622	292.57
630.038	313.63
630.455	334.7
630.871	341.72
631.287	325.33
631.703	344.06
632.12	327.68
632.536	313.63
632.952	327.68
633.368	262.14
633.783	318.31
634.199	297.25
634.615	308.95
635.031	358.1
635.446	301.93
635.862	273.84
636.277	365.12
636.693	283.2
637.108	315.97
637.524	358.1
637.939	287.89
638.354	344.06
638.77	348.74
639.185	346.4
639.6	334.7
640.015	341.72
640.43	280.86
640.845	320.65
641.259	278.52
641.674	308.95
642.089	294.91
642.504	301.93
642.918	287.89
643.333	304.27
643.747	367.46
644.162	337.04
644.576	325.33
644.991	280.86
645.405	327.68
645.819	292.57
646.233	381.51
646.647	383.85
647.061	334.7
647.475	330.02
647.889	283.2
648.303	369.8
648.717	311.29
649.131	322.99
649.545	358.1
649.958	334.7
650.372	346.4
650.785	311.29
651.199	369.8
651.612	287.89
652.026	313.63
652.439	339.38
652.852	273.84
653.266	294.91
653.679	224.69
654.092	280.86
654.505	404.91
654.918	325.33
655.331	360.44
655.744	339.38
656.156	372.15
656.569	297.25
656.982	308.95
657.394	327.68
657.807	386.19
658.22	360.44
658.632	294.91
659.044	353.42
659.457	325.33
659.869	330.02
660.281	308.95
660.693	276.18
661.106	294.91
661.518	266.82
661.93	278.52
662.342	292.57
662.754	327.68
663.165	346.4
663.577	360.44
663.989	322.99
664.401	297.25
664.812	330.02
665.224	348.74
665.635	327.68
666.047	346.4
666.458	416.62
666.869	344.06
667.281	334.7
667.692	344.06
668.103	362.78
668.514	280.86
668.925	341.72
669.336	351.08
669.747	327.68
670.158	266.82
670.569	381.51
670.979	346.4
671.39	341.72
671.801	325.33
672.211	322.99
672.622	332.36
673.032	278.52
673.443	332.36
673.853	276.18
674.263	369.8
674.674	276.18
675.084	337.04
675.494	351.08
675.904	294.91
676.314	313.63
676.724	299.59
677.134	311.29
677.544	322.99
677.953	346.4
678.363	346.4
678.773	376.83
679.182	367.46
679.592	411.93
680.001	367.46
680.411	255.12
680.82	301.93
681.23	353.42
681.639	367.46
682.048	348.74
682.457	330.02
682.866	301.93
683.275	299.59
683.684	330.02
684.093	287.89
684.502	339.38
684.911	320.65
685.32	353.42
685.728	287.89
686.137	294.91
686.546	348.74
686.954	245.76
687.363	290.23
687.771	322.99
688.179	299.59
688.588	320.65
688.996	311.29
689.404	386.19
689.812	355.76
690.22	334.7
690.628	292.57
691.036	311.29
691.444	287.89
691.852	283.2
692.26	318.31
692.667	301.93
693.075	344.06
693.483	346.4
693.89	320.65
694.298	376.83
694.705	334.7
695.112	351.08
695.52	287.89
695.927	306.61
696.334	269.16
696.741	285.55
697.148	346.4
697.555	355.76
697.962	276.18
698.369	337.04
698.776	337.04
699.183	353.42
699.59	283.2
699.996	299.59
700.403	283.2
700.81	339.38
701.216	299.59
701.623	381.51
702.029	315.97
702.435	320.65
702.842	320.65
703.248	390.87
703.654	266.82
704.06	369.8
704.466	325.33
704.872	273.84
705.278	318.31
705.684	327.68
706.09	294.91
706.496	294.91
706.901	292.57
707.307	264.48
707.712	227.03
708.118	299.59
708.523	308.95
708.929	311.29
709.334	306.61
709.74	367.46
710.145	376.83
710.55	325.33
710.955	278.52
711.36	327.68
711.765	353.42
712.17	301.93
712.575	341.72
712.98	912.81
713.385	330.02
713.789	360.44
714.194	278.52
714.599	351.08
715.003	294.91
715.408	325.33
715.812	290.23
716.217	313.63
716.621	313.63
717.025	337.04
717.429	318.31
717.833	311.29
718.238	313.63
718.642	337.04
719.046	320.65
719.449	301.93
719.853	306.61
720.257	355.76
720.661	283.2
721.065	315.97
721.468	381.51
721.872	318.31
722.275	311.29
722.679	301.93
723.082	411.93
723.485	322.99
723.889	301.93
724.292	339.38
724.695	372.15
725.098	339.38
725.501	355.76
725.904	339.38
726.307	325.33
726.71	379.17
727.113	306.61
727.516	395.55
727.918	283.2
728.321	257.46
728.724	322.99
729.126	262.14
729.529	255.12
729.931	320.65
730.333	257.46
730.736	280.86
731.138	353.42
731.54	344.06
731.942	273.84
732.344	313.63
732.746	320.65
733.148	355.76
733.55	327.68
733.952	358.1
734.354	355.76
734.756	344.06
735.157	306.61
735.559	353.42
735.96	372.15
736.362	287.89
736.763	248.1
737.165	280.86
737.566	313.63
737.967	355.76
738.368	322.99
738.77	304.27
739.171	372.15
739.572	299.59
739.973	315.97
740.374	318.31
740.774	262.14
741.175	290.23
741.576	381.51
741.977	411.93
742.377	362.78
742.778	301.93
743.178	330.02
743.579	294.91
743.979	287.89
744.379	313.63
744.78	367.46
745.18	348.74
745.58	318.31
745.98	332.36
746.38	337.04
746.78	325.33
747.18	362.78
747.58	339.38
747.98	332.36
748.38	306.61
748.779	299.59
749.179	304.27
749.578	339.38
749.978	351.08
750.377	322.99
750.777	358.1
751.176	341.72
751.575	334.7
751.975	355.76
752.374	299.59
752.773	278.52
753.172	313.63
753.571	351.08
753.97	315.97
754.369	241.08
754.768	360.44
755.166	308.95
755.565	257.46
755.964	290.23
756.362	327.68
756.761	280.86
757.159	311.29
757.558	262.14
757.956	348.74
758.354	362.78
758.753	334.7
759.151	348.74
759.549	348.74
759.947	348.74
760.345	308.95
760.743	308.95
761.141	315.97
761.539	339.38
761.936	250.44
762.334	315.97
762.732	339.38
763.129	299.59
763.527	273.84
763.924	266.82
764.322	365.12
764.719	344.06
765.117	283.2
765.514	306.61
