Data from Al_FLMS009871__882__16-17-03-325.txt Node

Date: Fri Mar 08 16:17:03 CST 2024
User: pe5414po
Spectrometer: FLMS00987
Trigger mode: 0
Integration Time (sec): 1.000000E-1
Scans to average: 1
Electric dark correction enabled: true
Nonlinearity correction enabled: false
Boxcar width: 0
XAxis mode: Wavelengths
Number of Pixels in Spectrum: 2048
>>>>>Begin Spectral Data<<<<<
188.938	-57.05
189.409	-57.05
189.879	-57.05
190.349	-143.65
190.819	-124.93
191.29	-115.56
191.76	-68.75
192.23	-108.54
192.7	-57.05
193.17	-80.46
193.64	-52.37
194.109	-24.28
194.579	-47.69
195.049	15.51
195.519	55.3
195.988	8.48
196.458	88.06
196.927	52.95
197.397	59.98
197.866	146.58
198.336	127.85
198.805	205.09
199.274	186.37
199.744	223.81
200.213	219.13
200.682	162.96
201.151	221.47
201.62	235.52
202.089	272.96
202.558	308.07
203.027	284.67
203.495	167.64
203.964	244.88
204.433	296.37
204.902	296.37
205.37	289.35
205.839	371.27
206.307	319.78
206.776	279.99
207.244	284.67
207.712	277.65
208.181	223.81
208.649	357.22
209.117	315.09
209.585	284.67
210.053	331.48
210.521	221.47
210.989	249.56
211.457	284.67
211.925	303.39
212.393	265.94
212.861	340.84
213.328	312.75
213.796	233.18
214.264	251.9
214.731	308.07
215.199	350.2
215.666	261.26
216.133	226.15
216.601	296.37
217.068	226.15
217.535	251.9
218.003	277.65
218.47	235.52
218.937	209.77
219.404	291.69
219.871	268.28
220.338	256.58
220.805	235.52
221.271	270.62
221.738	263.6
222.205	251.9
222.671	242.54
223.138	291.69
223.605	244.88
224.071	212.11
224.538	212.11
225.004	258.92
225.47	249.56
225.937	310.41
226.403	289.35
226.869	289.35
227.335	214.45
227.801	336.16
228.267	301.05
228.733	329.14
229.199	371.27
229.665	287.01
230.131	296.37
230.597	338.5
231.062	301.05
231.528	359.56
231.994	322.12
232.459	289.35
232.925	254.24
233.39	244.88
233.856	279.99
234.321	284.67
234.786	212.11
235.252	258.92
235.717	272.96
236.182	361.91
236.647	237.86
237.112	284.67
237.577	270.62
238.042	254.24
238.507	298.71
238.972	298.71
239.436	275.31
239.901	277.65
240.366	258.92
240.83	268.28
241.295	315.09
241.76	326.8
242.224	256.58
242.688	354.88
243.153	294.03
243.617	247.22
244.081	329.14
244.545	303.39
245.01	296.37
245.474	303.39
245.938	247.22
246.402	291.69
246.866	270.62
247.33	350.2
247.793	275.31
248.257	303.39
248.721	296.37
249.185	291.69
249.648	322.12
250.112	228.49
250.575	294.03
251.039	251.9
251.502	263.6
251.965	294.03
252.429	279.99
252.892	303.39
253.355	258.92
253.818	319.78
254.281	261.26
254.744	263.6
255.207	251.9
255.67	284.67
256.133	301.05
256.596	324.46
257.059	296.37
257.522	301.05
257.984	219.13
258.447	296.37
258.909	261.26
259.372	303.39
259.834	235.52
260.297	279.99
260.759	219.13
261.221	287.01
261.684	294.03
262.146	282.33
262.608	244.88
263.07	275.31
263.532	289.35
263.994	298.71
264.456	324.46
264.918	305.73
265.38	233.18
265.842	277.65
266.303	291.69
266.765	331.48
267.227	336.16
267.688	235.52
268.15	308.07
268.611	272.96
269.072	289.35
269.534	347.86
269.995	296.37
270.456	310.41
270.918	301.05
271.379	268.28
271.84	315.09
272.301	237.86
272.762	352.54
273.223	338.5
273.684	336.16
274.144	354.88
274.605	289.35
275.066	294.03
275.527	263.6
275.987	329.14
276.448	305.73
276.908	296.37
277.369	284.67
277.829	347.86
278.289	296.37
278.75	270.62
279.21	326.8
279.67	326.8
280.13	352.54
280.59	326.8
281.05	329.14
281.51	366.59
281.97	296.37
282.43	312.75
282.89	272.96
283.35	296.37
283.809	287.01
284.269	322.12
284.729	270.62
285.188	343.18
285.648	336.16
286.107	317.44
286.567	354.88
287.026	212.11
287.485	322.12
287.944	324.46
288.404	301.05
288.863	324.46
289.322	261.26
289.781	284.67
290.24	256.58
290.699	254.24
291.158	326.8
291.616	315.09
292.075	331.48
292.534	340.84
292.992	244.88
293.451	291.69
293.91	308.07
294.368	331.48
294.827	275.31
295.285	357.22
295.743	324.46
296.202	338.5
296.66	350.2
297.118	275.31
297.576	352.54
298.034	275.31
298.492	287.01
298.95	317.44
299.408	322.12
299.866	331.48
300.324	298.71
300.781	308.07
301.239	305.73
301.697	251.9
302.154	322.12
302.612	371.27
303.069	268.28
303.527	378.29
303.984	296.37
304.441	294.03
304.899	294.03
305.356	279.99
305.813	270.62
306.27	322.12
306.727	312.75
307.184	345.52
307.641	343.18
308.098	272.96
308.555	279.99
309.012	247.22
309.468	272.96
309.925	289.35
310.382	319.78
310.838	315.09
311.295	308.07
311.751	291.69
312.208	343.18
312.664	301.05
313.12	228.49
313.577	347.86
314.033	357.22
314.489	336.16
314.945	375.95
315.401	247.22
315.857	296.37
316.313	301.05
316.769	315.09
317.225	329.14
317.681	270.62
318.136	350.2
318.592	310.41
319.048	298.71
319.503	366.59
319.959	282.33
320.414	322.12
320.869	305.73
321.325	254.24
321.78	329.14
322.235	301.05
322.691	289.35
323.146	294.03
323.601	315.09
324.056	310.41
324.511	315.09
324.966	272.96
325.421	322.12
325.875	294.03
326.33	282.33
326.785	270.62
327.24	277.65
327.694	289.35
328.149	251.9
328.603	310.41
329.058	329.14
329.512	350.2
329.966	254.24
330.421	305.73
330.875	352.54
331.329	375.95
331.783	322.12
332.237	315.09
332.691	317.44
333.145	312.75
333.599	315.09
334.053	308.07
334.507	298.71
334.96	296.37
335.414	350.2
335.868	233.18
336.321	319.78
336.775	305.73
337.228	326.8
337.682	270.62
338.135	366.59
338.588	324.46
339.042	279.99
339.495	249.56
339.948	301.05
340.401	371.27
340.854	364.25
341.307	310.41
341.76	298.71
342.213	319.78
342.666	364.25
343.119	357.22
343.571	272.96
344.024	319.78
344.477	324.46
344.929	319.78
345.382	333.82
345.834	263.6
346.287	380.63
346.739	354.88
347.191	329.14
347.644	326.8
348.096	277.65
348.548	322.12
349	310.41
349.452	333.82
349.904	333.82
350.356	284.67
350.808	340.84
351.26	319.78
351.711	340.84
352.163	354.88
352.615	289.35
353.066	345.52
353.518	338.5
353.969	354.88
354.421	343.18
354.872	357.22
355.324	287.01
355.775	333.82
356.226	352.54
356.677	340.84
357.128	310.41
357.579	340.84
358.03	312.75
358.481	284.67
358.932	279.99
359.383	319.78
359.834	289.35
360.285	340.84
360.735	326.8
361.186	352.54
361.637	357.22
362.087	371.27
362.538	279.99
362.988	333.82
363.438	308.07
363.889	301.05
364.339	331.48
364.789	291.69
365.239	331.48
365.689	329.14
366.139	333.82
366.589	308.07
367.039	333.82
367.489	382.97
367.939	291.69
368.389	294.03
368.839	361.91
369.288	294.03
369.738	305.73
370.187	343.18
370.637	298.71
371.086	303.39
371.536	312.75
371.985	340.84
372.434	294.03
372.884	324.46
373.333	331.48
373.782	298.71
374.231	364.25
374.68	336.16
375.129	275.31
375.578	284.67
376.027	296.37
376.475	277.65
376.924	352.54
377.373	265.94
377.822	270.62
378.27	289.35
378.719	359.56
379.167	387.65
379.616	326.8
380.064	338.5
380.512	371.27
380.961	336.16
381.409	373.61
381.857	361.91
382.305	301.05
382.753	326.8
383.201	291.69
383.649	287.01
384.097	378.29
384.545	333.82
384.992	277.65
385.44	324.46
385.888	350.2
386.335	308.07
386.783	270.62
387.231	336.16
387.678	340.84
388.125	322.12
388.573	310.41
389.02	324.46
389.467	319.78
389.914	284.67
390.362	317.44
390.809	282.33
391.256	336.16
391.703	282.33
392.15	298.71
392.596	310.41
393.043	230.84
393.49	268.28
393.937	268.28
394.383	361.91
394.83	338.5
395.276	308.07
395.723	326.8
396.169	322.12
396.616	340.84
397.062	324.46
397.508	305.73
397.954	315.09
398.401	373.61
398.847	317.44
399.293	322.12
399.739	378.29
400.185	312.75
400.631	291.69
401.076	296.37
401.522	354.88
401.968	364.25
402.414	308.07
402.859	305.73
403.305	331.48
403.75	258.92
404.196	338.5
404.641	343.18
405.086	359.56
405.532	312.75
405.977	350.2
406.422	296.37
406.867	378.29
407.312	364.25
407.757	364.25
408.202	322.12
408.647	284.67
409.092	345.52
409.537	361.91
409.982	258.92
410.426	284.67
410.871	382.97
411.316	333.82
411.76	308.07
412.205	303.39
412.649	322.12
413.093	352.54
413.538	322.12
413.982	343.18
414.426	289.35
414.87	336.16
415.314	265.94
415.758	308.07
416.202	298.71
416.646	329.14
417.09	305.73
417.534	331.48
417.978	329.14
418.421	361.91
418.865	291.69
419.309	336.16
419.752	364.25
420.196	333.82
420.639	322.12
421.083	385.31
421.526	258.92
421.969	305.73
422.412	214.45
422.856	322.12
423.299	338.5
423.742	336.16
424.185	312.75
424.628	305.73
425.071	298.71
425.513	301.05
425.956	394.67
426.399	322.12
426.842	331.48
427.284	324.46
427.727	282.33
428.169	338.5
428.612	359.56
429.054	317.44
429.497	331.48
429.939	343.18
430.381	343.18
430.823	382.97
431.265	347.86
431.707	326.8
432.149	336.16
432.591	298.71
433.033	361.91
433.475	263.6
433.917	301.05
434.359	296.37
434.8	282.33
435.242	265.94
435.684	287.01
436.125	343.18
436.567	284.67
437.008	296.37
437.449	275.31
437.891	350.2
438.332	364.25
438.773	279.99
439.214	312.75
439.656	326.8
440.097	350.2
440.538	315.09
440.978	287.01
441.419	303.39
441.86	329.14
442.301	354.88
442.742	340.84
443.182	298.71
443.623	298.71
444.063	310.41
444.504	301.05
444.944	359.56
445.385	329.14
445.825	361.91
446.265	347.86
446.706	291.69
447.146	326.8
447.586	385.31
448.026	303.39
448.466	352.54
448.906	291.69
449.346	282.33
449.786	333.82
450.225	373.61
450.665	312.75
451.105	291.69
451.544	380.63
451.984	350.2
452.424	310.41
452.863	336.16
453.302	357.22
453.742	312.75
454.181	354.88
454.62	343.18
455.059	404.03
455.499	324.46
455.938	340.84
456.377	291.69
456.816	312.75
457.254	310.41
457.693	312.75
458.132	387.65
458.571	329.14
459.01	350.2
459.448	291.69
459.887	345.52
460.325	331.48
460.764	230.84
461.202	312.75
461.641	319.78
462.079	357.22
462.517	350.2
462.955	312.75
463.393	312.75
463.832	357.22
464.27	371.27
464.708	331.48
465.145	294.03
465.583	373.61
466.021	291.69
466.459	326.8
466.897	340.84
467.334	312.75
467.772	310.41
468.209	338.5
468.647	301.05
469.084	350.2
469.522	345.52
469.959	329.14
470.396	324.46
470.833	333.82
471.271	340.84
471.708	380.63
472.145	291.69
472.582	265.94
473.019	322.12
473.456	322.12
473.892	354.88
474.329	329.14
474.766	350.2
475.202	340.84
475.639	284.67
476.076	305.73
476.512	296.37
476.949	312.75
477.385	298.71
477.821	275.31
478.258	331.48
478.694	350.2
479.13	401.69
479.566	319.78
480.002	336.16
480.438	294.03
480.874	340.84
481.31	329.14
481.746	324.46
482.181	310.41
482.617	392.33
483.053	331.48
483.488	361.91
483.924	350.2
484.36	329.14
484.795	361.91
485.23	350.2
485.666	364.25
486.101	298.71
486.536	319.78
486.971	303.39
487.407	364.25
487.842	347.86
488.277	352.54
488.712	352.54
489.146	378.29
489.581	296.37
490.016	324.46
490.451	331.48
490.885	289.35
491.32	270.62
491.755	303.39
492.189	317.44
492.624	289.35
493.058	333.82
493.492	315.09
493.927	331.48
494.361	329.14
494.795	385.31
495.229	317.44
495.663	359.56
496.097	368.93
496.531	324.46
496.965	357.22
497.399	319.78
497.833	354.88
498.266	350.2
498.7	312.75
499.134	319.78
499.567	347.86
500.001	301.05
500.434	322.12
500.868	359.56
501.301	375.95
501.734	310.41
502.168	301.05
502.601	336.16
503.034	331.48
503.467	305.73
503.9	333.82
504.333	287.01
504.766	277.65
505.199	322.12
505.632	322.12
506.064	303.39
506.497	294.03
506.93	265.94
507.362	340.84
507.795	303.39
508.227	284.67
508.66	326.8
509.092	294.03
509.524	312.75
509.956	284.67
510.389	368.93
510.821	357.22
511.253	284.67
511.685	294.03
512.117	242.54
512.549	331.48
512.981	343.18
513.412	303.39
513.844	308.07
514.276	329.14
514.707	326.8
515.139	354.88
515.571	326.8
516.002	310.41
516.433	375.95
516.865	375.95
517.296	310.41
517.727	310.41
518.159	343.18
518.59	319.78
519.021	338.5
519.452	315.09
519.883	291.69
520.314	303.39
520.744	310.41
521.175	329.14
521.606	308.07
522.037	338.5
522.467	326.8
522.898	343.18
523.328	343.18
523.759	361.91
524.189	333.82
524.62	235.52
525.05	298.71
525.48	392.33
525.91	354.88
526.341	270.62
526.771	319.78
527.201	319.78
527.631	305.73
528.061	301.05
528.49	319.78
528.92	319.78
529.35	357.22
529.78	331.48
530.209	361.91
530.639	366.59
531.068	343.18
531.498	338.5
531.927	317.44
532.357	303.39
532.786	343.18
533.215	312.75
533.644	319.78
534.074	305.73
534.503	350.2
534.932	359.56
535.361	336.16
535.79	310.41
536.218	373.61
536.647	354.88
537.076	284.67
537.505	404.03
537.933	310.41
538.362	268.28
538.79	385.31
539.219	265.94
539.647	315.09
540.076	291.69
540.504	317.44
540.932	315.09
541.36	336.16
541.788	279.99
542.217	333.82
542.645	333.82
543.073	294.03
543.5	338.5
543.928	375.95
544.356	303.39
544.784	312.75
545.211	312.75
545.639	389.99
546.067	329.14
546.494	322.12
546.922	251.9
547.349	317.44
547.776	345.52
548.204	282.33
548.631	368.93
549.058	329.14
549.485	272.96
549.912	287.01
550.339	329.14
550.766	326.8
551.193	329.14
551.62	347.86
552.047	294.03
552.474	324.46
552.9	343.18
553.327	324.46
553.754	319.78
554.18	340.84
554.607	322.12
555.033	214.45
555.459	312.75
555.886	301.05
556.312	247.22
556.738	298.71
557.164	287.01
557.59	336.16
558.016	315.09
558.442	326.8
558.868	291.69
559.294	298.71
559.72	413.4
560.145	308.07
560.571	352.54
560.997	291.69
561.422	296.37
561.848	296.37
562.273	399.35
562.699	336.16
563.124	352.54
563.549	326.8
563.974	298.71
564.4	298.71
564.825	338.5
565.25	322.12
565.675	287.01
566.1	315.09
566.525	315.09
566.95	361.91
567.374	368.93
567.799	303.39
568.224	326.8
568.648	340.84
569.073	354.88
569.497	336.16
569.922	331.48
570.346	291.69
570.771	368.93
571.195	329.14
571.619	389.99
572.043	265.94
572.467	366.59
572.891	331.48
573.315	272.96
573.739	387.65
574.163	279.99
574.587	296.37
575.011	368.93
575.435	343.18
575.858	308.07
576.282	385.31
576.705	392.33
577.129	298.71
577.552	275.31
577.976	301.05
578.399	380.63
578.822	375.95
579.245	319.78
579.669	336.16
580.092	268.28
580.515	331.48
580.938	361.91
581.361	413.4
581.784	310.41
582.206	270.62
582.629	350.2
583.052	350.2
583.474	287.01
583.897	249.56
584.32	357.22
584.742	350.2
585.165	303.39
585.587	303.39
586.009	331.48
586.431	338.5
586.854	284.67
587.276	298.71
587.698	340.84
588.12	303.39
588.542	263.6
588.964	368.93
589.386	258.92
589.807	303.39
590.229	331.48
590.651	258.92
591.073	294.03
591.494	322.12
591.916	331.48
592.337	303.39
592.759	265.94
593.18	345.52
593.601	312.75
594.022	298.71
594.444	298.71
594.865	322.12
595.286	319.78
595.707	350.2
596.128	310.41
596.549	361.91
596.97	350.2
597.39	301.05
597.811	270.62
598.232	319.78
598.652	289.35
599.073	284.67
599.494	310.41
599.914	291.69
600.334	329.14
600.755	301.05
601.175	326.8
601.595	319.78
602.015	310.41
602.436	287.01
602.856	441.48
603.276	361.91
603.696	291.69
604.115	329.14
604.535	261.26
604.955	361.91
605.375	322.12
605.794	305.73
606.214	366.59
606.634	301.05
607.053	294.03
607.473	359.56
607.892	289.35
608.311	333.82
608.731	329.14
609.15	336.16
609.569	322.12
609.988	282.33
610.407	392.33
610.826	329.14
611.245	347.86
611.664	312.75
612.083	272.96
612.501	315.09
612.92	343.18
613.339	338.5
613.757	350.2
614.176	361.91
614.594	368.93
615.013	331.48
615.431	371.27
615.85	294.03
616.268	279.99
616.686	397.01
617.104	270.62
617.522	279.99
617.94	303.39
618.358	310.41
618.776	233.18
619.194	310.41
619.612	347.86
620.03	303.39
620.447	375.95
620.865	277.65
621.282	319.78
621.7	343.18
622.117	354.88
622.535	366.59
622.952	317.44
623.369	329.14
623.787	331.48
624.204	310.41
624.621	375.95
625.038	357.22
625.455	324.46
625.872	364.25
626.289	371.27
626.706	375.95
627.123	301.05
627.539	317.44
627.956	375.95
628.373	294.03
628.789	301.05
629.206	268.28
629.622	272.96
630.038	277.65
630.455	350.2
630.871	258.92
631.287	322.12
631.703	310.41
632.12	359.56
632.536	336.16
632.952	294.03
633.368	411.06
633.783	366.59
634.199	303.39
634.615	305.73
635.031	298.71
635.446	296.37
635.862	315.09
636.277	345.52
636.693	284.67
637.108	310.41
637.524	415.74
637.939	345.52
638.354	361.91
638.77	303.39
639.185	380.63
639.6	364.25
640.015	305.73
640.43	382.97
640.845	368.93
641.259	298.71
641.674	380.63
642.089	331.48
642.504	399.35
642.918	354.88
643.333	272.96
643.747	303.39
644.162	345.52
644.576	242.54
644.991	347.86
645.405	338.5
645.819	317.44
646.233	305.73
646.647	408.72
647.061	305.73
647.475	324.46
647.889	329.14
648.303	359.56
648.717	340.84
649.131	345.52
649.545	312.75
649.958	371.27
650.372	378.29
650.785	275.31
651.199	338.5
651.612	331.48
652.026	312.75
652.439	275.31
652.852	289.35
653.266	357.22
653.679	279.99
654.092	256.58
654.505	261.26
654.918	329.14
655.331	315.09
655.744	333.82
656.156	350.2
656.569	301.05
656.982	324.46
657.394	317.44
657.807	317.44
658.22	382.97
658.632	244.88
659.044	308.07
659.457	315.09
659.869	301.05
660.281	296.37
660.693	272.96
661.106	357.22
661.518	350.2
661.93	305.73
662.342	397.01
662.754	352.54
663.165	343.18
663.577	326.8
663.989	242.54
664.401	364.25
664.812	312.75
665.224	303.39
665.635	305.73
666.047	347.86
666.458	315.09
666.869	382.97
667.281	340.84
667.692	289.35
668.103	329.14
668.514	312.75
668.925	263.6
669.336	350.2
669.747	296.37
670.158	357.22
670.569	289.35
670.979	277.65
671.39	312.75
671.801	308.07
672.211	272.96
672.622	324.46
673.032	265.94
673.443	303.39
673.853	315.09
674.263	315.09
674.674	294.03
675.084	322.12
675.494	326.8
675.904	331.48
676.314	378.29
676.724	294.03
677.134	345.52
677.544	319.78
677.953	354.88
678.363	368.93
678.773	308.07
679.182	375.95
679.592	333.82
680.001	282.33
680.411	322.12
680.82	338.5
681.23	352.54
681.639	326.8
682.048	380.63
682.457	331.48
682.866	272.96
683.275	261.26
683.684	394.67
684.093	326.8
684.502	340.84
684.911	338.5
685.32	272.96
685.728	287.01
686.137	315.09
686.546	378.29
686.954	343.18
687.363	352.54
687.771	345.52
688.179	382.97
688.588	289.35
688.996	354.88
689.404	303.39
689.812	343.18
690.22	333.82
690.628	352.54
691.036	333.82
691.444	270.62
691.852	326.8
692.26	359.56
692.667	303.39
693.075	326.8
693.483	361.91
693.89	263.6
694.298	336.16
694.705	308.07
695.112	380.63
695.52	303.39
695.927	319.78
696.334	375.95
696.741	296.37
697.148	331.48
697.555	322.12
697.962	366.59
698.369	315.09
698.776	331.48
699.183	247.22
699.59	289.35
699.996	272.96
700.403	322.12
700.81	368.93
701.216	317.44
701.623	305.73
702.029	319.78
702.435	261.26
702.842	331.48
703.248	329.14
703.654	312.75
704.06	258.92
704.466	287.01
704.872	279.99
705.278	352.54
705.684	308.07
706.09	322.12
706.496	368.93
706.901	315.09
707.307	326.8
707.712	338.5
708.118	368.93
708.523	387.65
708.929	247.22
709.334	272.96
709.74	380.63
710.145	345.52
710.55	326.8
710.955	303.39
711.36	310.41
711.765	317.44
712.17	329.14
712.575	333.82
712.98	897.89
713.385	371.27
713.789	333.82
714.194	329.14
714.599	322.12
715.003	315.09
715.408	354.88
715.812	312.75
716.217	361.91
716.621	331.48
717.025	382.97
717.429	305.73
717.833	350.2
718.238	331.48
718.642	270.62
719.046	315.09
719.449	354.88
719.853	251.9
720.257	373.61
720.661	282.33
721.065	359.56
721.468	333.82
721.872	329.14
722.275	221.47
722.679	291.69
723.082	336.16
723.485	364.25
723.889	329.14
724.292	251.9
724.695	301.05
725.098	301.05
725.501	287.01
725.904	333.82
726.307	366.59
726.71	310.41
727.113	333.82
727.516	294.03
727.918	336.16
728.321	296.37
728.724	347.86
729.126	331.48
729.529	289.35
729.931	305.73
730.333	331.48
730.736	301.05
731.138	345.52
731.54	315.09
731.942	317.44
732.344	237.86
732.746	329.14
733.148	272.96
733.55	242.54
733.952	394.67
734.354	312.75
734.756	258.92
735.157	329.14
735.559	343.18
735.96	394.67
736.362	322.12
736.763	336.16
737.165	366.59
737.566	265.94
737.967	315.09
738.368	294.03
738.77	287.01
739.171	338.5
739.572	308.07
739.973	284.67
740.374	392.33
740.774	308.07
741.175	399.35
741.576	249.56
741.977	270.62
742.377	277.65
742.778	282.33
743.178	294.03
743.579	322.12
743.979	366.59
744.379	308.07
744.78	305.73
745.18	322.12
745.58	303.39
745.98	347.86
746.38	310.41
746.78	378.29
747.18	275.31
747.58	336.16
747.98	305.73
748.38	333.82
748.779	326.8
749.179	317.44
749.578	319.78
749.978	261.26
750.377	340.84
750.777	291.69
751.176	375.95
751.575	315.09
751.975	315.09
752.374	308.07
752.773	394.67
753.172	240.2
753.571	317.44
753.97	256.58
754.369	287.01
754.768	333.82
755.166	368.93
755.565	272.96
755.964	322.12
756.362	364.25
756.761	326.8
757.159	261.26
757.558	319.78
757.956	378.29
758.354	296.37
758.753	263.6
759.151	324.46
759.549	301.05
759.947	364.25
760.345	317.44
760.743	361.91
761.141	336.16
761.539	408.72
761.936	291.69
762.334	310.41
762.732	294.03
763.129	301.05
763.527	331.48
763.924	301.05
764.322	324.46
