Data from Al_FLMS009871__892__16-17-04-325.txt Node

Date: Fri Mar 08 16:17:04 CST 2024
User: pe5414po
Spectrometer: FLMS00987
Trigger mode: 0
Integration Time (sec): 1.000000E-1
Scans to average: 1
Electric dark correction enabled: true
Nonlinearity correction enabled: false
Boxcar width: 0
XAxis mode: Wavelengths
Number of Pixels in Spectrum: 2048
>>>>>Begin Spectral Data<<<<<
188.938	-58.66
189.409	-58.66
189.879	-58.66
190.349	-159.3
190.819	-75.04
191.29	-154.62
191.76	-119.51
192.23	-56.32
192.7	-84.41
193.17	-65.68
193.64	16.24
194.109	-72.7
194.579	-51.64
195.049	18.58
195.519	46.66
195.988	65.39
196.458	30.28
196.927	100.5
197.397	70.07
197.866	112.2
198.336	144.97
198.805	119.22
199.274	46.66
199.744	208.16
200.213	205.82
200.682	250.29
201.151	201.14
201.62	210.5
202.089	273.7
202.558	318.17
203.027	210.5
203.495	301.78
203.964	240.93
204.433	301.78
204.902	266.67
205.37	250.29
205.839	292.42
206.307	360.3
206.776	283.06
207.244	278.38
207.712	294.76
208.181	245.61
208.649	311.14
209.117	311.14
209.585	290.08
210.053	278.38
210.521	306.46
210.989	325.19
211.457	381.36
211.925	322.85
212.393	294.76
212.861	285.4
213.328	280.72
213.796	346.25
214.264	306.46
214.731	297.1
215.199	390.72
215.666	280.72
216.133	261.99
216.601	308.8
217.068	257.31
217.535	332.21
218.003	271.36
218.47	271.36
218.937	219.86
219.404	269.02
219.871	236.25
220.338	285.4
220.805	266.67
221.271	325.19
221.738	252.63
222.205	254.97
222.671	254.97
223.138	273.7
223.605	247.95
224.071	294.76
224.538	292.42
225.004	222.2
225.47	287.74
225.937	315.83
226.403	278.38
226.869	231.57
227.335	304.12
227.801	219.86
228.267	271.36
228.733	276.04
229.199	261.99
229.665	343.91
230.131	273.7
230.597	261.99
231.062	264.33
231.528	257.31
231.994	247.95
232.459	250.29
232.925	257.31
233.39	245.61
233.856	250.29
234.321	297.1
234.786	290.08
235.252	273.7
235.717	320.51
236.182	219.86
236.647	290.08
237.112	364.98
237.577	292.42
238.042	311.14
238.507	287.74
238.972	243.27
239.436	294.76
239.901	240.93
240.366	343.91
240.83	318.17
241.295	266.67
241.76	390.72
242.224	350.93
242.688	304.12
243.153	290.08
243.617	306.46
244.081	233.91
244.545	301.78
245.01	264.33
245.474	332.21
245.938	276.04
246.402	229.23
246.866	283.06
247.33	283.06
247.793	240.93
248.257	348.59
248.721	269.02
249.185	320.51
249.648	343.91
250.112	318.17
250.575	231.57
251.039	276.04
251.502	301.78
251.965	327.53
252.429	266.67
252.892	346.25
253.355	259.65
253.818	329.87
254.281	332.21
254.744	311.14
255.207	247.95
255.67	285.4
256.133	259.65
256.596	297.1
257.059	278.38
257.522	409.45
257.984	292.42
258.447	308.8
258.909	276.04
259.372	276.04
259.834	313.49
260.297	325.19
260.759	313.49
261.221	292.42
261.684	301.78
262.146	343.91
262.608	336.89
263.07	301.78
263.532	250.29
263.994	297.1
264.456	276.04
264.918	266.67
265.38	334.55
265.842	290.08
266.303	257.31
266.765	339.23
267.227	320.51
267.688	290.08
268.15	247.95
268.611	240.93
269.072	311.14
269.534	297.1
269.995	350.93
270.456	348.59
270.918	308.8
271.379	362.64
271.84	285.4
272.301	273.7
272.762	283.06
273.223	224.55
273.684	346.25
274.144	343.91
274.605	269.02
275.066	329.87
275.527	308.8
275.987	313.49
276.448	280.72
276.908	313.49
277.369	339.23
277.829	350.93
278.289	315.83
278.75	276.04
279.21	320.51
279.67	311.14
280.13	245.61
280.59	271.36
281.05	203.48
281.51	273.7
281.97	287.74
282.43	348.59
282.89	322.85
283.35	294.76
283.809	217.52
284.269	266.67
284.729	334.55
285.188	301.78
285.648	287.74
286.107	376.68
286.567	301.78
287.026	313.49
287.485	315.83
287.944	294.76
288.404	320.51
288.863	287.74
289.322	325.19
289.781	341.57
290.24	353.27
290.699	264.33
291.158	285.4
291.616	299.44
292.075	315.83
292.534	322.85
292.992	334.55
293.451	292.42
293.91	290.08
294.368	318.17
294.827	292.42
295.285	308.8
295.743	283.06
296.202	285.4
296.66	252.63
297.118	339.23
297.576	285.4
298.034	315.83
298.492	297.1
298.95	308.8
299.408	301.78
299.866	315.83
300.324	327.53
300.781	322.85
301.239	308.8
301.697	231.57
302.154	322.85
302.612	280.72
303.069	353.27
303.527	322.85
303.984	350.93
304.441	259.65
304.899	205.82
305.356	393.06
305.813	329.87
306.27	297.1
306.727	280.72
307.184	271.36
307.641	290.08
308.098	287.74
308.555	332.21
309.012	341.57
309.468	219.86
309.925	327.53
310.382	261.99
310.838	297.1
311.295	334.55
311.751	297.1
312.208	261.99
312.664	327.53
313.12	299.44
313.577	327.53
314.033	238.59
314.489	327.53
314.945	276.04
315.401	341.57
315.857	332.21
316.313	353.27
316.769	402.43
317.225	329.87
317.681	343.91
318.136	306.46
318.592	350.93
319.048	350.93
319.503	329.87
319.959	276.04
320.414	304.12
320.869	311.14
321.325	334.55
321.78	325.19
322.235	306.46
322.691	334.55
323.146	315.83
323.601	271.36
324.056	276.04
324.511	299.44
324.966	332.21
325.421	271.36
325.875	276.04
326.33	264.33
326.785	341.57
327.24	315.83
327.694	318.17
328.149	278.38
328.603	297.1
329.058	273.7
329.512	322.85
329.966	318.17
330.421	336.89
330.875	290.08
331.329	311.14
331.783	348.59
332.237	322.85
332.691	308.8
333.145	299.44
333.599	325.19
334.053	376.68
334.507	362.64
334.96	350.93
335.414	276.04
335.868	285.4
336.321	343.91
336.775	276.04
337.228	301.78
337.682	292.42
338.135	254.97
338.588	336.89
339.042	348.59
339.495	311.14
339.948	278.38
340.401	357.96
340.854	322.85
341.307	273.7
341.76	311.14
342.213	379.02
342.666	357.96
343.119	311.14
343.571	273.7
344.024	311.14
344.477	297.1
344.929	357.96
345.382	315.83
345.834	329.87
346.287	292.42
346.739	364.98
347.191	372
347.644	397.74
348.096	278.38
348.548	311.14
349	336.89
349.452	346.25
349.904	306.46
350.356	346.25
350.808	306.46
351.26	322.85
351.711	327.53
352.163	318.17
352.615	280.72
353.066	355.62
353.518	343.91
353.969	308.8
354.421	341.57
354.872	336.89
355.324	304.12
355.775	266.67
356.226	299.44
356.677	278.38
357.128	313.49
357.579	287.74
358.03	315.83
358.481	257.31
358.932	341.57
359.383	278.38
359.834	350.93
360.285	318.17
360.735	297.1
361.186	273.7
361.637	318.17
362.087	287.74
362.538	341.57
362.988	327.53
363.438	372
363.889	318.17
364.339	304.12
364.789	343.91
365.239	322.85
365.689	290.08
366.139	308.8
366.589	301.78
367.039	299.44
367.489	306.46
367.939	290.08
368.389	271.36
368.839	320.51
369.288	290.08
369.738	364.98
370.187	407.11
370.637	327.53
371.086	343.91
371.536	290.08
371.985	327.53
372.434	306.46
372.884	271.36
373.333	271.36
373.782	313.49
374.231	294.76
374.68	318.17
375.129	294.76
375.578	294.76
376.027	306.46
376.475	306.46
376.924	280.72
377.373	353.27
377.822	348.59
378.27	280.72
378.719	304.12
379.167	383.7
379.616	374.34
380.064	315.83
380.512	383.7
380.961	362.64
381.409	294.76
381.857	318.17
382.305	290.08
382.753	280.72
383.201	364.98
383.649	329.87
384.097	360.3
384.545	308.8
384.992	336.89
385.44	290.08
385.888	334.55
386.335	311.14
386.783	332.21
387.231	327.53
387.678	313.49
388.125	374.34
388.573	339.23
389.02	283.06
389.467	290.08
389.914	320.51
390.362	308.8
390.809	362.64
391.256	320.51
391.703	327.53
392.15	334.55
392.596	322.85
393.043	290.08
393.49	292.42
393.937	313.49
394.383	346.25
394.83	320.51
395.276	313.49
395.723	343.91
396.169	329.87
396.616	285.4
397.062	362.64
397.508	325.19
397.954	332.21
398.401	339.23
398.847	334.55
399.293	411.79
399.739	336.89
400.185	348.59
400.631	343.91
401.076	318.17
401.522	364.98
401.968	280.72
402.414	287.74
402.859	355.62
403.305	341.57
403.75	346.25
404.196	336.89
404.641	374.34
405.086	280.72
405.532	315.83
405.977	243.27
406.422	327.53
406.867	374.34
407.312	369.66
407.757	299.44
408.202	313.49
408.647	299.44
409.092	276.04
409.537	320.51
409.982	332.21
410.426	297.1
410.871	308.8
411.316	339.23
411.76	306.46
412.205	269.02
412.649	336.89
413.093	332.21
413.538	334.55
413.982	327.53
414.426	322.85
414.87	299.44
415.314	325.19
415.758	280.72
416.202	336.89
416.646	325.19
417.09	350.93
417.534	299.44
417.978	313.49
418.421	332.21
418.865	294.76
419.309	334.55
419.752	379.02
420.196	301.78
420.639	348.59
421.083	381.36
421.526	308.8
421.969	269.02
422.412	348.59
422.856	311.14
423.299	308.8
423.742	383.7
424.185	327.53
424.628	278.38
425.071	297.1
425.513	304.12
425.956	299.44
426.399	308.8
426.842	341.57
427.284	374.34
427.727	283.06
428.169	327.53
428.612	332.21
429.054	311.14
429.497	318.17
429.939	306.46
430.381	266.67
430.823	395.4
431.265	329.87
431.707	341.57
432.149	276.04
432.591	376.68
433.033	343.91
433.475	283.06
433.917	339.23
434.359	325.19
434.8	287.74
435.242	332.21
435.684	278.38
436.125	390.72
436.567	327.53
437.008	327.53
437.449	329.87
437.891	332.21
438.332	304.12
438.773	299.44
439.214	346.25
439.656	357.96
440.097	287.74
440.538	357.96
440.978	276.04
441.419	346.25
441.86	353.27
442.301	318.17
442.742	292.42
443.182	306.46
443.623	327.53
444.063	355.62
444.504	276.04
444.944	343.91
445.385	290.08
445.825	290.08
446.265	313.49
446.706	334.55
447.146	219.86
447.586	341.57
448.026	276.04
448.466	301.78
448.906	350.93
449.346	287.74
449.786	259.65
450.225	320.51
450.665	325.19
451.105	315.83
451.544	350.93
451.984	266.67
452.424	395.4
452.863	393.06
453.302	327.53
453.742	245.61
454.181	348.59
454.62	297.1
455.059	346.25
455.499	397.74
455.938	292.42
456.377	353.27
456.816	304.12
457.254	364.98
457.693	311.14
458.132	343.91
458.571	374.34
459.01	292.42
459.448	294.76
459.887	334.55
460.325	318.17
460.764	299.44
461.202	306.46
461.641	348.59
462.079	369.66
462.517	397.74
462.955	341.57
463.393	280.72
463.832	311.14
464.27	306.46
464.708	311.14
465.145	315.83
465.583	369.66
466.021	362.64
466.459	252.63
466.897	311.14
467.334	238.59
467.772	339.23
468.209	308.8
468.647	290.08
469.084	301.78
469.522	390.72
469.959	348.59
470.396	313.49
470.833	318.17
471.271	348.59
471.708	304.12
472.145	301.78
472.582	306.46
473.019	294.76
473.456	306.46
473.892	301.78
474.329	320.51
474.766	304.12
475.202	348.59
475.639	341.57
476.076	343.91
476.512	362.64
476.949	283.06
477.385	254.97
477.821	292.42
478.258	379.02
478.694	299.44
479.13	297.1
479.566	311.14
480.002	250.29
480.438	315.83
480.874	346.25
481.31	346.25
481.746	264.33
482.181	285.4
482.617	308.8
483.053	322.85
483.488	304.12
483.924	334.55
484.36	329.87
484.795	346.25
485.23	343.91
485.666	320.51
486.101	304.12
486.536	343.91
486.971	341.57
487.407	350.93
487.842	287.74
488.277	357.96
488.712	341.57
489.146	353.27
489.581	306.46
490.016	327.53
490.451	273.7
490.885	306.46
491.32	397.74
491.755	332.21
492.189	308.8
492.624	325.19
493.058	327.53
493.492	259.65
493.927	353.27
494.361	360.3
494.795	346.25
495.229	346.25
495.663	322.85
496.097	318.17
496.531	343.91
496.965	346.25
497.399	290.08
497.833	343.91
498.266	336.89
498.7	299.44
499.134	332.21
499.567	313.49
500.001	407.11
500.434	346.25
500.868	294.76
501.301	381.36
501.734	278.38
502.168	320.51
502.601	313.49
503.034	353.27
503.467	383.7
503.9	407.11
504.333	343.91
504.766	353.27
505.199	308.8
505.632	402.43
506.064	315.83
506.497	360.3
506.93	271.36
507.362	271.36
507.795	327.53
508.227	243.27
508.66	348.59
509.092	313.49
509.524	350.93
509.956	304.12
510.389	299.44
510.821	283.06
511.253	334.55
511.685	222.2
512.117	329.87
512.549	290.08
512.981	357.96
513.412	243.27
513.844	290.08
514.276	325.19
514.707	322.85
515.139	334.55
515.571	290.08
516.002	304.12
516.433	290.08
516.865	297.1
517.296	304.12
517.727	252.63
518.159	348.59
518.59	360.3
519.021	285.4
519.452	315.83
519.883	332.21
520.314	334.55
520.744	320.51
521.175	306.46
521.606	327.53
522.037	297.1
522.467	322.85
522.898	376.68
523.328	318.17
523.759	332.21
524.189	388.38
524.62	315.83
525.05	287.74
525.48	290.08
525.91	325.19
526.341	353.27
526.771	290.08
527.201	327.53
527.631	304.12
528.061	393.06
528.49	257.31
528.92	294.76
529.35	327.53
529.78	339.23
530.209	322.85
530.639	311.14
531.068	287.74
531.498	294.76
531.927	283.06
532.357	367.32
532.786	306.46
533.215	252.63
533.644	325.19
534.074	325.19
534.503	311.14
534.932	294.76
535.361	308.8
535.79	308.8
536.218	280.72
536.647	343.91
537.076	329.87
537.505	346.25
537.933	369.66
538.362	346.25
538.79	346.25
539.219	372
539.647	327.53
540.076	329.87
540.504	341.57
540.932	271.36
541.36	299.44
541.788	257.31
542.217	311.14
542.645	348.59
543.073	397.74
543.5	308.8
543.928	283.06
544.356	283.06
544.784	325.19
545.211	283.06
545.639	304.12
546.067	259.65
546.494	311.14
546.922	318.17
547.349	357.96
547.776	357.96
548.204	308.8
548.631	292.42
549.058	280.72
549.485	329.87
549.912	264.33
550.339	318.17
550.766	357.96
551.193	299.44
551.62	339.23
552.047	311.14
552.474	346.25
552.9	376.68
553.327	346.25
553.754	297.1
554.18	390.72
554.607	327.53
555.033	381.36
555.459	308.8
555.886	308.8
556.312	379.02
556.738	313.49
557.164	233.91
557.59	271.36
558.016	327.53
558.442	301.78
558.868	301.78
559.294	346.25
559.72	327.53
560.145	299.44
560.571	301.78
560.997	292.42
561.422	336.89
561.848	318.17
562.273	364.98
562.699	292.42
563.124	362.64
563.549	350.93
563.974	318.17
564.4	318.17
564.825	325.19
565.25	355.62
565.675	339.23
566.1	313.49
566.525	290.08
566.95	294.76
567.374	294.76
567.799	292.42
568.224	339.23
568.648	308.8
569.073	339.23
569.497	320.51
569.922	395.4
570.346	283.06
570.771	280.72
571.195	348.59
571.619	404.77
572.043	311.14
572.467	353.27
572.891	379.02
573.315	329.87
573.739	343.91
574.163	329.87
574.587	318.17
575.011	339.23
575.435	367.32
575.858	318.17
576.282	325.19
576.705	308.8
577.129	292.42
577.552	269.02
577.976	304.12
578.399	271.36
578.822	374.34
579.245	301.78
579.669	383.7
580.092	301.78
580.515	374.34
580.938	318.17
581.361	348.59
581.784	332.21
582.206	315.83
582.629	271.36
583.052	327.53
583.474	287.74
583.897	329.87
584.32	332.21
584.742	299.44
585.165	308.8
585.587	304.12
586.009	329.87
586.431	320.51
586.854	355.62
587.276	332.21
587.698	254.97
588.12	259.65
588.542	334.55
588.964	346.25
589.386	311.14
589.807	329.87
590.229	243.27
590.651	346.25
591.073	313.49
591.494	353.27
591.916	348.59
592.337	322.85
592.759	327.53
593.18	311.14
593.601	425.83
594.022	278.38
594.444	329.87
594.865	327.53
595.286	320.51
595.707	357.96
596.128	304.12
596.549	297.1
596.97	318.17
597.39	315.83
597.811	264.33
598.232	320.51
598.652	322.85
599.073	276.04
599.494	299.44
599.914	264.33
600.334	353.27
600.755	269.02
601.175	339.23
601.595	355.62
602.015	306.46
602.436	327.53
602.856	467.96
603.276	278.38
603.696	318.17
604.115	322.85
604.535	369.66
604.955	336.89
605.375	304.12
605.794	341.57
606.214	283.06
606.634	386.04
607.053	304.12
607.473	264.33
607.892	348.59
608.311	362.64
608.731	273.7
609.15	297.1
609.569	283.06
609.988	343.91
610.407	299.44
610.826	325.19
611.245	318.17
611.664	329.87
612.083	280.72
612.501	346.25
612.92	327.53
613.339	341.57
613.757	273.7
614.176	383.7
614.594	355.62
615.013	261.99
615.431	264.33
615.85	334.55
616.268	327.53
616.686	290.08
617.104	308.8
617.522	357.96
617.94	327.53
618.358	360.3
618.776	369.66
619.194	322.85
619.612	297.1
620.03	257.31
620.447	278.38
620.865	329.87
621.282	334.55
621.7	327.53
622.117	311.14
622.535	341.57
622.952	367.32
623.369	318.17
623.787	322.85
624.204	311.14
624.621	348.59
625.038	325.19
625.455	383.7
625.872	357.96
626.289	362.64
626.706	329.87
627.123	327.53
627.539	407.11
627.956	297.1
628.373	369.66
628.789	264.33
629.206	355.62
629.622	292.42
630.038	369.66
630.455	311.14
630.871	353.27
631.287	355.62
631.703	339.23
632.12	301.78
632.536	311.14
632.952	299.44
633.368	355.62
633.783	339.23
634.199	283.06
634.615	236.25
635.031	327.53
635.446	402.43
635.862	301.78
636.277	320.51
636.693	273.7
637.108	304.12
637.524	332.21
637.939	381.36
638.354	362.64
638.77	334.55
639.185	362.64
639.6	376.68
640.015	341.57
640.43	341.57
640.845	299.44
641.259	294.76
641.674	339.23
642.089	245.61
642.504	395.4
642.918	346.25
643.333	339.23
643.747	311.14
644.162	339.23
644.576	348.59
644.991	346.25
645.405	329.87
645.819	254.97
646.233	353.27
646.647	315.83
647.061	369.66
647.475	301.78
647.889	348.59
648.303	290.08
648.717	332.21
649.131	357.96
649.545	339.23
649.958	329.87
650.372	336.89
650.785	334.55
651.199	329.87
651.612	315.83
652.026	339.23
652.439	299.44
652.852	374.34
653.266	301.78
653.679	336.89
654.092	320.51
654.505	290.08
654.918	299.44
655.331	325.19
655.744	322.85
656.156	418.81
656.569	304.12
656.982	285.4
657.394	435.19
657.807	306.46
658.22	393.06
658.632	329.87
659.044	222.2
659.457	273.7
659.869	285.4
660.281	299.44
660.693	240.93
661.106	332.21
661.518	292.42
661.93	250.29
662.342	327.53
662.754	364.98
663.165	357.96
663.577	320.51
663.989	327.53
664.401	332.21
664.812	247.95
665.224	343.91
665.635	311.14
666.047	327.53
666.458	367.32
666.869	301.78
667.281	341.57
667.692	334.55
668.103	336.89
668.514	254.97
668.925	315.83
669.336	250.29
669.747	341.57
670.158	374.34
670.569	273.7
670.979	308.8
671.39	285.4
671.801	311.14
672.211	294.76
672.622	292.42
673.032	299.44
673.443	343.91
673.853	287.74
674.263	306.46
674.674	278.38
675.084	294.76
675.494	304.12
675.904	261.99
676.314	350.93
676.724	313.49
677.134	226.89
677.544	362.64
677.953	346.25
678.363	353.27
678.773	343.91
679.182	269.02
679.592	341.57
680.001	313.49
680.411	332.21
680.82	383.7
681.23	322.85
681.639	315.83
682.048	339.23
682.457	273.7
682.866	360.3
683.275	315.83
683.684	327.53
684.093	348.59
684.502	329.87
684.911	250.29
685.32	271.36
685.728	308.8
686.137	301.78
686.546	292.42
686.954	379.02
687.363	294.76
687.771	299.44
688.179	278.38
688.588	301.78
688.996	339.23
689.404	301.78
689.812	369.66
690.22	308.8
690.628	339.23
691.036	283.06
691.444	297.1
691.852	348.59
692.26	294.76
692.667	339.23
693.075	250.29
693.483	322.85
693.89	353.27
694.298	283.06
694.705	283.06
695.112	304.12
695.52	292.42
695.927	350.93
696.334	297.1
696.741	320.51
697.148	348.59
697.555	362.64
697.962	339.23
698.369	322.85
698.776	325.19
699.183	283.06
699.59	290.08
699.996	343.91
700.403	353.27
700.81	364.98
701.216	325.19
701.623	341.57
702.029	341.57
702.435	280.72
702.842	379.02
703.248	332.21
703.654	250.29
704.06	376.68
704.466	346.25
704.872	278.38
705.278	320.51
705.684	327.53
706.09	390.72
706.496	383.7
706.901	233.91
707.307	315.83
707.712	327.53
708.118	374.34
708.523	322.85
708.929	364.98
709.334	313.49
709.74	252.63
710.145	364.98
710.55	320.51
710.955	276.04
711.36	353.27
711.765	327.53
712.17	318.17
712.575	287.74
712.98	971.18
713.385	257.31
713.789	290.08
714.194	364.98
714.599	346.25
715.003	355.62
715.408	357.96
715.812	290.08
716.217	355.62
716.621	336.89
717.025	299.44
717.429	292.42
717.833	252.63
718.238	322.85
718.642	313.49
719.046	308.8
719.449	334.55
719.853	294.76
720.257	297.1
720.661	273.7
721.065	285.4
721.468	318.17
721.872	278.38
722.275	294.76
722.679	297.1
723.082	287.74
723.485	313.49
723.889	308.8
724.292	348.59
724.695	290.08
725.098	299.44
725.501	329.87
725.904	355.62
726.307	339.23
726.71	374.34
727.113	332.21
727.516	306.46
727.918	336.89
728.321	273.7
728.724	299.44
729.126	362.64
729.529	341.57
729.931	327.53
730.333	334.55
730.736	313.49
731.138	280.72
731.54	306.46
731.942	327.53
732.344	336.89
732.746	297.1
733.148	397.74
733.55	360.3
733.952	252.63
734.354	336.89
734.756	346.25
735.157	292.42
735.559	339.23
735.96	294.76
736.362	313.49
736.763	280.72
737.165	362.64
737.566	315.83
737.967	334.55
738.368	250.29
738.77	290.08
739.171	290.08
739.572	327.53
739.973	346.25
740.374	308.8
740.774	388.38
741.175	327.53
741.576	299.44
741.977	276.04
742.377	341.57
742.778	297.1
743.178	285.4
743.579	304.12
743.979	311.14
744.379	245.61
744.78	332.21
745.18	315.83
745.58	320.51
745.98	386.04
746.38	320.51
746.78	325.19
747.18	318.17
747.58	334.55
747.98	306.46
748.38	334.55
748.779	290.08
749.179	290.08
749.578	313.49
749.978	393.06
750.377	364.98
750.777	308.8
751.176	304.12
751.575	334.55
751.975	318.17
752.374	308.8
752.773	341.57
753.172	334.55
753.571	308.8
753.97	285.4
754.369	364.98
754.768	372
755.166	341.57
755.565	350.93
755.964	320.51
756.362	332.21
756.761	327.53
757.159	306.46
757.558	306.46
757.956	306.46
758.354	320.51
758.753	299.44
759.151	271.36
759.549	341.57
759.947	257.31
760.345	362.64
760.743	261.99
761.141	294.76
761.539	329.87
761.936	334.55
762.334	299.44
762.732	336.89
763.129	343.91
763.527	287.74
763.924	336.89
764.322	276.04
764.719	322.85
765.117	346.25
765.514	341.57
