Data from Al_FLMS009871__891__16-17-04-225.txt Node

Date: Fri Mar 08 16:17:04 CST 2024
User: pe5414po
Spectrometer: FLMS00987
Trigger mode: 0
Integration Time (sec): 1.000000E-1
Scans to average: 1
Electric dark correction enabled: true
Nonlinearity correction enabled: false
Boxcar width: 0
XAxis mode: Wavelengths
Number of Pixels in Spectrum: 2048
>>>>>Begin Spectral Data<<<<<
188.938	-114.83
189.409	-114.83
189.879	-114.83
190.349	-72.7
190.819	-65.68
191.29	-42.28
191.76	-32.91
192.23	-93.77
192.7	-53.98
193.17	-56.32
193.64	-86.75
194.109	-91.43
194.579	-32.91
195.049	-25.89
195.519	13.9
195.988	32.62
196.458	109.86
196.927	34.96
197.397	128.58
197.866	123.9
198.336	72.41
198.805	168.37
199.274	121.56
199.744	276.04
200.213	194.12
200.682	201.14
201.151	187.1
201.62	276.04
202.089	231.57
202.558	299.44
203.027	231.57
203.495	247.95
203.964	278.38
204.433	308.8
204.902	266.67
205.37	304.12
205.839	306.46
206.307	318.17
206.776	294.76
207.244	264.33
207.712	311.14
208.181	322.85
208.649	318.17
209.117	297.1
209.585	301.78
210.053	348.59
210.521	278.38
210.989	322.85
211.457	238.59
211.925	264.33
212.393	301.78
212.861	318.17
213.328	329.87
213.796	311.14
214.264	315.83
214.731	287.74
215.199	280.72
215.666	292.42
216.133	269.02
216.601	247.95
217.068	252.63
217.535	238.59
218.003	264.33
218.47	252.63
218.937	245.61
219.404	304.12
219.871	250.29
220.338	292.42
220.805	280.72
221.271	269.02
221.738	278.38
222.205	266.67
222.671	269.02
223.138	229.23
223.605	280.72
224.071	215.18
224.538	240.93
225.004	313.49
225.47	292.42
225.937	266.67
226.403	271.36
226.869	304.12
227.335	301.78
227.801	283.06
228.267	259.65
228.733	261.99
229.199	306.46
229.665	287.74
230.131	287.74
230.597	252.63
231.062	304.12
231.528	327.53
231.994	304.12
232.459	229.23
232.925	261.99
233.39	208.16
233.856	285.4
234.321	287.74
234.786	348.59
235.252	341.57
235.717	320.51
236.182	339.23
236.647	313.49
237.112	325.19
237.577	325.19
238.042	264.33
238.507	254.97
238.972	301.78
239.436	285.4
239.901	280.72
240.366	343.91
240.83	287.74
241.295	292.42
241.76	306.46
242.224	322.85
242.688	233.91
243.153	233.91
243.617	297.1
244.081	271.36
244.545	287.74
245.01	308.8
245.474	280.72
245.938	294.76
246.402	252.63
246.866	327.53
247.33	304.12
247.793	276.04
248.257	287.74
248.721	266.67
249.185	266.67
249.648	259.65
250.112	320.51
250.575	276.04
251.039	311.14
251.502	311.14
251.965	327.53
252.429	320.51
252.892	254.97
253.355	343.91
253.818	283.06
254.281	299.44
254.744	269.02
255.207	287.74
255.67	318.17
256.133	245.61
256.596	327.53
257.059	318.17
257.522	336.89
257.984	304.12
258.447	325.19
258.909	271.36
259.372	280.72
259.834	308.8
260.297	325.19
260.759	290.08
261.221	285.4
261.684	252.63
262.146	313.49
262.608	261.99
263.07	280.72
263.532	231.57
263.994	290.08
264.456	320.51
264.918	299.44
265.38	276.04
265.842	308.8
266.303	304.12
266.765	362.64
267.227	336.89
267.688	320.51
268.15	276.04
268.611	306.46
269.072	271.36
269.534	285.4
269.995	297.1
270.456	278.38
270.918	318.17
271.379	369.66
271.84	269.02
272.301	350.93
272.762	369.66
273.223	271.36
273.684	376.68
274.144	327.53
274.605	283.06
275.066	315.83
275.527	191.78
275.987	254.97
276.448	332.21
276.908	311.14
277.369	327.53
277.829	259.65
278.289	311.14
278.75	278.38
279.21	301.78
279.67	346.25
280.13	393.06
280.59	362.64
281.05	332.21
281.51	339.23
281.97	290.08
282.43	285.4
282.89	299.44
283.35	297.1
283.809	315.83
284.269	304.12
284.729	292.42
285.188	294.76
285.648	304.12
286.107	336.89
286.567	357.96
287.026	343.91
287.485	329.87
287.944	283.06
288.404	327.53
288.863	325.19
289.322	247.95
289.781	301.78
290.24	278.38
290.699	276.04
291.158	350.93
291.616	301.78
292.075	343.91
292.534	336.89
292.992	348.59
293.451	306.46
293.91	301.78
294.368	322.85
294.827	304.12
295.285	339.23
295.743	299.44
296.202	320.51
296.66	315.83
297.118	367.32
297.576	292.42
298.034	261.99
298.492	259.65
298.95	285.4
299.408	278.38
299.866	320.51
300.324	355.62
300.781	290.08
301.239	306.46
301.697	285.4
302.154	301.78
302.612	266.67
303.069	261.99
303.527	308.8
303.984	320.51
304.441	343.91
304.899	292.42
305.356	299.44
305.813	304.12
306.27	287.74
306.727	294.76
307.184	264.33
307.641	299.44
308.098	259.65
308.555	322.85
309.012	287.74
309.468	343.91
309.925	322.85
310.382	294.76
310.838	343.91
311.295	379.02
311.751	276.04
312.208	320.51
312.664	311.14
313.12	304.12
313.577	301.78
314.033	297.1
314.489	278.38
314.945	273.7
315.401	311.14
315.857	311.14
316.313	322.85
316.769	285.4
317.225	343.91
317.681	297.1
318.136	273.7
318.592	362.64
319.048	353.27
319.503	327.53
319.959	233.91
320.414	245.61
320.869	271.36
321.325	355.62
321.78	290.08
322.235	369.66
322.691	334.55
323.146	290.08
323.601	327.53
324.056	369.66
324.511	311.14
324.966	318.17
325.421	332.21
325.875	257.31
326.33	287.74
326.785	362.64
327.24	350.93
327.694	339.23
328.149	306.46
328.603	336.89
329.058	318.17
329.512	208.16
329.966	259.65
330.421	322.85
330.875	308.8
331.329	290.08
331.783	367.32
332.237	369.66
332.691	315.83
333.145	299.44
333.599	332.21
334.053	339.23
334.507	273.7
334.96	393.06
335.414	346.25
335.868	334.55
336.321	269.02
336.775	254.97
337.228	383.7
337.682	313.49
338.135	318.17
338.588	276.04
339.042	311.14
339.495	304.12
339.948	353.27
340.401	285.4
340.854	348.59
341.307	325.19
341.76	325.19
342.213	285.4
342.666	297.1
343.119	348.59
343.571	318.17
344.024	229.23
344.477	283.06
344.929	360.3
345.382	348.59
345.834	332.21
346.287	343.91
346.739	320.51
347.191	334.55
347.644	283.06
348.096	348.59
348.548	294.76
349	306.46
349.452	304.12
349.904	292.42
350.356	334.55
350.808	325.19
351.26	383.7
351.711	292.42
352.163	287.74
352.615	318.17
353.066	397.74
353.518	313.49
353.969	329.87
354.421	308.8
354.872	332.21
355.324	315.83
355.775	287.74
356.226	245.61
356.677	280.72
357.128	320.51
357.579	341.57
358.03	318.17
358.481	339.23
358.932	313.49
359.383	287.74
359.834	325.19
360.285	327.53
360.735	357.96
361.186	376.68
361.637	285.4
362.087	299.44
362.538	280.72
362.988	269.02
363.438	367.32
363.889	339.23
364.339	369.66
364.789	299.44
365.239	322.85
365.689	353.27
366.139	306.46
366.589	353.27
367.039	304.12
367.489	325.19
367.939	355.62
368.389	280.72
368.839	299.44
369.288	362.64
369.738	341.57
370.187	397.74
370.637	285.4
371.086	332.21
371.536	322.85
371.985	357.96
372.434	311.14
372.884	301.78
373.333	311.14
373.782	339.23
374.231	376.68
374.68	283.06
375.129	278.38
375.578	301.78
376.027	343.91
376.475	311.14
376.924	367.32
377.373	346.25
377.822	372
378.27	388.38
378.719	325.19
379.167	306.46
379.616	350.93
380.064	350.93
380.512	367.32
380.961	271.36
381.409	308.8
381.857	334.55
382.305	306.46
382.753	362.64
383.201	308.8
383.649	355.62
384.097	308.8
384.545	299.44
384.992	350.93
385.44	374.34
385.888	257.31
386.335	294.76
386.783	290.08
387.231	297.1
387.678	332.21
388.125	334.55
388.573	297.1
389.02	308.8
389.467	327.53
389.914	329.87
390.362	313.49
390.809	332.21
391.256	313.49
391.703	285.4
392.15	297.1
392.596	372
393.043	334.55
393.49	353.27
393.937	297.1
394.383	252.63
394.83	313.49
395.276	299.44
395.723	313.49
396.169	318.17
396.616	318.17
397.062	376.68
397.508	346.25
397.954	315.83
398.401	290.08
398.847	313.49
399.293	372
399.739	313.49
400.185	313.49
400.631	285.4
401.076	343.91
401.522	299.44
401.968	283.06
402.414	311.14
402.859	339.23
403.305	327.53
403.75	299.44
404.196	353.27
404.641	339.23
405.086	343.91
405.532	313.49
405.977	360.3
406.422	346.25
406.867	259.65
407.312	374.34
407.757	362.64
408.202	339.23
408.647	322.85
409.092	271.36
409.537	294.76
409.982	299.44
410.426	311.14
410.871	357.96
411.316	322.85
411.76	334.55
412.205	276.04
412.649	329.87
413.093	376.68
413.538	357.96
413.982	294.76
414.426	236.25
414.87	334.55
415.314	376.68
415.758	353.27
416.202	306.46
416.646	320.51
417.09	322.85
417.534	343.91
417.978	304.12
418.421	322.85
418.865	306.46
419.309	334.55
419.752	304.12
420.196	329.87
420.639	353.27
421.083	304.12
421.526	332.21
421.969	334.55
422.412	306.46
422.856	304.12
423.299	287.74
423.742	362.64
424.185	355.62
424.628	285.4
425.071	278.38
425.513	294.76
425.956	355.62
426.399	290.08
426.842	348.59
427.284	364.98
427.727	362.64
428.169	318.17
428.612	336.89
429.054	301.78
429.497	261.99
429.939	304.12
430.381	346.25
430.823	346.25
431.265	306.46
431.707	327.53
432.149	329.87
432.591	346.25
433.033	364.98
433.475	308.8
433.917	388.38
434.359	301.78
434.8	290.08
435.242	350.93
435.684	304.12
436.125	381.36
436.567	325.19
437.008	299.44
437.449	306.46
437.891	311.14
438.332	308.8
438.773	313.49
439.214	355.62
439.656	322.85
440.097	301.78
440.538	364.98
440.978	311.14
441.419	271.36
441.86	292.42
442.301	325.19
442.742	299.44
443.182	320.51
443.623	238.59
444.063	339.23
444.504	290.08
444.944	364.98
445.385	269.02
445.825	343.91
446.265	329.87
446.706	322.85
447.146	280.72
447.586	313.49
448.026	383.7
448.466	292.42
448.906	301.78
449.346	285.4
449.786	297.1
450.225	346.25
450.665	334.55
451.105	292.42
451.544	339.23
451.984	285.4
452.424	327.53
452.863	243.27
453.302	329.87
453.742	264.33
454.181	329.87
454.62	332.21
455.059	322.85
455.499	334.55
455.938	367.32
456.377	320.51
456.816	343.91
457.254	362.64
457.693	388.38
458.132	264.33
458.571	315.83
459.01	416.47
459.448	266.67
459.887	329.87
460.325	320.51
460.764	388.38
461.202	283.06
461.641	311.14
462.079	329.87
462.517	264.33
462.955	287.74
463.393	245.61
463.832	395.4
464.27	362.64
464.708	287.74
465.145	313.49
465.583	362.64
466.021	325.19
466.459	318.17
466.897	313.49
467.334	278.38
467.772	285.4
468.209	290.08
468.647	299.44
469.084	372
469.522	369.66
469.959	381.36
470.396	327.53
470.833	355.62
471.271	364.98
471.708	353.27
472.145	355.62
472.582	332.21
473.019	327.53
473.456	336.89
473.892	327.53
474.329	276.04
474.766	343.91
475.202	336.89
475.639	299.44
476.076	407.11
476.512	301.78
476.949	383.7
477.385	341.57
477.821	322.85
478.258	287.74
478.694	348.59
479.13	266.67
479.566	334.55
480.002	325.19
480.438	341.57
480.874	325.19
481.31	390.72
481.746	346.25
482.181	266.67
482.617	372
483.053	346.25
483.488	332.21
483.924	294.76
484.36	259.65
484.795	355.62
485.23	332.21
485.666	329.87
486.101	320.51
486.536	374.34
486.971	327.53
487.407	287.74
487.842	315.83
488.277	287.74
488.712	308.8
489.146	243.27
489.581	322.85
490.016	346.25
490.451	327.53
490.885	336.89
491.32	341.57
491.755	329.87
492.189	364.98
492.624	336.89
493.058	308.8
493.492	376.68
493.927	297.1
494.361	388.38
494.795	355.62
495.229	304.12
495.663	329.87
496.097	294.76
496.531	357.96
496.965	313.49
497.399	334.55
497.833	306.46
498.266	278.38
498.7	343.91
499.134	357.96
499.567	308.8
500.001	318.17
500.434	397.74
500.868	341.57
501.301	367.32
501.734	327.53
502.168	350.93
502.601	292.42
503.034	329.87
503.467	287.74
503.9	350.93
504.333	329.87
504.766	292.42
505.199	334.55
505.632	322.85
506.064	334.55
506.497	306.46
506.93	301.78
507.362	350.93
507.795	348.59
508.227	308.8
508.66	360.3
509.092	306.46
509.524	287.74
509.956	343.91
510.389	332.21
510.821	320.51
511.253	360.3
511.685	318.17
512.117	271.36
512.549	320.51
512.981	348.59
513.412	306.46
513.844	336.89
514.276	322.85
514.707	423.49
515.139	297.1
515.571	350.93
516.002	336.89
516.433	287.74
516.865	311.14
517.296	276.04
517.727	311.14
518.159	346.25
518.59	360.3
519.021	390.72
519.452	311.14
519.883	339.23
520.314	294.76
520.744	329.87
521.175	369.66
521.606	423.49
522.037	269.02
522.467	339.23
522.898	315.83
523.328	320.51
523.759	343.91
524.189	350.93
524.62	315.83
525.05	336.89
525.48	320.51
525.91	243.27
526.341	334.55
526.771	360.3
527.201	294.76
527.631	283.06
528.061	290.08
528.49	388.38
528.92	311.14
529.35	372
529.78	301.78
530.209	336.89
530.639	250.29
531.068	334.55
531.498	322.85
531.927	325.19
532.357	313.49
532.786	341.57
533.215	313.49
533.644	292.42
534.074	247.95
534.503	372
534.932	250.29
535.361	306.46
535.79	353.27
536.218	381.36
536.647	247.95
537.076	341.57
537.505	322.85
537.933	346.25
538.362	327.53
538.79	297.1
539.219	306.46
539.647	311.14
540.076	346.25
540.504	388.38
540.932	350.93
541.36	271.36
541.788	386.04
542.217	327.53
542.645	348.59
543.073	297.1
543.5	336.89
543.928	329.87
544.356	322.85
544.784	264.33
545.211	336.89
545.639	280.72
546.067	301.78
546.494	348.59
546.922	367.32
547.349	322.85
547.776	313.49
548.204	283.06
548.631	334.55
549.058	273.7
549.485	297.1
549.912	292.42
550.339	315.83
550.766	327.53
551.193	334.55
551.62	294.76
552.047	311.14
552.474	313.49
552.9	299.44
553.327	346.25
553.754	329.87
554.18	339.23
554.607	311.14
555.033	332.21
555.459	346.25
555.886	301.78
556.312	245.61
556.738	306.46
557.164	306.46
557.59	327.53
558.016	311.14
558.442	353.27
558.868	332.21
559.294	304.12
559.72	388.38
560.145	287.74
560.571	313.49
560.997	283.06
561.422	339.23
561.848	292.42
562.273	285.4
562.699	264.33
563.124	353.27
563.549	357.96
563.974	329.87
564.4	278.38
564.825	301.78
565.25	346.25
565.675	418.81
566.1	381.36
566.525	332.21
566.95	423.49
567.374	247.95
567.799	336.89
568.224	304.12
568.648	278.38
569.073	348.59
569.497	329.87
569.922	346.25
570.346	353.27
570.771	341.57
571.195	343.91
571.619	306.46
572.043	252.63
572.467	304.12
572.891	315.83
573.315	364.98
573.739	299.44
574.163	290.08
574.587	292.42
575.011	261.99
575.435	322.85
575.858	360.3
576.282	341.57
576.705	329.87
577.129	304.12
577.552	297.1
577.976	320.51
578.399	348.59
578.822	287.74
579.245	390.72
579.669	285.4
580.092	269.02
580.515	400.09
580.938	336.89
581.361	360.3
581.784	311.14
582.206	308.8
582.629	364.98
583.052	341.57
583.474	315.83
583.897	301.78
584.32	280.72
584.742	313.49
585.165	334.55
585.587	332.21
586.009	306.46
586.431	318.17
586.854	320.51
587.276	299.44
587.698	325.19
588.12	346.25
588.542	350.93
588.964	362.64
589.386	374.34
589.807	271.36
590.229	332.21
590.651	376.68
591.073	341.57
591.494	355.62
591.916	304.12
592.337	315.83
592.759	343.91
593.18	292.42
593.601	313.49
594.022	283.06
594.444	332.21
594.865	332.21
595.286	311.14
595.707	325.19
596.128	334.55
596.549	381.36
596.97	334.55
597.39	311.14
597.811	294.76
598.232	364.98
598.652	308.8
599.073	294.76
599.494	311.14
599.914	311.14
600.334	341.57
600.755	229.23
601.175	315.83
601.595	339.23
602.015	278.38
602.436	315.83
602.856	376.68
603.276	304.12
603.696	362.64
604.115	290.08
604.535	261.99
604.955	264.33
605.375	311.14
605.794	341.57
606.214	346.25
606.634	341.57
607.053	348.59
607.473	334.55
607.892	348.59
608.311	308.8
608.731	301.78
609.15	320.51
609.569	261.99
609.988	353.27
610.407	294.76
610.826	325.19
611.245	348.59
611.664	318.17
612.083	280.72
612.501	348.59
612.92	346.25
613.339	264.33
613.757	341.57
614.176	369.66
614.594	301.78
615.013	350.93
615.431	329.87
615.85	259.65
616.268	306.46
616.686	353.27
617.104	287.74
617.522	348.59
617.94	322.85
618.358	364.98
618.776	336.89
619.194	313.49
619.612	306.46
620.03	334.55
620.447	322.85
620.865	285.4
621.282	306.46
621.7	402.43
622.117	290.08
622.535	283.06
622.952	278.38
623.369	332.21
623.787	355.62
624.204	346.25
624.621	372
625.038	247.95
625.455	357.96
625.872	341.57
626.289	355.62
626.706	388.38
627.123	357.96
627.539	259.65
627.956	329.87
628.373	346.25
628.789	362.64
629.206	315.83
629.622	271.36
630.038	283.06
630.455	393.06
630.871	350.93
631.287	369.66
631.703	294.76
632.12	334.55
632.536	350.93
632.952	348.59
633.368	287.74
633.783	320.51
634.199	360.3
634.615	292.42
635.031	264.33
635.446	332.21
635.862	343.91
636.277	259.65
636.693	353.27
637.108	297.1
637.524	367.32
637.939	233.91
638.354	294.76
638.77	299.44
639.185	285.4
639.6	315.83
640.015	322.85
640.43	269.02
640.845	350.93
641.259	376.68
641.674	364.98
642.089	259.65
642.504	383.7
642.918	287.74
643.333	278.38
643.747	350.93
644.162	336.89
644.576	336.89
644.991	322.85
645.405	304.12
645.819	386.04
646.233	290.08
646.647	350.93
647.061	343.91
647.475	292.42
647.889	311.14
648.303	285.4
648.717	283.06
649.131	304.12
649.545	292.42
649.958	339.23
650.372	325.19
650.785	287.74
651.199	264.33
651.612	264.33
652.026	334.55
652.439	290.08
652.852	313.49
653.266	315.83
653.679	306.46
654.092	318.17
654.505	294.76
654.918	339.23
655.331	285.4
655.744	308.8
656.156	350.93
656.569	311.14
656.982	315.83
657.394	301.78
657.807	355.62
658.22	343.91
658.632	315.83
659.044	290.08
659.457	320.51
659.869	369.66
660.281	336.89
660.693	304.12
661.106	336.89
661.518	245.61
661.93	325.19
662.342	243.27
662.754	297.1
663.165	388.38
663.577	311.14
663.989	332.21
664.401	285.4
664.812	350.93
665.224	334.55
665.635	250.29
666.047	315.83
666.458	362.64
666.869	348.59
667.281	299.44
667.692	332.21
668.103	299.44
668.514	304.12
668.925	329.87
669.336	355.62
669.747	353.27
670.158	332.21
670.569	320.51
670.979	348.59
671.39	318.17
671.801	350.93
672.211	283.06
672.622	292.42
673.032	339.23
673.443	271.36
673.853	315.83
674.263	283.06
674.674	320.51
675.084	292.42
675.494	308.8
675.904	350.93
676.314	334.55
676.724	329.87
677.134	339.23
677.544	294.76
677.953	315.83
678.363	346.25
678.773	376.68
679.182	315.83
679.592	283.06
680.001	294.76
680.411	388.38
680.82	343.91
681.23	383.7
681.639	367.32
682.048	315.83
682.457	339.23
682.866	369.66
683.275	280.72
683.684	311.14
684.093	257.31
684.502	367.32
684.911	287.74
685.32	369.66
685.728	329.87
686.137	306.46
686.546	348.59
686.954	322.85
687.363	311.14
687.771	334.55
688.179	233.91
688.588	348.59
688.996	278.38
689.404	329.87
689.812	332.21
690.22	332.21
690.628	297.1
691.036	355.62
691.444	423.49
691.852	400.09
692.26	278.38
692.667	336.89
693.075	421.15
693.483	348.59
693.89	350.93
694.298	336.89
694.705	346.25
695.112	327.53
695.52	306.46
695.927	297.1
696.334	332.21
696.741	332.21
697.148	341.57
697.555	374.34
697.962	243.27
698.369	376.68
698.776	287.74
699.183	264.33
699.59	304.12
699.996	294.76
700.403	372
700.81	327.53
701.216	297.1
701.623	283.06
702.029	259.65
702.435	322.85
702.842	369.66
703.248	374.34
703.654	329.87
704.06	369.66
704.466	353.27
704.872	400.09
705.278	322.85
705.684	357.96
706.09	273.7
706.496	294.76
706.901	388.38
707.307	278.38
707.712	325.19
708.118	283.06
708.523	325.19
708.929	301.78
709.334	304.12
709.74	304.12
710.145	273.7
710.55	294.76
710.955	287.74
711.36	329.87
711.765	259.65
712.17	325.19
712.575	287.74
712.98	964.15
713.385	353.27
713.789	294.76
714.194	355.62
714.599	294.76
715.003	322.85
715.408	355.62
715.812	297.1
716.217	257.31
716.621	367.32
717.025	287.74
717.429	393.06
717.833	369.66
718.238	343.91
718.642	320.51
719.046	318.17
719.449	252.63
719.853	329.87
720.257	327.53
720.661	245.61
721.065	318.17
721.468	285.4
721.872	297.1
722.275	327.53
722.679	273.7
723.082	327.53
723.485	339.23
723.889	364.98
724.292	327.53
724.695	273.7
725.098	318.17
725.501	357.96
725.904	280.72
726.307	294.76
726.71	287.74
727.113	290.08
727.516	198.8
727.918	266.67
728.321	381.36
728.724	308.8
729.126	318.17
729.529	386.04
729.931	311.14
730.333	304.12
730.736	341.57
731.138	327.53
731.54	315.83
731.942	269.02
732.344	301.78
732.746	292.42
733.148	355.62
733.55	327.53
733.952	308.8
734.354	348.59
734.756	292.42
735.157	360.3
735.559	294.76
735.96	299.44
736.362	390.72
736.763	395.4
737.165	240.93
737.566	329.87
737.967	276.04
738.368	304.12
738.77	292.42
739.171	379.02
739.572	297.1
739.973	320.51
740.374	301.78
740.774	329.87
741.175	301.78
741.576	322.85
741.977	306.46
742.377	339.23
742.778	320.51
743.178	264.33
743.579	311.14
743.979	322.85
744.379	325.19
744.78	348.59
745.18	357.96
745.58	315.83
745.98	297.1
746.38	266.67
746.78	315.83
747.18	301.78
747.58	327.53
747.98	299.44
748.38	311.14
748.779	224.55
749.179	325.19
749.578	379.02
749.978	299.44
750.377	278.38
750.777	332.21
751.176	364.98
751.575	334.55
751.975	266.67
752.374	299.44
752.773	315.83
753.172	397.74
753.571	280.72
753.97	306.46
754.369	308.8
754.768	304.12
755.166	287.74
755.565	355.62
755.964	341.57
756.362	341.57
756.761	325.19
757.159	261.99
757.558	299.44
757.956	269.02
758.354	287.74
758.753	346.25
759.151	327.53
759.549	318.17
759.947	355.62
760.345	308.8
760.743	355.62
761.141	299.44
761.539	261.99
761.936	318.17
762.334	355.62
762.732	327.53
763.129	397.74
763.527	304.12
763.924	318.17
764.322	346.25
764.719	318.17
765.117	367.32
