Data from Al_FLMS009871__969__16-20-58-019.txt Node

Date: Fri Mar 08 16:20:58 CST 2024
User: pe5414po
Spectrometer: FLMS00987
Trigger mode: 0
Integration Time (sec): 1.000000E-1
Scans to average: 1
Electric dark correction enabled: true
Nonlinearity correction enabled: false
Boxcar width: 0
XAxis mode: Wavelengths
Number of Pixels in Spectrum: 2048
>>>>>Begin Spectral Data<<<<<
188.938	-24.72
189.409	-24.72
189.879	-24.72
190.349	-64.51
190.819	-69.19
191.29	-106.64
191.76	-94.94
192.23	-64.51
192.7	-69.19
193.17	-62.17
193.64	-57.49
194.109	-1.32
194.579	-55.15
195.049	-43.45
195.519	-8.34
195.988	78.26
196.458	92.3
196.927	104.01
197.397	94.65
197.866	118.05
198.336	75.92
198.805	157.84
199.274	174.22
199.744	216.35
200.213	167.2
200.682	211.67
201.151	195.29
201.62	274.87
202.089	263.16
202.558	302.95
203.027	354.44
203.495	302.95
203.964	319.34
204.433	258.48
204.902	305.29
205.37	302.95
205.839	244.44
206.307	342.74
206.776	321.68
207.244	326.36
207.712	258.48
208.181	249.12
208.649	279.55
209.117	319.34
209.585	326.36
210.053	335.72
210.521	307.63
210.989	288.91
211.457	281.89
211.925	284.23
212.393	340.4
212.861	331.04
213.328	312.32
213.796	295.93
214.264	258.48
214.731	352.1
215.199	263.16
215.666	267.85
216.133	265.5
216.601	279.55
217.068	288.91
217.535	300.61
218.003	270.19
218.47	300.61
218.937	185.93
219.404	218.69
219.871	295.93
220.338	260.82
220.805	272.53
221.271	223.37
221.738	291.25
222.205	321.68
222.671	293.59
223.138	239.76
223.605	270.19
224.071	253.8
224.538	206.99
225.004	235.08
225.47	237.42
225.937	298.27
226.403	235.08
226.869	281.89
227.335	295.93
227.801	305.29
228.267	260.82
228.733	281.89
229.199	272.53
229.665	349.76
230.131	293.59
230.597	317
231.062	249.12
231.528	342.74
231.994	291.25
232.459	314.66
232.925	274.87
233.39	349.76
233.856	302.95
234.321	277.21
234.786	302.95
235.252	216.35
235.717	267.85
236.182	235.08
236.647	317
237.112	295.93
237.577	342.74
238.042	284.23
238.507	281.89
238.972	246.78
239.436	293.59
239.901	312.32
240.366	305.29
240.83	291.25
241.295	319.34
241.76	281.89
242.224	281.89
242.688	307.63
243.153	281.89
243.617	249.12
244.081	309.97
244.545	319.34
245.01	307.63
245.474	342.74
245.938	335.72
246.402	324.02
246.866	309.97
247.33	317
247.793	199.97
248.257	284.23
248.721	331.04
249.185	319.34
249.648	307.63
250.112	249.12
250.575	300.61
251.039	314.66
251.502	295.93
251.965	237.42
252.429	260.82
252.892	300.61
253.355	335.72
253.818	359.13
254.281	309.97
254.744	298.27
255.207	221.03
255.67	377.85
256.133	328.7
256.596	277.21
257.059	349.76
257.522	345.08
257.984	291.25
258.447	295.93
258.909	284.23
259.372	333.38
259.834	340.4
260.297	253.8
260.759	363.81
261.221	342.74
261.684	326.36
262.146	286.57
262.608	295.93
263.07	293.59
263.532	331.04
263.994	293.59
264.456	298.27
264.918	317
265.38	328.7
265.842	258.48
266.303	309.97
266.765	307.63
267.227	298.27
267.688	328.7
268.15	265.5
268.611	300.61
269.072	340.4
269.534	321.68
269.995	328.7
270.456	305.29
270.918	249.12
271.379	328.7
271.84	300.61
272.301	324.02
272.762	260.82
273.223	256.14
273.684	281.89
274.144	253.8
274.605	265.5
275.066	368.49
275.527	333.38
275.987	305.29
276.448	319.34
276.908	263.16
277.369	352.1
277.829	307.63
278.289	349.76
278.75	300.61
279.21	295.93
279.67	317
280.13	288.91
280.59	281.89
281.05	300.61
281.51	288.91
281.97	321.68
282.43	335.72
282.89	300.61
283.35	295.93
283.809	340.4
284.269	319.34
284.729	326.36
285.188	333.38
285.648	246.78
286.107	309.97
286.567	249.12
287.026	218.69
287.485	251.46
287.944	338.06
288.404	286.57
288.863	265.5
289.322	286.57
289.781	265.5
290.24	356.79
290.699	349.76
291.158	263.16
291.616	354.44
292.075	333.38
292.534	309.97
292.992	253.8
293.451	272.53
293.91	302.95
294.368	298.27
294.827	286.57
295.285	272.53
295.743	314.66
296.202	309.97
296.66	317
297.118	307.63
297.576	300.61
298.034	274.87
298.492	319.34
298.95	349.76
299.408	312.32
299.866	309.97
300.324	305.29
300.781	347.42
301.239	389.55
301.697	291.25
302.154	338.06
302.612	345.08
303.069	347.42
303.527	396.57
303.984	314.66
304.441	328.7
304.899	312.32
305.356	324.02
305.813	267.85
306.27	293.59
306.727	328.7
307.184	342.74
307.641	270.19
308.098	293.59
308.555	272.53
309.012	249.12
309.468	363.81
309.925	307.63
310.382	309.97
310.838	277.21
311.295	293.59
311.751	321.68
312.208	260.82
312.664	352.1
313.12	335.72
313.577	342.74
314.033	333.38
314.489	298.27
314.945	307.63
315.401	326.36
315.857	312.32
316.313	288.91
316.769	293.59
317.225	317
317.681	340.4
318.136	305.29
318.592	349.76
319.048	295.93
319.503	331.04
319.959	338.06
320.414	331.04
320.869	314.66
321.325	349.76
321.78	286.57
322.235	324.02
322.691	309.97
323.146	331.04
323.601	352.1
324.056	363.81
324.511	298.27
324.966	305.29
325.421	277.21
325.875	284.23
326.33	335.72
326.785	312.32
327.24	321.68
327.694	284.23
328.149	300.61
328.603	359.13
329.058	328.7
329.512	300.61
329.966	305.29
330.421	328.7
330.875	347.42
331.329	277.21
331.783	356.79
332.237	307.63
332.691	314.66
333.145	319.34
333.599	345.08
334.053	338.06
334.507	331.04
334.96	354.44
335.414	314.66
335.868	284.23
336.321	324.02
336.775	291.25
337.228	260.82
337.682	312.32
338.135	295.93
338.588	307.63
339.042	361.47
339.495	260.82
339.948	300.61
340.401	317
340.854	288.91
341.307	317
341.76	317
342.213	347.42
342.666	354.44
343.119	345.08
343.571	326.36
344.024	340.4
344.477	314.66
344.929	307.63
345.382	302.95
345.834	279.55
346.287	305.29
346.739	387.21
347.191	349.76
347.644	347.42
348.096	387.21
348.548	260.82
349	356.79
349.452	333.38
349.904	384.87
350.356	370.83
350.808	335.72
351.26	347.42
351.711	335.72
352.163	366.15
352.615	279.55
353.066	298.27
353.518	309.97
353.969	293.59
354.421	314.66
354.872	391.89
355.324	307.63
355.775	352.1
356.226	324.02
356.677	363.81
357.128	321.68
357.579	302.95
358.03	288.91
358.481	293.59
358.932	317
359.383	394.23
359.834	272.53
360.285	274.87
360.735	314.66
361.186	354.44
361.637	314.66
362.087	272.53
362.538	366.15
362.988	335.72
363.438	335.72
363.889	359.13
364.339	249.12
364.789	281.89
365.239	265.5
365.689	326.36
366.139	295.93
366.589	335.72
367.039	338.06
367.489	347.42
367.939	307.63
368.389	326.36
368.839	284.23
369.288	309.97
369.738	324.02
370.187	284.23
370.637	284.23
371.086	253.8
371.536	384.87
371.985	237.42
372.434	253.8
372.884	314.66
373.333	338.06
373.782	380.19
374.231	314.66
374.68	347.42
375.129	363.81
375.578	333.38
376.027	331.04
376.475	387.21
376.924	328.7
377.373	321.68
377.822	335.72
378.27	375.51
378.719	333.38
379.167	356.79
379.616	249.12
380.064	279.55
380.512	408.28
380.961	387.21
381.409	342.74
381.857	307.63
382.305	307.63
382.753	340.4
383.201	361.47
383.649	349.76
384.097	354.44
384.545	335.72
384.992	324.02
385.44	298.27
385.888	230.4
386.335	321.68
386.783	302.95
387.231	279.55
387.678	340.4
388.125	307.63
388.573	338.06
389.02	328.7
389.467	359.13
389.914	277.21
390.362	312.32
390.809	338.06
391.256	230.4
391.703	305.29
392.15	359.13
392.596	356.79
393.043	286.57
393.49	340.4
393.937	321.68
394.383	333.38
394.83	309.97
395.276	354.44
395.723	342.74
396.169	338.06
396.616	284.23
397.062	333.38
397.508	335.72
397.954	274.87
398.401	319.34
398.847	333.38
399.293	265.5
399.739	349.76
400.185	324.02
400.631	342.74
401.076	354.44
401.522	300.61
401.968	324.02
402.414	331.04
402.859	232.74
403.305	363.81
403.75	333.38
404.196	391.89
404.641	239.76
405.086	312.32
405.532	335.72
405.977	298.27
406.422	321.68
406.867	391.89
407.312	356.79
407.757	373.17
408.202	377.85
408.647	342.74
409.092	317
409.537	342.74
409.982	335.72
410.426	309.97
410.871	312.32
411.316	368.49
411.76	326.36
412.205	312.32
412.649	309.97
413.093	267.85
413.538	328.7
413.982	317
414.426	277.21
414.87	356.79
415.314	335.72
415.758	324.02
416.202	317
416.646	373.17
417.09	356.79
417.534	405.94
417.978	284.23
418.421	359.13
418.865	270.19
419.309	291.25
419.752	305.29
420.196	300.61
420.639	300.61
421.083	256.14
421.526	328.7
421.969	354.44
422.412	352.1
422.856	408.28
423.299	324.02
423.742	291.25
424.185	307.63
424.628	317
425.071	345.08
425.513	354.44
425.956	309.97
426.399	298.27
426.842	312.32
427.284	302.95
427.727	405.94
428.169	370.83
428.612	312.32
429.054	324.02
429.497	347.42
429.939	309.97
430.381	326.36
430.823	347.42
431.265	335.72
431.707	347.42
432.149	319.34
432.591	331.04
433.033	398.92
433.475	331.04
433.917	352.1
434.359	286.57
434.8	328.7
435.242	335.72
435.684	300.61
436.125	354.44
436.567	312.32
437.008	305.29
437.449	359.13
437.891	356.79
438.332	326.36
438.773	347.42
439.214	340.4
439.656	361.47
440.097	333.38
440.538	251.46
440.978	300.61
441.419	338.06
441.86	354.44
442.301	321.68
442.742	293.59
443.182	389.55
443.623	347.42
444.063	298.27
444.504	314.66
444.944	342.74
445.385	265.5
445.825	309.97
446.265	321.68
446.706	312.32
447.146	349.76
447.586	295.93
448.026	342.74
448.466	352.1
448.906	370.83
449.346	286.57
449.786	340.4
450.225	284.23
450.665	321.68
451.105	387.21
451.544	307.63
451.984	314.66
452.424	342.74
452.863	267.85
453.302	342.74
453.742	349.76
454.181	307.63
454.62	302.95
455.059	349.76
455.499	274.87
455.938	309.97
456.377	279.55
456.816	352.1
457.254	300.61
457.693	384.87
458.132	328.7
458.571	307.63
459.01	326.36
459.448	263.16
459.887	366.15
460.325	328.7
460.764	354.44
461.202	293.59
461.641	309.97
462.079	328.7
462.517	277.21
462.955	373.17
463.393	328.7
463.832	342.74
464.27	356.79
464.708	298.27
465.145	415.3
465.583	314.66
466.021	405.94
466.459	253.8
466.897	335.72
467.334	309.97
467.772	368.49
468.209	281.89
468.647	300.61
469.084	335.72
469.522	375.51
469.959	328.7
470.396	319.34
470.833	314.66
471.271	298.27
471.708	300.61
472.145	338.06
472.582	328.7
473.019	335.72
473.456	317
473.892	328.7
474.329	328.7
474.766	338.06
475.202	293.59
475.639	368.49
476.076	333.38
476.512	333.38
476.949	370.83
477.385	314.66
477.821	375.51
478.258	326.36
478.694	321.68
479.13	345.08
479.566	345.08
480.002	356.79
480.438	331.04
480.874	366.15
481.31	270.19
481.746	284.23
482.181	366.15
482.617	309.97
483.053	291.25
483.488	307.63
483.924	366.15
484.36	347.42
484.795	333.38
485.23	389.55
485.666	349.76
486.101	319.34
486.536	300.61
486.971	419.98
487.407	368.49
487.842	370.83
488.277	319.34
488.712	319.34
489.146	298.27
489.581	361.47
490.016	321.68
490.451	291.25
490.885	338.06
491.32	288.91
491.755	279.55
492.189	338.06
492.624	286.57
493.058	366.15
493.492	335.72
493.927	317
494.361	352.1
494.795	312.32
495.229	333.38
495.663	256.14
496.097	359.13
496.531	368.49
496.965	417.64
497.399	359.13
497.833	272.53
498.266	295.93
498.7	352.1
499.134	312.32
499.567	352.1
500.001	338.06
500.434	321.68
500.868	331.04
501.301	375.51
501.734	345.08
502.168	258.48
502.601	347.42
503.034	347.42
503.467	286.57
503.9	340.4
504.333	405.94
504.766	342.74
505.199	328.7
505.632	317
506.064	366.15
506.497	281.89
506.93	307.63
507.362	361.47
507.795	373.17
508.227	291.25
508.66	333.38
509.092	354.44
509.524	293.59
509.956	354.44
510.389	347.42
510.821	345.08
511.253	293.59
511.685	225.72
512.117	335.72
512.549	394.23
512.981	326.36
513.412	314.66
513.844	352.1
514.276	335.72
514.707	314.66
515.139	321.68
515.571	349.76
516.002	354.44
516.433	335.72
516.865	274.87
517.296	347.42
517.727	309.97
518.159	382.53
518.59	345.08
519.021	352.1
519.452	324.02
519.883	291.25
520.314	340.4
520.744	274.87
521.175	345.08
521.606	298.27
522.037	295.93
522.467	328.7
522.898	314.66
523.328	359.13
523.759	354.44
524.189	335.72
524.62	338.06
525.05	387.21
525.48	305.29
525.91	340.4
526.341	298.27
526.771	309.97
527.201	281.89
527.631	340.4
528.061	309.97
528.49	293.59
528.92	361.47
529.35	328.7
529.78	328.7
530.209	263.16
530.639	309.97
531.068	312.32
531.498	319.34
531.927	356.79
532.357	342.74
532.786	281.89
533.215	394.23
533.644	305.29
534.074	324.02
534.503	340.4
534.932	286.57
535.361	324.02
535.79	331.04
536.218	349.76
536.647	305.29
537.076	340.4
537.505	363.81
537.933	342.74
538.362	272.53
538.79	354.44
539.219	361.47
539.647	340.4
540.076	354.44
540.504	324.02
540.932	317
541.36	260.82
541.788	328.7
542.217	326.36
542.645	326.36
543.073	373.17
543.5	368.49
543.928	342.74
544.356	326.36
544.784	326.36
545.211	326.36
545.639	300.61
546.067	326.36
546.494	373.17
546.922	293.59
547.349	307.63
547.776	342.74
548.204	307.63
548.631	354.44
549.058	352.1
549.485	373.17
549.912	317
550.339	321.68
550.766	317
551.193	331.04
551.62	335.72
552.047	335.72
552.474	309.97
552.9	321.68
553.327	333.38
553.754	363.81
554.18	349.76
554.607	361.47
555.033	272.53
555.459	335.72
555.886	363.81
556.312	389.55
556.738	335.72
557.164	408.28
557.59	302.95
558.016	373.17
558.442	288.91
558.868	260.82
559.294	335.72
559.72	356.79
560.145	373.17
560.571	265.5
560.997	302.95
561.422	373.17
561.848	295.93
562.273	293.59
562.699	342.74
563.124	347.42
563.549	298.27
563.974	401.26
564.4	338.06
564.825	321.68
565.25	342.74
565.675	312.32
566.1	260.82
566.525	342.74
566.95	319.34
567.374	391.89
567.799	361.47
568.224	312.32
568.648	317
569.073	319.34
569.497	326.36
569.922	293.59
570.346	333.38
570.771	354.44
571.195	347.42
571.619	288.91
572.043	267.85
572.467	284.23
572.891	321.68
573.315	258.48
573.739	307.63
574.163	349.76
574.587	342.74
575.011	333.38
575.435	302.95
575.858	288.91
576.282	295.93
576.705	279.55
577.129	391.89
577.552	380.19
577.976	317
578.399	368.49
578.822	340.4
579.245	396.57
579.669	331.04
580.092	345.08
580.515	305.29
580.938	324.02
581.361	314.66
581.784	370.83
582.206	312.32
582.629	401.26
583.052	349.76
583.474	288.91
583.897	401.26
584.32	333.38
584.742	326.36
585.165	314.66
585.587	307.63
586.009	293.59
586.431	373.17
586.854	410.62
587.276	326.36
587.698	377.85
588.12	356.79
588.542	302.95
588.964	354.44
589.386	321.68
589.807	291.25
590.229	328.7
590.651	370.83
591.073	317
591.494	272.53
591.916	314.66
592.337	338.06
592.759	368.49
593.18	373.17
593.601	366.15
594.022	345.08
594.444	239.76
594.865	389.55
595.286	302.95
595.707	342.74
596.128	382.53
596.549	340.4
596.97	387.21
597.39	300.61
597.811	293.59
598.232	293.59
598.652	333.38
599.073	324.02
599.494	347.42
599.914	328.7
600.334	300.61
600.755	373.17
601.175	363.81
601.595	384.87
602.015	314.66
602.436	342.74
602.856	457.43
603.276	377.85
603.696	314.66
604.115	293.59
604.535	340.4
604.955	335.72
605.375	333.38
605.794	326.36
606.214	328.7
606.634	319.34
607.053	373.17
607.473	363.81
607.892	349.76
608.311	375.51
608.731	389.55
609.15	331.04
609.569	405.94
609.988	300.61
610.407	319.34
610.826	317
611.245	314.66
611.664	352.1
612.083	291.25
612.501	338.06
612.92	354.44
613.339	377.85
613.757	298.27
614.176	286.57
614.594	309.97
615.013	340.4
615.431	309.97
615.85	377.85
616.268	232.74
616.686	272.53
617.104	361.47
617.522	272.53
617.94	286.57
618.358	326.36
618.776	295.93
619.194	302.95
619.612	370.83
620.03	312.32
620.447	340.4
620.865	331.04
621.282	272.53
621.7	368.49
622.117	267.85
622.535	361.47
622.952	328.7
623.369	333.38
623.787	305.29
624.204	312.32
624.621	340.4
625.038	295.93
625.455	321.68
625.872	317
626.289	319.34
626.706	338.06
627.123	321.68
627.539	370.83
627.956	377.85
628.373	366.15
628.789	314.66
629.206	272.53
629.622	307.63
630.038	328.7
630.455	295.93
630.871	335.72
631.287	338.06
631.703	321.68
632.12	277.21
632.536	363.81
632.952	326.36
633.368	361.47
633.783	328.7
634.199	298.27
634.615	354.44
635.031	321.68
635.446	284.23
635.862	342.74
636.277	321.68
636.693	396.57
637.108	295.93
637.524	361.47
637.939	288.91
638.354	324.02
638.77	300.61
639.185	349.76
639.6	302.95
640.015	317
640.43	335.72
640.845	384.87
641.259	370.83
641.674	300.61
642.089	321.68
642.504	363.81
642.918	375.51
643.333	307.63
643.747	352.1
644.162	380.19
644.576	284.23
644.991	342.74
645.405	317
645.819	288.91
646.233	317
646.647	384.87
647.061	377.85
647.475	410.62
647.889	331.04
648.303	265.5
648.717	347.42
649.131	347.42
649.545	293.59
649.958	295.93
650.372	361.47
650.785	319.34
651.199	324.02
651.612	324.02
652.026	270.19
652.439	284.23
652.852	324.02
653.266	321.68
653.679	359.13
654.092	260.82
654.505	249.12
654.918	312.32
655.331	286.57
655.744	300.61
656.156	284.23
656.569	288.91
656.982	324.02
657.394	279.55
657.807	328.7
658.22	342.74
658.632	298.27
659.044	274.87
659.457	312.32
659.869	389.55
660.281	373.17
660.693	326.36
661.106	356.79
661.518	347.42
661.93	345.08
662.342	387.21
662.754	298.27
663.165	352.1
663.577	309.97
663.989	391.89
664.401	324.02
664.812	396.57
665.224	335.72
665.635	342.74
666.047	293.59
666.458	331.04
666.869	366.15
667.281	298.27
667.692	363.81
668.103	342.74
668.514	338.06
668.925	333.38
669.336	321.68
669.747	359.13
670.158	293.59
670.569	291.25
670.979	270.19
671.39	342.74
671.801	347.42
672.211	352.1
672.622	370.83
673.032	354.44
673.443	298.27
673.853	286.57
674.263	382.53
674.674	391.89
675.084	345.08
675.494	331.04
675.904	340.4
676.314	331.04
676.724	265.5
677.134	387.21
677.544	319.34
677.953	352.1
678.363	281.89
678.773	342.74
679.182	338.06
679.592	324.02
680.001	321.68
680.411	309.97
680.82	317
681.23	286.57
681.639	279.55
682.048	300.61
682.457	342.74
682.866	335.72
683.275	279.55
683.684	382.53
684.093	295.93
684.502	340.4
684.911	321.68
685.32	312.32
685.728	279.55
686.137	307.63
686.546	389.55
686.954	291.25
687.363	295.93
687.771	349.76
688.179	321.68
688.588	312.32
688.996	300.61
689.404	317
689.812	314.66
690.22	235.08
690.628	263.16
691.036	319.34
691.444	335.72
691.852	326.36
692.26	356.79
692.667	249.12
693.075	314.66
693.483	293.59
693.89	359.13
694.298	328.7
694.705	274.87
695.112	349.76
695.52	328.7
695.927	328.7
696.334	389.55
696.741	347.42
697.148	314.66
697.555	412.96
697.962	314.66
698.369	349.76
698.776	291.25
699.183	345.08
699.59	338.06
699.996	368.49
700.403	328.7
700.81	328.7
701.216	326.36
701.623	324.02
702.029	305.29
702.435	398.92
702.842	309.97
703.248	321.68
703.654	307.63
704.06	345.08
704.466	345.08
704.872	333.38
705.278	272.53
705.684	307.63
706.09	331.04
706.496	274.87
706.901	349.76
707.307	347.42
707.712	391.89
708.118	333.38
708.523	277.21
708.929	342.74
709.334	328.7
709.74	279.55
710.145	256.14
710.55	302.95
710.955	331.04
711.36	267.85
711.765	312.32
712.17	253.8
712.575	295.93
712.98	721.91
713.385	312.32
713.789	314.66
714.194	272.53
714.599	307.63
715.003	375.51
715.408	314.66
715.812	349.76
716.217	333.38
716.621	312.32
717.025	319.34
717.429	340.4
717.833	314.66
718.238	302.95
718.642	342.74
719.046	328.7
719.449	361.47
719.853	293.59
720.257	309.97
720.661	335.72
721.065	342.74
721.468	354.44
721.872	370.83
722.275	314.66
722.679	335.72
723.082	373.17
723.485	302.95
723.889	340.4
724.292	321.68
724.695	302.95
725.098	359.13
725.501	281.89
725.904	352.1
726.307	309.97
726.71	375.51
727.113	286.57
727.516	309.97
727.918	312.32
728.321	319.34
728.724	281.89
729.126	354.44
729.529	305.29
729.931	356.79
730.333	291.25
730.736	267.85
731.138	354.44
731.54	373.17
731.942	324.02
732.344	319.34
732.746	321.68
733.148	284.23
733.55	279.55
733.952	326.36
734.354	342.74
734.756	272.53
735.157	305.29
735.559	326.36
735.96	345.08
736.362	317
736.763	305.29
737.165	331.04
737.566	298.27
737.967	265.5
738.368	302.95
738.77	288.91
739.171	263.16
739.572	288.91
739.973	366.15
740.374	328.7
740.774	317
741.175	394.23
741.576	293.59
741.977	281.89
742.377	328.7
742.778	349.76
743.178	338.06
743.579	403.6
743.979	361.47
744.379	352.1
744.78	281.89
745.18	295.93
745.58	370.83
745.98	321.68
746.38	307.63
746.78	309.97
747.18	307.63
747.58	373.17
747.98	324.02
748.38	302.95
748.779	309.97
749.179	317
749.578	354.44
749.978	363.81
750.377	267.85
750.777	319.34
751.176	363.81
751.575	317
751.975	270.19
752.374	335.72
752.773	347.42
753.172	312.32
753.571	270.19
753.97	345.08
754.369	298.27
754.768	342.74
755.166	361.47
755.565	331.04
755.964	359.13
756.362	345.08
756.761	302.95
757.159	340.4
757.558	384.87
757.956	305.29
758.354	284.23
758.753	300.61
759.151	324.02
759.549	328.7
759.947	335.72
760.345	380.19
760.743	347.42
761.141	307.63
761.539	356.79
761.936	331.04
762.334	260.82
762.732	281.89
763.129	377.85
763.527	352.1
763.924	314.66
764.322	293.59
764.719	356.79
765.117	295.93
765.514	345.08
765.911	373.17
766.308	338.06
766.705	291.25
767.102	429.34
767.499	317
