Data from Al_FLMS009871__966__16-20-57-719.txt Node

Date: Fri Mar 08 16:20:57 CST 2024
User: pe5414po
Spectrometer: FLMS00987
Trigger mode: 0
Integration Time (sec): 1.000000E-1
Scans to average: 1
Electric dark correction enabled: true
Nonlinearity correction enabled: false
Boxcar width: 0
XAxis mode: Wavelengths
Number of Pixels in Spectrum: 2048
>>>>>Begin Spectral Data<<<<<
188.938	-79.87
189.409	-79.87
189.879	-79.87
190.349	-56.47
190.819	-89.23
191.29	-103.28
191.76	-96.25
192.23	-63.49
192.7	-105.62
193.17	-14.34
193.64	-30.72
194.109	69.92
194.579	-7.31
195.049	18.43
195.519	32.47
195.988	-28.38
196.458	-4.97
196.927	44.18
197.397	25.45
197.866	140.14
198.336	123.76
198.805	144.82
199.274	135.46
199.744	135.46
200.213	184.61
200.682	278.23
201.151	200.99
201.62	215.04
202.089	182.27
202.558	200.99
203.027	247.8
203.495	327.38
203.964	259.51
204.433	243.12
204.902	303.98
205.37	257.17
205.839	301.64
206.307	299.3
206.776	306.32
207.244	215.04
207.712	313.34
208.181	306.32
208.649	278.23
209.117	289.93
209.585	250.14
210.053	303.98
210.521	252.49
210.989	224.4
211.457	292.27
211.925	257.17
212.393	327.38
212.861	329.72
213.328	268.87
213.796	287.59
214.264	271.21
214.731	222.06
215.199	306.32
215.666	327.38
216.133	308.66
216.601	306.32
217.068	224.4
217.535	271.21
218.003	287.59
218.47	282.91
218.937	294.61
219.404	203.33
219.871	217.38
220.338	318.02
220.805	311
221.271	294.61
221.738	229.08
222.205	175.25
222.671	179.93
223.138	273.55
223.605	271.21
224.071	266.53
224.538	252.49
225.004	320.36
225.47	282.91
225.937	264.19
226.403	210.36
226.869	282.91
227.335	245.46
227.801	254.83
228.267	236.1
228.733	289.93
229.199	193.97
229.665	367.17
230.131	217.38
230.597	296.96
231.062	222.06
231.528	238.44
231.994	231.42
232.459	278.23
232.925	285.25
233.39	313.34
233.856	303.98
234.321	266.53
234.786	280.57
235.252	215.04
235.717	275.89
236.182	280.57
236.647	275.89
237.112	254.83
237.577	292.27
238.042	238.44
238.507	292.27
238.972	224.4
239.436	250.14
239.901	273.55
240.366	261.85
240.83	254.83
241.295	240.78
241.76	313.34
242.224	311
242.688	273.55
243.153	311
243.617	233.76
244.081	243.12
244.545	264.19
245.01	259.51
245.474	250.14
245.938	254.83
246.402	282.91
246.866	268.87
247.33	294.61
247.793	280.57
248.257	282.91
248.721	282.91
249.185	280.57
249.648	289.93
250.112	301.64
250.575	254.83
251.039	315.68
251.502	278.23
251.965	315.68
252.429	320.36
252.892	287.59
253.355	294.61
253.818	346.11
254.281	299.3
254.744	301.64
255.207	247.8
255.67	238.44
256.133	292.27
256.596	259.51
257.059	311
257.522	257.17
257.984	243.12
258.447	231.42
258.909	294.61
259.372	311
259.834	243.12
260.297	339.09
260.759	299.3
261.221	303.98
261.684	334.4
262.146	259.51
262.608	278.23
263.07	245.46
263.532	261.85
263.994	289.93
264.456	332.06
264.918	303.98
265.38	306.32
265.842	250.14
266.303	264.19
266.765	233.76
267.227	285.25
267.688	275.89
268.15	266.53
268.611	278.23
269.072	245.46
269.534	224.4
269.995	285.25
270.456	275.89
270.918	308.66
271.379	306.32
271.84	334.4
272.301	350.79
272.762	280.57
273.223	278.23
273.684	313.34
274.144	247.8
274.605	285.25
275.066	343.77
275.527	303.98
275.987	261.85
276.448	257.17
276.908	275.89
277.369	271.21
277.829	285.25
278.289	306.32
278.75	243.12
279.21	322.7
279.67	287.59
280.13	280.57
280.59	294.61
281.05	311
281.51	318.02
281.97	261.85
282.43	287.59
282.89	303.98
283.35	273.55
283.809	311
284.269	325.04
284.729	224.4
285.188	280.57
285.648	273.55
286.107	306.32
286.567	327.38
287.026	273.55
287.485	311
287.944	320.36
288.404	327.38
288.863	292.27
289.322	264.19
289.781	348.45
290.24	282.91
290.699	292.27
291.158	306.32
291.616	301.64
292.075	287.59
292.534	278.23
292.992	334.4
293.451	224.4
293.91	268.87
294.368	308.66
294.827	299.3
295.285	299.3
295.743	315.68
296.202	275.89
296.66	282.91
297.118	311
297.576	306.32
298.034	243.12
298.492	318.02
298.95	348.45
299.408	226.74
299.866	346.11
300.324	348.45
300.781	254.83
301.239	268.87
301.697	320.36
302.154	315.68
302.612	282.91
303.069	315.68
303.527	332.06
303.984	329.72
304.441	341.43
304.899	311
305.356	332.06
305.813	332.06
306.27	278.23
306.727	299.3
307.184	315.68
307.641	299.3
308.098	308.66
308.555	280.57
309.012	287.59
309.468	318.02
309.925	320.36
310.382	282.91
310.838	301.64
311.295	350.79
311.751	254.83
312.208	240.78
312.664	343.77
313.12	296.96
313.577	383.56
314.033	357.81
314.489	271.21
314.945	313.34
315.401	294.61
315.857	329.72
316.313	315.68
316.769	296.96
317.225	318.02
317.681	313.34
318.136	348.45
318.592	350.79
319.048	294.61
319.503	273.55
319.959	289.93
320.414	315.68
320.869	299.3
321.325	332.06
321.78	264.19
322.235	334.4
322.691	289.93
323.146	278.23
323.601	350.79
324.056	268.87
324.511	294.61
324.966	278.23
325.421	303.98
325.875	346.11
326.33	289.93
326.785	308.66
327.24	318.02
327.694	280.57
328.149	240.78
328.603	353.13
329.058	320.36
329.512	376.53
329.966	278.23
330.421	271.21
330.875	355.47
331.329	278.23
331.783	296.96
332.237	303.98
332.691	306.32
333.145	296.96
333.599	299.3
334.053	322.7
334.507	261.85
334.96	327.38
335.414	374.19
335.868	259.51
336.321	322.7
336.775	268.87
337.228	301.64
337.682	301.64
338.135	303.98
338.588	294.61
339.042	308.66
339.495	325.04
339.948	282.91
340.401	252.49
340.854	327.38
341.307	282.91
341.76	303.98
342.213	259.51
342.666	348.45
343.119	339.09
343.571	250.14
344.024	308.66
344.477	341.43
344.929	357.81
345.382	306.32
345.834	322.7
346.287	343.77
346.739	313.34
347.191	306.32
347.644	332.06
348.096	271.21
348.548	275.89
349	318.02
349.452	308.66
349.904	229.08
350.356	301.64
350.808	350.79
351.26	320.36
351.711	315.68
352.163	294.61
352.615	301.64
353.066	294.61
353.518	311
353.969	383.56
354.421	332.06
354.872	343.77
355.324	341.43
355.775	282.91
356.226	315.68
356.677	327.38
357.128	383.56
357.579	327.38
358.03	296.96
358.481	355.47
358.932	390.58
359.383	254.83
359.834	254.83
360.285	308.66
360.735	334.4
361.186	313.34
361.637	268.87
362.087	320.36
362.538	292.27
362.988	318.02
363.438	341.43
363.889	299.3
364.339	339.09
364.789	306.32
365.239	306.32
365.689	275.89
366.139	339.09
366.589	296.96
367.039	374.19
367.489	360.15
367.939	294.61
368.389	292.27
368.839	247.8
369.288	325.04
369.738	327.38
370.187	322.7
370.637	250.14
371.086	313.34
371.536	397.6
371.985	231.42
372.434	322.7
372.884	275.89
373.333	247.8
373.782	308.66
374.231	336.74
374.68	271.21
375.129	313.34
375.578	257.17
376.027	268.87
376.475	320.36
376.924	306.32
377.373	332.06
377.822	355.47
378.27	299.3
378.719	273.55
379.167	233.76
379.616	346.11
380.064	320.36
380.512	273.55
380.961	315.68
381.409	320.36
381.857	311
382.305	367.17
382.753	264.19
383.201	336.74
383.649	343.77
384.097	278.23
384.545	250.14
384.992	334.4
385.44	334.4
385.888	294.61
386.335	350.79
386.783	252.49
387.231	261.85
387.678	289.93
388.125	285.25
388.573	266.53
389.02	301.64
389.467	329.72
389.914	311
390.362	299.3
390.809	266.53
391.256	367.17
391.703	273.55
392.15	371.85
392.596	292.27
393.043	327.38
393.49	362.49
393.937	268.87
394.383	247.8
394.83	264.19
395.276	339.09
395.723	252.49
396.169	252.49
396.616	285.25
397.062	343.77
397.508	250.14
397.954	306.32
398.401	325.04
398.847	299.3
399.293	369.51
399.739	266.53
400.185	336.74
400.631	303.98
401.076	282.91
401.522	308.66
401.968	318.02
402.414	292.27
402.859	318.02
403.305	329.72
403.75	296.96
404.196	306.32
404.641	343.77
405.086	296.96
405.532	259.51
405.977	346.11
406.422	322.7
406.867	285.25
407.312	275.89
407.757	308.66
408.202	311
408.647	322.7
409.092	289.93
409.537	327.38
409.982	282.91
410.426	282.91
410.871	294.61
411.316	282.91
411.76	287.59
412.205	301.64
412.649	264.19
413.093	336.74
413.538	259.51
413.982	266.53
414.426	353.13
414.87	311
415.314	339.09
415.758	313.34
416.202	289.93
416.646	299.3
417.09	315.68
417.534	325.04
417.978	285.25
418.421	357.81
418.865	245.46
419.309	289.93
419.752	332.06
420.196	336.74
420.639	306.32
421.083	301.64
421.526	306.32
421.969	332.06
422.412	320.36
422.856	322.7
423.299	296.96
423.742	303.98
424.185	303.98
424.628	315.68
425.071	360.15
425.513	261.85
425.956	308.66
426.399	299.3
426.842	383.56
427.284	313.34
427.727	278.23
428.169	325.04
428.612	287.59
429.054	353.13
429.497	294.61
429.939	308.66
430.381	238.44
430.823	275.89
431.265	322.7
431.707	327.38
432.149	245.46
432.591	355.47
433.033	308.66
433.475	332.06
433.917	348.45
434.359	339.09
434.8	339.09
435.242	325.04
435.684	266.53
436.125	381.21
436.567	348.45
437.008	343.77
437.449	275.89
437.891	285.25
438.332	374.19
438.773	311
439.214	280.57
439.656	275.89
440.097	355.47
440.538	292.27
440.978	278.23
441.419	268.87
441.86	322.7
442.301	306.32
442.742	348.45
443.182	406.96
443.623	261.85
444.063	261.85
444.504	341.43
444.944	296.96
445.385	275.89
445.825	371.85
446.265	343.77
446.706	280.57
447.146	261.85
447.586	341.43
448.026	275.89
448.466	341.43
448.906	334.4
449.346	268.87
449.786	308.66
450.225	299.3
450.665	299.3
451.105	285.25
451.544	397.6
451.984	348.45
452.424	325.04
452.863	226.74
453.302	275.89
453.742	271.21
454.181	311
454.62	350.79
455.059	399.94
455.499	346.11
455.938	292.27
456.377	315.68
456.816	303.98
457.254	299.3
457.693	306.32
458.132	278.23
458.571	355.47
459.01	289.93
459.448	296.96
459.887	257.17
460.325	247.8
460.764	315.68
461.202	287.59
461.641	327.38
462.079	355.47
462.517	313.34
462.955	322.7
463.393	303.98
463.832	329.72
464.27	301.64
464.708	369.51
465.145	261.85
465.583	322.7
466.021	301.64
466.459	278.23
466.897	280.57
467.334	367.17
467.772	243.12
468.209	339.09
468.647	322.7
469.084	320.36
469.522	325.04
469.959	296.96
470.396	301.64
470.833	336.74
471.271	278.23
471.708	322.7
472.145	346.11
472.582	325.04
473.019	306.32
473.456	313.34
473.892	313.34
474.329	329.72
474.766	299.3
475.202	229.08
475.639	294.61
476.076	332.06
476.512	315.68
476.949	339.09
477.385	257.17
477.821	271.21
478.258	369.51
478.694	271.21
479.13	250.14
479.566	336.74
480.002	357.81
480.438	322.7
480.874	320.36
481.31	238.44
481.746	254.83
482.181	282.91
482.617	271.21
483.053	325.04
483.488	299.3
483.924	287.59
484.36	315.68
484.795	311
485.23	303.98
485.666	353.13
486.101	355.47
486.536	294.61
486.971	395.26
487.407	341.43
487.842	322.7
488.277	287.59
488.712	341.43
489.146	325.04
489.581	289.93
490.016	318.02
490.451	243.12
490.885	322.7
491.32	322.7
491.755	320.36
492.189	334.4
492.624	334.4
493.058	336.74
493.492	322.7
493.927	292.27
494.361	271.21
494.795	280.57
495.229	254.83
495.663	374.19
496.097	376.53
496.531	240.78
496.965	334.4
497.399	320.36
497.833	315.68
498.266	376.53
498.7	289.93
499.134	350.79
499.567	296.96
500.001	350.79
500.434	287.59
500.868	259.51
501.301	289.93
501.734	346.11
502.168	299.3
502.601	289.93
503.034	243.12
503.467	231.42
503.9	311
504.333	343.77
504.766	282.91
505.199	329.72
505.632	252.49
506.064	296.96
506.497	294.61
506.93	282.91
507.362	339.09
507.795	296.96
508.227	280.57
508.66	299.3
509.092	287.59
509.524	296.96
509.956	374.19
510.389	376.53
510.821	353.13
511.253	285.25
511.685	303.98
512.117	311
512.549	273.55
512.981	303.98
513.412	355.47
513.844	275.89
514.276	325.04
514.707	329.72
515.139	341.43
515.571	296.96
516.002	247.8
516.433	327.38
516.865	296.96
517.296	280.57
517.727	327.38
518.159	346.11
518.59	311
519.021	266.53
519.452	301.64
519.883	334.4
520.314	245.46
520.744	306.32
521.175	257.17
521.606	334.4
522.037	322.7
522.467	311
522.898	336.74
523.328	369.51
523.759	233.76
524.189	289.93
524.62	292.27
525.05	282.91
525.48	322.7
525.91	296.96
526.341	264.19
526.771	296.96
527.201	301.64
527.631	257.17
528.061	289.93
528.49	268.87
528.92	346.11
529.35	343.77
529.78	350.79
530.209	325.04
530.639	308.66
531.068	259.51
531.498	233.76
531.927	257.17
532.357	313.34
532.786	292.27
533.215	346.11
533.644	301.64
534.074	313.34
534.503	346.11
534.932	353.13
535.361	278.23
535.79	282.91
536.218	308.66
536.647	343.77
537.076	350.79
537.505	294.61
537.933	334.4
538.362	306.32
538.79	378.87
539.219	299.3
539.647	360.15
540.076	322.7
540.504	346.11
540.932	313.34
541.36	325.04
541.788	261.85
542.217	308.66
542.645	278.23
543.073	332.06
543.5	266.53
543.928	357.81
544.356	325.04
544.784	252.49
545.211	271.21
545.639	313.34
546.067	320.36
546.494	313.34
546.922	278.23
547.349	357.81
547.776	318.02
548.204	329.72
548.631	341.43
549.058	336.74
549.485	404.62
549.912	282.91
550.339	311
550.766	327.38
551.193	311
551.62	315.68
552.047	376.53
552.474	315.68
552.9	315.68
553.327	306.32
553.754	327.38
554.18	287.59
554.607	336.74
555.033	271.21
555.459	336.74
555.886	334.4
556.312	224.4
556.738	236.1
557.164	250.14
557.59	296.96
558.016	369.51
558.442	329.72
558.868	301.64
559.294	313.34
559.72	364.83
560.145	383.56
560.571	367.17
560.997	287.59
561.422	280.57
561.848	353.13
562.273	301.64
562.699	240.78
563.124	275.89
563.549	367.17
563.974	313.34
564.4	264.19
564.825	303.98
565.25	303.98
565.675	236.1
566.1	271.21
566.525	301.64
566.95	294.61
567.374	294.61
567.799	362.49
568.224	306.32
568.648	357.81
569.073	318.02
569.497	318.02
569.922	303.98
570.346	388.24
570.771	329.72
571.195	287.59
571.619	268.87
572.043	303.98
572.467	318.02
572.891	320.36
573.315	336.74
573.739	322.7
574.163	322.7
574.587	292.27
575.011	339.09
575.435	334.4
575.858	275.89
576.282	341.43
576.705	278.23
577.129	343.77
577.552	355.47
577.976	341.43
578.399	303.98
578.822	313.34
579.245	406.96
579.669	334.4
580.092	299.3
580.515	355.47
580.938	271.21
581.361	332.06
581.784	275.89
582.206	250.14
582.629	315.68
583.052	343.77
583.474	285.25
583.897	327.38
584.32	294.61
584.742	289.93
585.165	266.53
585.587	341.43
586.009	348.45
586.431	271.21
586.854	353.13
587.276	327.38
587.698	289.93
588.12	296.96
588.542	264.19
588.964	383.56
589.386	325.04
589.807	362.49
590.229	350.79
590.651	334.4
591.073	259.51
591.494	303.98
591.916	289.93
592.337	336.74
592.759	261.85
593.18	341.43
593.601	346.11
594.022	325.04
594.444	353.13
594.865	348.45
595.286	364.83
595.707	315.68
596.128	318.02
596.549	327.38
596.97	329.72
597.39	320.36
597.811	261.85
598.232	282.91
598.652	301.64
599.073	381.21
599.494	306.32
599.914	348.45
600.334	273.55
600.755	339.09
601.175	360.15
601.595	303.98
602.015	371.85
602.436	334.4
602.856	423.34
603.276	350.79
603.696	243.12
604.115	327.38
604.535	285.25
604.955	348.45
605.375	346.11
605.794	282.91
606.214	315.68
606.634	299.3
607.053	320.36
607.473	301.64
607.892	348.45
608.311	303.98
608.731	315.68
609.15	282.91
609.569	315.68
609.988	325.04
610.407	247.8
610.826	285.25
611.245	278.23
611.664	327.38
612.083	332.06
612.501	327.38
612.92	313.34
613.339	327.38
613.757	301.64
614.176	374.19
614.594	236.1
615.013	294.61
615.431	287.59
615.85	311
616.268	292.27
616.686	296.96
617.104	308.66
617.522	229.08
617.94	306.32
618.358	273.55
618.776	243.12
619.194	320.36
619.612	313.34
620.03	308.66
620.447	311
620.865	306.32
621.282	292.27
621.7	238.44
622.117	296.96
622.535	306.32
622.952	318.02
623.369	315.68
623.787	271.21
624.204	294.61
624.621	313.34
625.038	311
625.455	378.87
625.872	329.72
626.289	289.93
626.706	313.34
627.123	254.83
627.539	327.38
627.956	250.14
628.373	353.13
628.789	285.25
629.206	357.81
629.622	301.64
630.038	355.47
630.455	346.11
630.871	313.34
631.287	339.09
631.703	287.59
632.12	268.87
632.536	208.02
632.952	322.7
633.368	371.85
633.783	308.66
634.199	336.74
634.615	292.27
635.031	322.7
635.446	299.3
635.862	329.72
636.277	301.64
636.693	339.09
637.108	289.93
637.524	343.77
637.939	343.77
638.354	334.4
638.77	250.14
639.185	334.4
639.6	327.38
640.015	313.34
640.43	336.74
640.845	322.7
641.259	299.3
641.674	292.27
642.089	299.3
642.504	301.64
642.918	280.57
643.333	371.85
643.747	259.51
644.162	268.87
644.576	301.64
644.991	292.27
645.405	219.72
645.819	280.57
646.233	327.38
646.647	334.4
647.061	371.85
647.475	294.61
647.889	292.27
648.303	282.91
648.717	275.89
649.131	327.38
649.545	294.61
649.958	362.49
650.372	306.32
650.785	374.19
651.199	353.13
651.612	252.49
652.026	280.57
652.439	275.89
652.852	315.68
653.266	360.15
653.679	306.32
654.092	315.68
654.505	271.21
654.918	346.11
655.331	271.21
655.744	308.66
656.156	369.51
656.569	353.13
656.982	325.04
657.394	250.14
657.807	282.91
658.22	271.21
658.632	313.34
659.044	271.21
659.457	285.25
659.869	315.68
660.281	320.36
660.693	275.89
661.106	273.55
661.518	308.66
661.93	350.79
662.342	315.68
662.754	318.02
663.165	273.55
663.577	334.4
663.989	322.7
664.401	322.7
664.812	301.64
665.224	287.59
665.635	275.89
666.047	322.7
666.458	355.47
666.869	306.32
667.281	313.34
667.692	261.85
668.103	280.57
668.514	250.14
668.925	289.93
669.336	299.3
669.747	367.17
670.158	259.51
670.569	318.02
670.979	282.91
671.39	306.32
671.801	339.09
672.211	332.06
672.622	320.36
673.032	325.04
673.443	332.06
673.853	353.13
674.263	336.74
674.674	311
675.084	378.87
675.494	275.89
675.904	327.38
676.314	348.45
676.724	311
677.134	294.61
677.544	196.31
677.953	329.72
678.363	311
678.773	334.4
679.182	332.06
679.592	320.36
680.001	292.27
680.411	311
680.82	280.57
681.23	285.25
681.639	259.51
682.048	278.23
682.457	395.26
682.866	259.51
683.275	332.06
683.684	313.34
684.093	252.49
684.502	287.59
684.911	299.3
685.32	266.53
685.728	275.89
686.137	315.68
686.546	308.66
686.954	329.72
687.363	350.79
687.771	313.34
688.179	322.7
688.588	311
688.996	353.13
689.404	303.98
689.812	299.3
690.22	360.15
690.628	296.96
691.036	322.7
691.444	285.25
691.852	329.72
692.26	299.3
692.667	275.89
693.075	285.25
693.483	299.3
693.89	306.32
694.298	325.04
694.705	289.93
695.112	294.61
695.52	306.32
695.927	303.98
696.334	308.66
696.741	343.77
697.148	285.25
697.555	266.53
697.962	318.02
698.369	301.64
698.776	336.74
699.183	252.49
699.59	318.02
699.996	268.87
700.403	339.09
700.81	334.4
701.216	287.59
701.623	339.09
702.029	313.34
702.435	311
702.842	355.47
703.248	299.3
703.654	376.53
704.06	299.3
704.466	329.72
704.872	268.87
705.278	315.68
705.684	357.81
706.09	292.27
706.496	306.32
706.901	257.17
707.307	266.53
707.712	296.96
708.118	329.72
708.523	318.02
708.929	238.44
709.334	336.74
709.74	303.98
710.145	282.91
710.55	292.27
710.955	336.74
711.36	325.04
711.765	233.76
712.17	353.13
712.575	264.19
712.98	751.02
713.385	280.57
713.789	325.04
714.194	266.53
714.599	311
715.003	287.59
715.408	320.36
715.812	229.08
716.217	360.15
716.621	292.27
717.025	313.34
717.429	325.04
717.833	243.12
718.238	364.83
718.642	296.96
719.046	294.61
719.449	299.3
719.853	334.4
720.257	334.4
720.661	261.85
721.065	285.25
721.468	306.32
721.872	318.02
722.275	322.7
722.679	362.49
723.082	332.06
723.485	299.3
723.889	339.09
724.292	303.98
724.695	322.7
725.098	346.11
725.501	311
725.904	348.45
726.307	364.83
726.71	280.57
727.113	362.49
727.516	339.09
727.918	343.77
728.321	320.36
728.724	301.64
729.126	308.66
729.529	311
729.931	327.38
730.333	282.91
730.736	282.91
731.138	339.09
731.54	339.09
731.942	306.32
732.344	287.59
732.746	325.04
733.148	348.45
733.55	296.96
733.952	318.02
734.354	341.43
734.756	313.34
735.157	329.72
735.559	233.76
735.96	306.32
736.362	364.83
736.763	266.53
737.165	296.96
737.566	357.81
737.967	341.43
738.368	301.64
738.77	224.4
739.171	289.93
739.572	367.17
739.973	336.74
740.374	292.27
740.774	315.68
741.175	334.4
741.576	222.06
741.977	250.14
742.377	311
742.778	275.89
743.178	313.34
743.579	308.66
743.979	374.19
744.379	343.77
744.78	318.02
745.18	280.57
745.58	325.04
745.98	320.36
746.38	271.21
746.78	339.09
747.18	287.59
747.58	280.57
747.98	306.32
748.38	273.55
748.779	292.27
749.179	355.47
749.578	306.32
749.978	266.53
750.377	222.06
750.777	282.91
751.176	371.85
751.575	318.02
751.975	280.57
752.374	261.85
752.773	334.4
753.172	327.38
753.571	273.55
753.97	282.91
754.369	301.64
754.768	299.3
755.166	311
755.565	296.96
755.964	240.78
756.362	311
756.761	325.04
757.159	278.23
757.558	252.49
757.956	322.7
758.354	343.77
758.753	369.51
759.151	294.61
759.549	325.04
759.947	299.3
760.345	303.98
760.743	364.83
761.141	322.7
761.539	294.61
761.936	273.55
762.334	299.3
762.732	315.68
763.129	280.57
763.527	252.49
763.924	226.74
764.322	306.32
764.719	285.25
765.117	254.83
765.514	311
765.911	311
766.308	327.38
766.705	318.02
767.102	311
767.499	315.68
767.896	320.36
768.293	395.26
