Data from Al_FLMS009871__961__16-20-57-219.txt Node

Date: Fri Mar 08 16:20:57 CST 2024
User: pe5414po
Spectrometer: FLMS00987
Trigger mode: 0
Integration Time (sec): 1.000000E-1
Scans to average: 1
Electric dark correction enabled: true
Nonlinearity correction enabled: false
Boxcar width: 0
XAxis mode: Wavelengths
Number of Pixels in Spectrum: 2048
>>>>>Begin Spectral Data<<<<<
188.938	-100.79
189.409	-100.79
189.879	-100.79
190.349	-103.13
190.819	-159.3
191.29	-77.38
191.76	-91.43
192.23	-98.45
192.7	-91.43
193.17	-77.38
193.64	-9.51
194.109	-68.02
194.579	-56.32
195.049	34.96
195.519	56.03
195.988	34.96
196.458	70.07
196.927	49
197.397	51.35
197.866	128.58
198.336	144.97
198.805	112.2
199.274	100.5
199.744	107.52
200.213	159.01
200.682	168.37
201.151	273.7
201.62	233.91
202.089	205.82
202.558	222.2
203.027	250.29
203.495	203.48
203.964	222.2
204.433	222.2
204.902	276.04
205.37	304.12
205.839	247.95
206.307	266.67
206.776	308.8
207.244	299.44
207.712	243.27
208.181	280.72
208.649	238.59
209.117	250.29
209.585	264.33
210.053	264.33
210.521	311.14
210.989	276.04
211.457	266.67
211.925	254.97
212.393	339.23
212.861	278.38
213.328	294.76
213.796	210.5
214.264	301.78
214.731	283.06
215.199	243.27
215.666	233.91
216.133	205.82
216.601	264.33
217.068	250.29
217.535	297.1
218.003	297.1
218.47	236.25
218.937	334.55
219.404	294.76
219.871	261.99
220.338	219.86
220.805	250.29
221.271	238.59
221.738	285.4
222.205	217.52
222.671	266.67
223.138	233.91
223.605	247.95
224.071	238.59
224.538	231.57
225.004	276.04
225.47	269.02
225.937	233.91
226.403	243.27
226.869	243.27
227.335	229.23
227.801	294.76
228.267	203.48
228.733	231.57
229.199	217.52
229.665	271.36
230.131	243.27
230.597	252.63
231.062	252.63
231.528	269.02
231.994	329.87
232.459	203.48
232.925	245.61
233.39	306.46
233.856	229.23
234.321	264.33
234.786	276.04
235.252	292.42
235.717	233.91
236.182	304.12
236.647	240.93
237.112	285.4
237.577	306.46
238.042	250.29
238.507	294.76
238.972	243.27
239.436	210.5
239.901	201.14
240.366	266.67
240.83	233.91
241.295	245.61
241.76	247.95
242.224	308.8
242.688	266.67
243.153	250.29
243.617	297.1
244.081	243.27
244.545	329.87
245.01	299.44
245.474	210.5
245.938	299.44
246.402	311.14
246.866	287.74
247.33	287.74
247.793	233.91
248.257	292.42
248.721	245.61
249.185	247.95
249.648	252.63
250.112	292.42
250.575	287.74
251.039	343.91
251.502	238.59
251.965	301.78
252.429	292.42
252.892	285.4
253.355	243.27
253.818	238.59
254.281	297.1
254.744	231.57
255.207	294.76
255.67	278.38
256.133	243.27
256.596	271.36
257.059	261.99
257.522	322.85
257.984	318.17
258.447	287.74
258.909	297.1
259.372	315.83
259.834	261.99
260.297	311.14
260.759	261.99
261.221	294.76
261.684	332.21
262.146	287.74
262.608	306.46
263.07	254.97
263.532	290.08
263.994	257.31
264.456	243.27
264.918	276.04
265.38	301.78
265.842	283.06
266.303	229.23
266.765	287.74
267.227	257.31
267.688	278.38
268.15	283.06
268.611	276.04
269.072	299.44
269.534	341.57
269.995	276.04
270.456	250.29
270.918	266.67
271.379	269.02
271.84	219.86
272.301	313.49
272.762	271.36
273.223	360.3
273.684	322.85
274.144	224.55
274.605	243.27
275.066	278.38
275.527	294.76
275.987	271.36
276.448	273.7
276.908	231.57
277.369	285.4
277.829	346.25
278.289	315.83
278.75	273.7
279.21	322.85
279.67	266.67
280.13	236.25
280.59	238.59
281.05	329.87
281.51	327.53
281.97	336.89
282.43	386.04
282.89	238.59
283.35	273.7
283.809	348.59
284.269	236.25
284.729	278.38
285.188	280.72
285.648	297.1
286.107	283.06
286.567	259.65
287.026	308.8
287.485	287.74
287.944	261.99
288.404	292.42
288.863	257.31
289.322	334.55
289.781	355.62
290.24	329.87
290.699	292.42
291.158	322.85
291.616	299.44
292.075	334.55
292.534	329.87
292.992	334.55
293.451	290.08
293.91	217.52
294.368	304.12
294.827	269.02
295.285	280.72
295.743	287.74
296.202	269.02
296.66	285.4
297.118	294.76
297.576	278.38
298.034	266.67
298.492	271.36
298.95	271.36
299.408	266.67
299.866	299.44
300.324	257.31
300.781	278.38
301.239	259.65
301.697	355.62
302.154	306.46
302.612	379.02
303.069	257.31
303.527	304.12
303.984	264.33
304.441	327.53
304.899	266.67
305.356	261.99
305.813	318.17
306.27	357.96
306.727	287.74
307.184	299.44
307.641	283.06
308.098	273.7
308.555	269.02
309.012	332.21
309.468	283.06
309.925	301.78
310.382	269.02
310.838	280.72
311.295	229.23
311.751	343.91
312.208	311.14
312.664	346.25
313.12	287.74
313.577	271.36
314.033	257.31
314.489	269.02
314.945	348.59
315.401	299.44
315.857	217.52
316.313	313.49
316.769	247.95
317.225	292.42
317.681	357.96
318.136	334.55
318.592	341.57
319.048	210.5
319.503	329.87
319.959	325.19
320.414	290.08
320.869	261.99
321.325	294.76
321.78	320.51
322.235	308.8
322.691	325.19
323.146	273.7
323.601	318.17
324.056	269.02
324.511	264.33
324.966	290.08
325.421	306.46
325.875	297.1
326.33	294.76
326.785	381.36
327.24	292.42
327.694	304.12
328.149	308.8
328.603	304.12
329.058	285.4
329.512	269.02
329.966	299.44
330.421	259.65
330.875	233.91
331.329	299.44
331.783	364.98
332.237	273.7
332.691	336.89
333.145	292.42
333.599	301.78
334.053	320.51
334.507	320.51
334.96	329.87
335.414	301.78
335.868	325.19
336.321	325.19
336.775	320.51
337.228	315.83
337.682	245.61
338.135	294.76
338.588	229.23
339.042	339.23
339.495	313.49
339.948	306.46
340.401	346.25
340.854	350.93
341.307	226.89
341.76	313.49
342.213	336.89
342.666	283.06
343.119	327.53
343.571	339.23
344.024	290.08
344.477	292.42
344.929	320.51
345.382	292.42
345.834	297.1
346.287	250.29
346.739	292.42
347.191	264.33
347.644	306.46
348.096	350.93
348.548	318.17
349	292.42
349.452	301.78
349.904	299.44
350.356	308.8
350.808	311.14
351.26	325.19
351.711	334.55
352.163	287.74
352.615	311.14
353.066	325.19
353.518	318.17
353.969	355.62
354.421	346.25
354.872	320.51
355.324	299.44
355.775	315.83
356.226	325.19
356.677	301.78
357.128	306.46
357.579	264.33
358.03	276.04
358.481	336.89
358.932	306.46
359.383	304.12
359.834	283.06
360.285	261.99
360.735	254.97
361.186	341.57
361.637	276.04
362.087	259.65
362.538	278.38
362.988	301.78
363.438	285.4
363.889	290.08
364.339	341.57
364.789	252.63
365.239	301.78
365.689	276.04
366.139	231.57
366.589	299.44
367.039	311.14
367.489	287.74
367.939	350.93
368.389	304.12
368.839	269.02
369.288	283.06
369.738	233.91
370.187	285.4
370.637	294.76
371.086	313.49
371.536	315.83
371.985	278.38
372.434	355.62
372.884	285.4
373.333	308.8
373.782	350.93
374.231	285.4
374.68	315.83
375.129	318.17
375.578	292.42
376.027	294.76
376.475	374.34
376.924	350.93
377.373	292.42
377.822	259.65
378.27	285.4
378.719	339.23
379.167	341.57
379.616	334.55
380.064	308.8
380.512	294.76
380.961	231.57
381.409	299.44
381.857	374.34
382.305	287.74
382.753	271.36
383.201	322.85
383.649	297.1
384.097	348.59
384.545	238.59
384.992	287.74
385.44	285.4
385.888	290.08
386.335	301.78
386.783	313.49
387.231	332.21
387.678	294.76
388.125	367.32
388.573	292.42
389.02	280.72
389.467	346.25
389.914	318.17
390.362	367.32
390.809	320.51
391.256	301.78
391.703	287.74
392.15	292.42
392.596	320.51
393.043	287.74
393.49	292.42
393.937	318.17
394.383	329.87
394.83	320.51
395.276	313.49
395.723	306.46
396.169	297.1
396.616	264.33
397.062	306.46
397.508	257.31
397.954	266.67
398.401	360.3
398.847	287.74
399.293	308.8
399.739	318.17
400.185	336.89
400.631	308.8
401.076	280.72
401.522	353.27
401.968	254.97
402.414	311.14
402.859	301.78
403.305	292.42
403.75	308.8
404.196	287.74
404.641	357.96
405.086	278.38
405.532	240.93
405.977	240.93
406.422	257.31
406.867	273.7
407.312	290.08
407.757	276.04
408.202	290.08
408.647	252.63
409.092	269.02
409.537	278.38
409.982	322.85
410.426	283.06
410.871	301.78
411.316	304.12
411.76	290.08
412.205	383.7
412.649	297.1
413.093	320.51
413.538	299.44
413.982	372
414.426	273.7
414.87	285.4
415.314	264.33
415.758	250.29
416.202	327.53
416.646	325.19
417.09	332.21
417.534	311.14
417.978	271.36
418.421	301.78
418.865	290.08
419.309	379.02
419.752	287.74
420.196	297.1
420.639	315.83
421.083	320.51
421.526	271.36
421.969	355.62
422.412	261.99
422.856	299.44
423.299	301.78
423.742	283.06
424.185	283.06
424.628	297.1
425.071	240.93
425.513	353.27
425.956	315.83
426.399	306.46
426.842	299.44
427.284	280.72
427.727	322.85
428.169	294.76
428.612	346.25
429.054	297.1
429.497	287.74
429.939	285.4
430.381	261.99
430.823	297.1
431.265	304.12
431.707	313.49
432.149	261.99
432.591	254.97
433.033	336.89
433.475	290.08
433.917	318.17
434.359	287.74
434.8	297.1
435.242	306.46
435.684	264.33
436.125	339.23
436.567	313.49
437.008	247.95
437.449	308.8
437.891	278.38
438.332	283.06
438.773	318.17
439.214	299.44
439.656	269.02
440.097	350.93
440.538	273.7
440.978	329.87
441.419	325.19
441.86	313.49
442.301	350.93
442.742	325.19
443.182	367.32
443.623	346.25
444.063	369.66
444.504	304.12
444.944	294.76
445.385	315.83
445.825	287.74
446.265	280.72
446.706	369.66
447.146	327.53
447.586	318.17
448.026	341.57
448.466	292.42
448.906	341.57
449.346	325.19
449.786	315.83
450.225	364.98
450.665	325.19
451.105	327.53
451.544	332.21
451.984	285.4
452.424	311.14
452.863	276.04
453.302	343.91
453.742	243.27
454.181	294.76
454.62	306.46
455.059	271.36
455.499	336.89
455.938	334.55
456.377	280.72
456.816	350.93
457.254	348.59
457.693	320.51
458.132	318.17
458.571	306.46
459.01	224.55
459.448	278.38
459.887	259.65
460.325	320.51
460.764	313.49
461.202	306.46
461.641	336.89
462.079	271.36
462.517	348.59
462.955	299.44
463.393	290.08
463.832	357.96
464.27	264.33
464.708	273.7
465.145	306.46
465.583	357.96
466.021	311.14
466.459	278.38
466.897	372
467.334	299.44
467.772	306.46
468.209	306.46
468.647	261.99
469.084	341.57
469.522	292.42
469.959	280.72
470.396	299.44
470.833	292.42
471.271	346.25
471.708	269.02
472.145	297.1
472.582	273.7
473.019	376.68
473.456	292.42
473.892	252.63
474.329	243.27
474.766	325.19
475.202	292.42
475.639	329.87
476.076	292.42
476.512	250.29
476.949	290.08
477.385	320.51
477.821	254.97
478.258	273.7
478.694	299.44
479.13	297.1
479.566	329.87
480.002	306.46
480.438	320.51
480.874	292.42
481.31	332.21
481.746	297.1
482.181	252.63
482.617	400.09
483.053	287.74
483.488	327.53
483.924	383.7
484.36	259.65
484.795	290.08
485.23	271.36
485.666	334.55
486.101	315.83
486.536	308.8
486.971	264.33
487.407	362.64
487.842	299.44
488.277	299.44
488.712	306.46
489.146	292.42
489.581	266.67
490.016	297.1
490.451	311.14
490.885	261.99
491.32	315.83
491.755	327.53
492.189	299.44
492.624	311.14
493.058	283.06
493.492	294.76
493.927	264.33
494.361	254.97
494.795	208.16
495.229	301.78
495.663	294.76
496.097	292.42
496.531	287.74
496.965	339.23
497.399	320.51
497.833	336.89
498.266	283.06
498.7	318.17
499.134	259.65
499.567	320.51
500.001	311.14
500.434	240.93
500.868	367.32
501.301	299.44
501.734	245.61
502.168	278.38
502.601	280.72
503.034	287.74
503.467	386.04
503.9	404.77
504.333	313.49
504.766	292.42
505.199	257.31
505.632	348.59
506.064	231.57
506.497	276.04
506.93	329.87
507.362	285.4
507.795	283.06
508.227	327.53
508.66	285.4
509.092	301.78
509.524	308.8
509.956	367.32
510.389	292.42
510.821	327.53
511.253	259.65
511.685	306.46
512.117	320.51
512.549	362.64
512.981	353.27
513.412	299.44
513.844	261.99
514.276	254.97
514.707	276.04
515.139	322.85
515.571	343.91
516.002	311.14
516.433	376.68
516.865	336.89
517.296	266.67
517.727	318.17
518.159	264.33
518.59	329.87
519.021	311.14
519.452	360.3
519.883	320.51
520.314	329.87
520.744	278.38
521.175	269.02
521.606	261.99
522.037	339.23
522.467	292.42
522.898	224.55
523.328	266.67
523.759	278.38
524.189	287.74
524.62	306.46
525.05	306.46
525.48	350.93
525.91	332.21
526.341	229.23
526.771	304.12
527.201	308.8
527.631	299.44
528.061	257.31
528.49	308.8
528.92	276.04
529.35	254.97
529.78	292.42
530.209	327.53
530.639	306.46
531.068	299.44
531.498	353.27
531.927	362.64
532.357	329.87
532.786	294.76
533.215	278.38
533.644	341.57
534.074	280.72
534.503	301.78
534.932	280.72
535.361	336.89
535.79	374.34
536.218	292.42
536.647	315.83
537.076	278.38
537.505	320.51
537.933	292.42
538.362	343.91
538.79	341.57
539.219	299.44
539.647	334.55
540.076	353.27
540.504	252.63
540.932	276.04
541.36	292.42
541.788	252.63
542.217	299.44
542.645	273.7
543.073	229.23
543.5	325.19
543.928	334.55
544.356	240.93
544.784	301.78
545.211	290.08
545.639	346.25
546.067	276.04
546.494	304.12
546.922	329.87
547.349	306.46
547.776	320.51
548.204	266.67
548.631	261.99
549.058	254.97
549.485	271.36
549.912	301.78
550.339	318.17
550.766	278.38
551.193	273.7
551.62	297.1
552.047	329.87
552.474	306.46
552.9	304.12
553.327	287.74
553.754	346.25
554.18	297.1
554.607	332.21
555.033	285.4
555.459	229.23
555.886	287.74
556.312	290.08
556.738	271.36
557.164	313.49
557.59	266.67
558.016	294.76
558.442	292.42
558.868	306.46
559.294	261.99
559.72	271.36
560.145	294.76
560.571	339.23
560.997	369.66
561.422	306.46
561.848	418.81
562.273	364.98
562.699	297.1
563.124	294.76
563.549	318.17
563.974	318.17
564.4	315.83
564.825	308.8
565.25	336.89
565.675	315.83
566.1	325.19
566.525	261.99
566.95	259.65
567.374	343.91
567.799	379.02
568.224	318.17
568.648	306.46
569.073	336.89
569.497	280.72
569.922	346.25
570.346	287.74
570.771	346.25
571.195	240.93
571.619	343.91
572.043	367.32
572.467	374.34
572.891	311.14
573.315	350.93
573.739	299.44
574.163	301.78
574.587	339.23
575.011	301.78
575.435	285.4
575.858	292.42
576.282	301.78
576.705	245.61
577.129	287.74
577.552	247.95
577.976	264.33
578.399	287.74
578.822	339.23
579.245	285.4
579.669	313.49
580.092	311.14
580.515	332.21
580.938	320.51
581.361	290.08
581.784	332.21
582.206	372
582.629	304.12
583.052	292.42
583.474	348.59
583.897	219.86
584.32	308.8
584.742	276.04
585.165	329.87
585.587	292.42
586.009	322.85
586.431	278.38
586.854	304.12
587.276	329.87
587.698	367.32
588.12	285.4
588.542	313.49
588.964	383.7
589.386	329.87
589.807	311.14
590.229	257.31
590.651	308.8
591.073	357.96
591.494	287.74
591.916	306.46
592.337	350.93
592.759	334.55
593.18	292.42
593.601	355.62
594.022	304.12
594.444	294.76
594.865	346.25
595.286	320.51
595.707	325.19
596.128	238.59
596.549	332.21
596.97	278.38
597.39	329.87
597.811	285.4
598.232	327.53
598.652	285.4
599.073	322.85
599.494	334.55
599.914	308.8
600.334	357.96
600.755	308.8
601.175	379.02
601.595	276.04
602.015	264.33
602.436	297.1
602.856	409.45
603.276	336.89
603.696	341.57
604.115	292.42
604.535	294.76
604.955	346.25
605.375	269.02
605.794	276.04
606.214	329.87
606.634	294.76
607.053	301.78
607.473	341.57
607.892	322.85
608.311	311.14
608.731	294.76
609.15	315.83
609.569	313.49
609.988	294.76
610.407	259.65
610.826	257.31
611.245	290.08
611.664	327.53
612.083	346.25
612.501	346.25
612.92	271.36
613.339	194.12
613.757	325.19
614.176	287.74
614.594	297.1
615.013	245.61
615.431	308.8
615.85	308.8
616.268	341.57
616.686	285.4
617.104	273.7
617.522	311.14
617.94	301.78
618.358	318.17
618.776	294.76
619.194	301.78
619.612	348.59
620.03	311.14
620.447	362.64
620.865	219.86
621.282	353.27
621.7	320.51
622.117	273.7
622.535	294.76
622.952	257.31
623.369	257.31
623.787	217.52
624.204	297.1
624.621	229.23
625.038	247.95
625.455	369.66
625.872	334.55
626.289	252.63
626.706	294.76
627.123	257.31
627.539	318.17
627.956	285.4
628.373	301.78
628.789	299.44
629.206	276.04
629.622	278.38
630.038	350.93
630.455	287.74
630.871	269.02
631.287	350.93
631.703	271.36
632.12	332.21
632.536	304.12
632.952	360.3
633.368	336.89
633.783	320.51
634.199	285.4
634.615	308.8
635.031	271.36
635.446	269.02
635.862	217.52
636.277	224.55
636.693	329.87
637.108	311.14
637.524	360.3
637.939	264.33
638.354	264.33
638.77	325.19
639.185	325.19
639.6	327.53
640.015	273.7
640.43	283.06
640.845	276.04
641.259	346.25
641.674	329.87
642.089	259.65
642.504	353.27
642.918	238.59
643.333	292.42
643.747	245.61
644.162	299.44
644.576	336.89
644.991	299.44
645.405	339.23
645.819	315.83
646.233	264.33
646.647	315.83
647.061	245.61
647.475	283.06
647.889	290.08
648.303	278.38
648.717	355.62
649.131	306.46
649.545	315.83
649.958	287.74
650.372	346.25
650.785	301.78
651.199	327.53
651.612	210.5
652.026	285.4
652.439	306.46
652.852	259.65
653.266	306.46
653.679	308.8
654.092	308.8
654.505	318.17
654.918	285.4
655.331	346.25
655.744	259.65
656.156	334.55
656.569	264.33
656.982	304.12
657.394	287.74
657.807	261.99
658.22	322.85
658.632	311.14
659.044	285.4
659.457	238.59
659.869	315.83
660.281	341.57
660.693	306.46
661.106	322.85
661.518	341.57
661.93	261.99
662.342	290.08
662.754	294.76
663.165	294.76
663.577	276.04
663.989	390.72
664.401	254.97
664.812	247.95
665.224	308.8
665.635	271.36
666.047	271.36
666.458	357.96
666.869	233.91
667.281	329.87
667.692	250.29
668.103	315.83
668.514	264.33
668.925	353.27
669.336	348.59
669.747	290.08
670.158	308.8
670.569	329.87
670.979	369.66
671.39	297.1
671.801	283.06
672.211	287.74
672.622	269.02
673.032	280.72
673.443	332.21
673.853	339.23
674.263	332.21
674.674	336.89
675.084	259.65
675.494	327.53
675.904	301.78
676.314	318.17
676.724	353.27
677.134	332.21
677.544	264.33
677.953	245.61
678.363	287.74
678.773	346.25
679.182	294.76
679.592	311.14
680.001	362.64
680.411	341.57
680.82	339.23
681.23	308.8
681.639	339.23
682.048	374.34
682.457	280.72
682.866	287.74
683.275	315.83
683.684	297.1
684.093	297.1
684.502	287.74
684.911	364.98
685.32	341.57
685.728	304.12
686.137	360.3
686.546	290.08
686.954	306.46
687.363	252.63
687.771	261.99
688.179	313.49
688.588	287.74
688.996	350.93
689.404	283.06
689.812	292.42
690.22	294.76
690.628	294.76
691.036	383.7
691.444	292.42
691.852	334.55
692.26	276.04
692.667	332.21
693.075	236.25
693.483	292.42
693.89	350.93
694.298	290.08
694.705	374.34
695.112	343.91
695.52	334.55
695.927	261.99
696.334	325.19
696.741	273.7
697.148	280.72
697.555	276.04
697.962	259.65
698.369	360.3
698.776	325.19
699.183	320.51
699.59	276.04
699.996	308.8
700.403	313.49
700.81	280.72
701.216	278.38
701.623	294.76
702.029	334.55
702.435	350.93
702.842	311.14
703.248	318.17
703.654	327.53
704.06	271.36
704.466	322.85
704.872	329.87
705.278	367.32
705.684	250.29
706.09	311.14
706.496	336.89
706.901	240.93
707.307	315.83
707.712	252.63
708.118	287.74
708.523	348.59
708.929	247.95
709.334	322.85
709.74	287.74
710.145	294.76
710.55	254.97
710.955	313.49
711.36	280.72
711.765	304.12
712.17	313.49
712.575	297.1
712.98	711.38
713.385	362.64
713.789	308.8
714.194	299.44
714.599	308.8
715.003	320.51
715.408	336.89
715.812	329.87
716.217	315.83
716.621	311.14
717.025	329.87
717.429	315.83
717.833	287.74
718.238	318.17
718.642	287.74
719.046	283.06
719.449	266.67
719.853	318.17
720.257	325.19
720.661	276.04
721.065	283.06
721.468	276.04
721.872	287.74
722.275	299.44
722.679	285.4
723.082	311.14
723.485	313.49
723.889	327.53
724.292	320.51
724.695	299.44
725.098	269.02
725.501	336.89
725.904	311.14
726.307	264.33
726.71	240.93
727.113	252.63
727.516	329.87
727.918	297.1
728.321	325.19
728.724	276.04
729.126	203.48
729.529	329.87
729.931	355.62
730.333	327.53
730.736	299.44
731.138	355.62
731.54	292.42
731.942	297.1
732.344	325.19
732.746	269.02
733.148	273.7
733.55	334.55
733.952	369.66
734.354	346.25
734.756	290.08
735.157	343.91
735.559	313.49
735.96	299.44
736.362	283.06
736.763	301.78
737.165	294.76
737.566	285.4
737.967	254.97
738.368	325.19
738.77	297.1
739.171	247.95
739.572	308.8
739.973	264.33
740.374	290.08
740.774	341.57
741.175	247.95
741.576	278.38
741.977	278.38
742.377	367.32
742.778	233.91
743.178	364.98
743.579	304.12
743.979	355.62
744.379	287.74
744.78	264.33
745.18	240.93
745.58	341.57
745.98	343.91
746.38	276.04
746.78	301.78
747.18	327.53
747.58	299.44
747.98	322.85
748.38	285.4
748.779	315.83
749.179	269.02
749.578	250.29
749.978	294.76
750.377	332.21
750.777	346.25
751.176	341.57
751.575	285.4
751.975	369.66
752.374	341.57
752.773	301.78
753.172	257.31
753.571	304.12
753.97	257.31
754.369	336.89
754.768	306.46
755.166	327.53
755.565	379.02
755.964	313.49
756.362	325.19
756.761	322.85
757.159	240.93
757.558	304.12
757.956	299.44
758.354	308.8
758.753	261.99
759.151	290.08
759.549	304.12
759.947	404.77
760.345	273.7
760.743	325.19
761.141	311.14
761.539	304.12
761.936	273.7
762.334	311.14
762.732	266.67
763.129	222.2
763.527	336.89
763.924	287.74
764.322	325.19
764.719	346.25
765.117	397.74
765.514	264.33
