Data from Al_FLMS009871__979__16-20-59-019.txt Node

Date: Fri Mar 08 16:20:59 CST 2024
User: pe5414po
Spectrometer: FLMS00987
Trigger mode: 0
Integration Time (sec): 1.000000E-1
Scans to average: 1
Electric dark correction enabled: true
Nonlinearity correction enabled: false
Boxcar width: 0
XAxis mode: Wavelengths
Number of Pixels in Spectrum: 2048
>>>>>Begin Spectral Data<<<<<
188.938	-87.77
189.409	-87.77
189.879	-87.77
190.349	-127.56
190.819	-64.36
191.29	-146.28
191.76	-59.68
192.23	-85.43
192.7	-127.56
193.17	-36.28
193.64	-108.83
194.109	-38.62
194.579	-8.19
195.049	-5.85
195.519	-3.51
195.988	59.68
196.458	80.75
196.927	85.43
197.397	106.49
197.866	125.22
198.336	162.67
198.805	125.22
199.274	160.33
199.744	162.67
200.213	162.67
200.682	186.07
201.151	214.16
201.62	263.31
202.089	260.97
202.558	223.52
203.027	282.03
203.495	249.27
203.964	249.27
204.433	239.9
204.902	235.22
205.37	263.31
205.839	331.19
206.307	293.74
206.776	270.33
207.244	352.25
207.712	356.93
208.181	298.42
208.649	284.38
209.117	338.21
209.585	312.46
210.053	263.31
210.521	328.85
210.989	223.52
211.457	342.89
211.925	256.29
212.393	263.31
212.861	319.48
213.328	244.59
213.796	284.38
214.264	256.29
214.731	258.63
215.199	296.08
215.666	267.99
216.133	317.14
216.601	275.01
217.068	279.69
217.535	298.42
218.003	303.1
218.47	282.03
218.937	242.25
219.404	272.67
219.871	258.63
220.338	293.74
220.805	253.95
221.271	230.54
221.738	211.82
222.205	237.56
222.671	317.14
223.138	249.27
223.605	256.29
224.071	256.29
224.538	218.84
225.004	267.99
225.47	307.78
225.937	232.88
226.403	246.93
226.869	298.42
227.335	265.65
227.801	310.12
228.267	263.31
228.733	317.14
229.199	272.67
229.665	303.1
230.131	249.27
230.597	249.27
231.062	272.67
231.528	263.31
231.994	289.06
232.459	275.01
232.925	256.29
233.39	253.95
233.856	282.03
234.321	305.44
234.786	335.87
235.252	298.42
235.717	305.44
236.182	286.72
236.647	270.33
237.112	385.02
237.577	249.27
238.042	246.93
238.507	298.42
238.972	296.08
239.436	300.76
239.901	284.38
240.366	312.46
240.83	277.35
241.295	284.38
241.76	230.54
242.224	321.82
242.688	284.38
243.153	228.2
243.617	260.97
244.081	293.74
244.545	279.69
245.01	270.33
245.474	289.06
245.938	300.76
246.402	293.74
246.866	291.4
247.33	296.08
247.793	328.85
248.257	314.8
248.721	223.52
249.185	263.31
249.648	246.93
250.112	352.25
250.575	270.33
251.039	277.35
251.502	253.95
251.965	307.78
252.429	242.25
252.892	282.03
253.355	345.23
253.818	305.44
254.281	310.12
254.744	277.35
255.207	291.4
255.67	342.89
256.133	345.23
256.596	277.35
257.059	289.06
257.522	258.63
257.984	275.01
258.447	258.63
258.909	256.29
259.372	272.67
259.834	270.33
260.297	331.19
260.759	382.68
261.221	251.61
261.684	286.72
262.146	235.22
262.608	265.65
263.07	310.12
263.532	253.95
263.994	359.27
264.456	319.48
264.918	256.29
265.38	230.54
265.842	324.16
266.303	284.38
266.765	286.72
267.227	275.01
267.688	284.38
268.15	289.06
268.611	293.74
269.072	242.25
269.534	312.46
269.995	237.56
270.456	272.67
270.918	232.88
271.379	291.4
271.84	242.25
272.301	279.69
272.762	277.35
273.223	305.44
273.684	263.31
274.144	253.95
274.605	291.4
275.066	340.55
275.527	326.5
275.987	277.35
276.448	366.29
276.908	300.76
277.369	345.23
277.829	235.22
278.289	237.56
278.75	188.41
279.21	277.35
279.67	286.72
280.13	291.4
280.59	289.06
281.05	277.35
281.51	284.38
281.97	326.5
282.43	338.21
282.89	239.9
283.35	275.01
283.809	232.88
284.269	267.99
284.729	352.25
285.188	312.46
285.648	298.42
286.107	296.08
286.567	378
287.026	307.78
287.485	312.46
287.944	300.76
288.404	387.36
288.863	251.61
289.322	277.35
289.781	298.42
290.24	338.21
290.699	312.46
291.158	347.57
291.616	275.01
292.075	310.12
292.534	230.54
292.992	307.78
293.451	277.35
293.91	279.69
294.368	338.21
294.827	270.33
295.285	324.16
295.743	265.65
296.202	300.76
296.66	319.48
297.118	319.48
297.576	326.5
298.034	321.82
298.492	314.8
298.95	333.53
299.408	239.9
299.866	342.89
300.324	382.68
300.781	307.78
301.239	279.69
301.697	256.29
302.154	265.65
302.612	370.97
303.069	314.8
303.527	296.08
303.984	321.82
304.441	335.87
304.899	349.91
305.356	256.29
305.813	275.01
306.27	307.78
306.727	314.8
307.184	321.82
307.641	260.97
308.098	293.74
308.555	314.8
309.012	275.01
309.468	298.42
309.925	328.85
310.382	321.82
310.838	321.82
311.295	303.1
311.751	258.63
312.208	286.72
312.664	256.29
313.12	270.33
313.577	307.78
314.033	251.61
314.489	359.27
314.945	317.14
315.401	263.31
315.857	389.7
316.313	361.61
316.769	270.33
317.225	338.21
317.681	338.21
318.136	335.87
318.592	335.87
319.048	286.72
319.503	333.53
319.959	267.99
320.414	328.85
320.869	258.63
321.325	321.82
321.78	270.33
322.235	289.06
322.691	338.21
323.146	312.46
323.601	312.46
324.056	333.53
324.511	230.54
324.966	282.03
325.421	298.42
325.875	317.14
326.33	246.93
326.785	345.23
327.24	333.53
327.694	361.61
328.149	338.21
328.603	326.5
329.058	305.44
329.512	321.82
329.966	359.27
330.421	324.16
330.875	263.31
331.329	317.14
331.783	298.42
332.237	321.82
332.691	359.27
333.145	296.08
333.599	352.25
334.053	324.16
334.507	279.69
334.96	293.74
335.414	237.56
335.868	293.74
336.321	331.19
336.775	272.67
337.228	293.74
337.682	317.14
338.135	317.14
338.588	331.19
339.042	300.76
339.495	256.29
339.948	296.08
340.401	235.22
340.854	368.63
341.307	286.72
341.76	228.2
342.213	340.55
342.666	324.16
343.119	312.46
343.571	345.23
344.024	251.61
344.477	284.38
344.929	345.23
345.382	382.68
345.834	370.97
346.287	338.21
346.739	303.1
347.191	310.12
347.644	296.08
348.096	289.06
348.548	347.57
349	279.69
349.452	258.63
349.904	335.87
350.356	272.67
350.808	319.48
351.26	328.85
351.711	378
352.163	366.29
352.615	253.95
353.066	282.03
353.518	267.99
353.969	321.82
354.421	347.57
354.872	253.95
355.324	300.76
355.775	326.5
356.226	363.95
356.677	324.16
357.128	296.08
357.579	314.8
358.03	258.63
358.481	356.93
358.932	312.46
359.383	303.1
359.834	317.14
360.285	363.95
360.735	249.27
361.186	298.42
361.637	378
362.087	347.57
362.538	319.48
362.988	331.19
363.438	370.97
363.889	331.19
364.339	310.12
364.789	239.9
365.239	321.82
365.689	382.68
366.139	326.5
366.589	324.16
367.039	265.65
367.489	434.17
367.939	338.21
368.389	258.63
368.839	298.42
369.288	307.78
369.738	326.5
370.187	314.8
370.637	326.5
371.086	347.57
371.536	342.89
371.985	352.25
372.434	307.78
372.884	347.57
373.333	342.89
373.782	284.38
374.231	340.55
374.68	328.85
375.129	310.12
375.578	317.14
376.027	303.1
376.475	307.78
376.924	305.44
377.373	286.72
377.822	324.16
378.27	354.59
378.719	296.08
379.167	354.59
379.616	359.27
380.064	293.74
380.512	253.95
380.961	307.78
381.409	291.4
381.857	331.19
382.305	345.23
382.753	352.25
383.201	338.21
383.649	361.61
384.097	321.82
384.545	333.53
384.992	293.74
385.44	333.53
385.888	321.82
386.335	270.33
386.783	303.1
387.231	251.61
387.678	312.46
388.125	293.74
388.573	263.31
389.02	378
389.467	324.16
389.914	326.5
390.362	298.42
390.809	324.16
391.256	275.01
391.703	349.91
392.15	328.85
392.596	277.35
393.043	359.27
393.49	293.74
393.937	345.23
394.383	314.8
394.83	270.33
395.276	307.78
395.723	289.06
396.169	286.72
396.616	345.23
397.062	277.35
397.508	314.8
397.954	263.31
398.401	298.42
398.847	300.76
399.293	354.59
399.739	335.87
400.185	342.89
400.631	310.12
401.076	305.44
401.522	314.8
401.968	361.61
402.414	354.59
402.859	356.93
403.305	303.1
403.75	293.74
404.196	317.14
404.641	314.8
405.086	347.57
405.532	303.1
405.977	293.74
406.422	319.48
406.867	293.74
407.312	319.48
407.757	326.5
408.202	321.82
408.647	333.53
409.092	345.23
409.537	347.57
409.982	314.8
410.426	335.87
410.871	331.19
411.316	347.57
411.76	286.72
412.205	312.46
412.649	305.44
413.093	298.42
413.538	267.99
413.982	270.33
414.426	307.78
414.87	293.74
415.314	324.16
415.758	289.06
416.202	282.03
416.646	263.31
417.09	321.82
417.534	307.78
417.978	347.57
418.421	324.16
418.865	347.57
419.309	284.38
419.752	282.03
420.196	338.21
420.639	368.63
421.083	352.25
421.526	312.46
421.969	338.21
422.412	305.44
422.856	378
423.299	326.5
423.742	246.93
424.185	338.21
424.628	326.5
425.071	387.36
425.513	263.31
425.956	340.55
426.399	267.99
426.842	342.89
427.284	345.23
427.727	310.12
428.169	298.42
428.612	298.42
429.054	312.46
429.497	267.99
429.939	328.85
430.381	366.29
430.823	361.61
431.265	312.46
431.707	331.19
432.149	291.4
432.591	310.12
433.033	345.23
433.475	335.87
433.917	349.91
434.359	356.93
434.8	282.03
435.242	338.21
435.684	342.89
436.125	260.97
436.567	277.35
437.008	370.97
437.449	286.72
437.891	368.63
438.332	291.4
438.773	331.19
439.214	303.1
439.656	298.42
440.097	293.74
440.538	282.03
440.978	359.27
441.419	303.1
441.86	324.16
442.301	340.55
442.742	314.8
443.182	335.87
443.623	321.82
444.063	326.5
444.504	363.95
444.944	321.82
445.385	286.72
445.825	335.87
446.265	267.99
446.706	347.57
447.146	312.46
447.586	298.42
448.026	324.16
448.466	429.49
448.906	366.29
449.346	251.61
449.786	328.85
450.225	331.19
450.665	324.16
451.105	272.67
451.544	314.8
451.984	338.21
452.424	298.42
452.863	265.65
453.302	338.21
453.742	303.1
454.181	403.74
454.62	291.4
455.059	321.82
455.499	375.66
455.938	317.14
456.377	314.8
456.816	324.16
457.254	303.1
457.693	305.44
458.132	267.99
458.571	260.97
459.01	349.91
459.448	335.87
459.887	265.65
460.325	275.01
460.764	319.48
461.202	382.68
461.641	296.08
462.079	345.23
462.517	279.69
462.955	356.93
463.393	324.16
463.832	331.19
464.27	328.85
464.708	366.29
465.145	328.85
465.583	382.68
466.021	335.87
466.459	352.25
466.897	286.72
467.334	356.93
467.772	319.48
468.209	352.25
468.647	307.78
469.084	293.74
469.522	296.08
469.959	385.02
470.396	335.87
470.833	305.44
471.271	298.42
471.708	373.32
472.145	347.57
472.582	342.89
473.019	340.55
473.456	324.16
473.892	310.12
474.329	324.16
474.766	359.27
475.202	307.78
475.639	345.23
476.076	277.35
476.512	284.38
476.949	373.32
477.385	324.16
477.821	282.03
478.258	363.95
478.694	396.72
479.13	347.57
479.566	345.23
480.002	277.35
480.438	263.31
480.874	363.95
481.31	291.4
481.746	314.8
482.181	349.91
482.617	324.16
483.053	296.08
483.488	305.44
483.924	251.61
484.36	317.14
484.795	298.42
485.23	321.82
485.666	307.78
486.101	305.44
486.536	338.21
486.971	375.66
487.407	303.1
487.842	282.03
488.277	317.14
488.712	319.48
489.146	328.85
489.581	279.69
490.016	291.4
490.451	300.76
490.885	342.89
491.32	277.35
491.755	342.89
492.189	314.8
492.624	291.4
493.058	363.95
493.492	303.1
493.927	340.55
494.361	349.91
494.795	286.72
495.229	291.4
495.663	331.19
496.097	331.19
496.531	307.78
496.965	307.78
497.399	319.48
497.833	345.23
498.266	349.91
498.7	310.12
499.134	263.31
499.567	310.12
500.001	310.12
500.434	312.46
500.868	324.16
501.301	361.61
501.734	366.29
502.168	286.72
502.601	321.82
503.034	363.95
503.467	378
503.9	305.44
504.333	335.87
504.766	312.46
505.199	366.29
505.632	326.5
506.064	298.42
506.497	286.72
506.93	359.27
507.362	366.29
507.795	277.35
508.227	394.38
508.66	373.32
509.092	349.91
509.524	310.12
509.956	275.01
510.389	305.44
510.821	380.34
511.253	331.19
511.685	253.95
512.117	279.69
512.549	317.14
512.981	335.87
513.412	317.14
513.844	291.4
514.276	319.48
514.707	361.61
515.139	375.66
515.571	305.44
516.002	324.16
516.433	370.97
516.865	260.97
517.296	356.93
517.727	331.19
518.159	317.14
518.59	354.59
519.021	385.02
519.452	342.89
519.883	317.14
520.314	333.53
520.744	338.21
521.175	380.34
521.606	303.1
522.037	296.08
522.467	298.42
522.898	291.4
523.328	335.87
523.759	270.33
524.189	275.01
524.62	366.29
525.05	267.99
525.48	253.95
525.91	258.63
526.341	275.01
526.771	314.8
527.201	373.32
527.631	347.57
528.061	260.97
528.49	368.63
528.92	359.27
529.35	291.4
529.78	342.89
530.209	370.97
530.639	303.1
531.068	317.14
531.498	342.89
531.927	303.1
532.357	340.55
532.786	349.91
533.215	310.12
533.644	349.91
534.074	270.33
534.503	293.74
534.932	331.19
535.361	305.44
535.79	251.61
536.218	352.25
536.647	340.55
537.076	368.63
537.505	340.55
537.933	324.16
538.362	368.63
538.79	317.14
539.219	317.14
539.647	232.88
540.076	340.55
540.504	312.46
540.932	319.48
541.36	310.12
541.788	352.25
542.217	420.13
542.645	331.19
543.073	338.21
543.5	305.44
543.928	349.91
544.356	319.48
544.784	293.74
545.211	370.97
545.639	363.95
546.067	354.59
546.494	314.8
546.922	298.42
547.349	260.97
547.776	328.85
548.204	296.08
548.631	293.74
549.058	305.44
549.485	305.44
549.912	314.8
550.339	298.42
550.766	321.82
551.193	363.95
551.62	279.69
552.047	340.55
552.474	342.89
552.9	349.91
553.327	291.4
553.754	347.57
554.18	373.32
554.607	289.06
555.033	279.69
555.459	380.34
555.886	356.93
556.312	375.66
556.738	338.21
557.164	239.9
557.59	340.55
558.016	314.8
558.442	324.16
558.868	291.4
559.294	373.32
559.72	340.55
560.145	345.23
560.571	246.93
560.997	356.93
561.422	328.85
561.848	378
562.273	239.9
562.699	378
563.124	286.72
563.549	370.97
563.974	345.23
564.4	317.14
564.825	275.01
565.25	317.14
565.675	401.4
566.1	352.25
566.525	380.34
566.95	312.46
567.374	305.44
567.799	356.93
568.224	284.38
568.648	275.01
569.073	307.78
569.497	270.33
569.922	342.89
570.346	303.1
570.771	307.78
571.195	366.29
571.619	267.99
572.043	312.46
572.467	317.14
572.891	272.67
573.315	333.53
573.739	275.01
574.163	363.95
574.587	319.48
575.011	300.76
575.435	345.23
575.858	303.1
576.282	267.99
576.705	366.29
577.129	352.25
577.552	385.02
577.976	279.69
578.399	307.78
578.822	333.53
579.245	363.95
579.669	314.8
580.092	300.76
580.515	333.53
580.938	279.69
581.361	333.53
581.784	298.42
582.206	333.53
582.629	317.14
583.052	277.35
583.474	270.33
583.897	380.34
584.32	368.63
584.742	338.21
585.165	378
585.587	314.8
586.009	317.14
586.431	317.14
586.854	333.53
587.276	326.5
587.698	331.19
588.12	221.18
588.542	300.76
588.964	349.91
589.386	370.97
589.807	312.46
590.229	331.19
590.651	352.25
591.073	340.55
591.494	349.91
591.916	265.65
592.337	293.74
592.759	312.46
593.18	312.46
593.601	345.23
594.022	326.5
594.444	279.69
594.865	242.25
595.286	307.78
595.707	370.97
596.128	319.48
596.549	328.85
596.97	305.44
597.39	272.67
597.811	326.5
598.232	338.21
598.652	291.4
599.073	340.55
599.494	263.31
599.914	338.21
600.334	328.85
600.755	375.66
601.175	317.14
601.595	291.4
602.015	319.48
602.436	310.12
602.856	455.23
603.276	314.8
603.696	324.16
604.115	300.76
604.535	319.48
604.955	331.19
605.375	392.04
605.794	345.23
606.214	253.95
606.634	338.21
607.053	363.95
607.473	305.44
607.892	300.76
608.311	314.8
608.731	347.57
609.15	347.57
609.569	275.01
609.988	310.12
610.407	317.14
610.826	300.76
611.245	366.29
611.664	354.59
612.083	305.44
612.501	296.08
612.92	352.25
613.339	333.53
613.757	267.99
614.176	373.32
614.594	335.87
615.013	317.14
615.431	368.63
615.85	270.33
616.268	253.95
616.686	286.72
617.104	328.85
617.522	349.91
617.94	314.8
618.358	310.12
618.776	298.42
619.194	328.85
619.612	317.14
620.03	331.19
620.447	347.57
620.865	310.12
621.282	361.61
621.7	361.61
622.117	312.46
622.535	328.85
622.952	328.85
623.369	321.82
623.787	387.36
624.204	312.46
624.621	342.89
625.038	328.85
625.455	307.78
625.872	317.14
626.289	289.06
626.706	303.1
627.123	319.48
627.539	338.21
627.956	286.72
628.373	342.89
628.789	382.68
629.206	296.08
629.622	310.12
630.038	335.87
630.455	317.14
630.871	314.8
631.287	359.27
631.703	342.89
632.12	370.97
632.536	310.12
632.952	284.38
633.368	378
633.783	326.5
634.199	331.19
634.615	296.08
635.031	321.82
635.446	335.87
635.862	305.44
636.277	345.23
636.693	317.14
637.108	232.88
637.524	333.53
637.939	317.14
638.354	347.57
638.77	296.08
639.185	328.85
639.6	368.63
640.015	324.16
640.43	333.53
640.845	312.46
641.259	375.66
641.674	312.46
642.089	289.06
642.504	279.69
642.918	279.69
643.333	263.31
643.747	251.61
644.162	324.16
644.576	305.44
644.991	328.85
645.405	333.53
645.819	282.03
646.233	303.1
646.647	359.27
647.061	413.1
647.475	289.06
647.889	328.85
648.303	373.32
648.717	303.1
649.131	338.21
649.545	314.8
649.958	300.76
650.372	286.72
650.785	279.69
651.199	342.89
651.612	326.5
652.026	267.99
652.439	335.87
652.852	282.03
653.266	293.74
653.679	324.16
654.092	298.42
654.505	328.85
654.918	314.8
655.331	331.19
655.744	335.87
656.156	356.93
656.569	333.53
656.982	387.36
657.394	307.78
657.807	239.9
658.22	375.66
658.632	246.93
659.044	321.82
659.457	296.08
659.869	293.74
660.281	342.89
660.693	275.01
661.106	303.1
661.518	312.46
661.93	382.68
662.342	270.33
662.754	331.19
663.165	335.87
663.577	303.1
663.989	403.74
664.401	333.53
664.812	335.87
665.224	333.53
665.635	298.42
666.047	333.53
666.458	373.32
666.869	338.21
667.281	321.82
667.692	342.89
668.103	354.59
668.514	352.25
668.925	394.38
669.336	363.95
669.747	279.69
670.158	328.85
670.569	317.14
670.979	324.16
671.39	314.8
671.801	263.31
672.211	282.03
672.622	239.9
673.032	331.19
673.443	284.38
673.853	305.44
674.263	333.53
674.674	340.55
675.084	378
675.494	331.19
675.904	354.59
676.314	345.23
676.724	349.91
677.134	270.33
677.544	373.32
677.953	249.27
678.363	263.31
678.773	368.63
679.182	394.38
679.592	282.03
680.001	340.55
680.411	333.53
680.82	307.78
681.23	342.89
681.639	366.29
682.048	331.19
682.457	312.46
682.866	282.03
683.275	373.32
683.684	291.4
684.093	317.14
684.502	392.04
684.911	286.72
685.32	361.61
685.728	319.48
686.137	272.67
686.546	253.95
686.954	317.14
687.363	373.32
687.771	333.53
688.179	296.08
688.588	319.48
688.996	356.93
689.404	277.35
689.812	335.87
690.22	354.59
690.628	333.53
691.036	370.97
691.444	279.69
691.852	310.12
692.26	286.72
692.667	321.82
693.075	307.78
693.483	263.31
693.89	296.08
694.298	349.91
694.705	298.42
695.112	361.61
695.52	361.61
695.927	317.14
696.334	317.14
696.741	324.16
697.148	275.01
697.555	354.59
697.962	324.16
698.369	291.4
698.776	307.78
699.183	345.23
699.59	328.85
699.996	378
700.403	291.4
700.81	314.8
701.216	282.03
701.623	352.25
702.029	289.06
702.435	324.16
702.842	335.87
703.248	305.44
703.654	307.78
704.06	347.57
704.466	354.59
704.872	347.57
705.278	340.55
705.684	366.29
706.09	324.16
706.496	319.48
706.901	207.14
707.307	303.1
707.712	253.95
708.118	378
708.523	328.85
708.929	370.97
709.334	251.61
709.74	324.16
710.145	349.91
710.55	333.53
710.955	340.55
711.36	277.35
711.765	303.1
712.17	321.82
712.575	349.91
712.98	775.89
713.385	321.82
713.789	354.59
714.194	368.63
714.599	373.32
715.003	352.25
715.408	293.74
715.812	291.4
716.217	307.78
716.621	338.21
717.025	340.55
717.429	340.55
717.833	324.16
718.238	370.97
718.642	324.16
719.046	270.33
719.449	321.82
719.853	289.06
720.257	317.14
720.661	345.23
721.065	291.4
721.468	317.14
721.872	389.7
722.275	338.21
722.679	324.16
723.082	305.44
723.485	305.44
723.889	349.91
724.292	328.85
724.695	289.06
725.098	293.74
725.501	303.1
725.904	275.01
726.307	333.53
726.71	267.99
727.113	326.5
727.516	289.06
727.918	312.46
728.321	279.69
728.724	331.19
729.126	300.76
729.529	324.16
729.931	242.25
730.333	366.29
730.736	368.63
731.138	319.48
731.54	331.19
731.942	244.59
732.344	267.99
732.746	289.06
733.148	324.16
733.55	293.74
733.952	328.85
734.354	237.56
734.756	305.44
735.157	279.69
735.559	335.87
735.96	342.89
736.362	349.91
736.763	317.14
737.165	338.21
737.566	324.16
737.967	265.65
738.368	293.74
738.77	305.44
739.171	403.74
739.572	326.5
739.973	289.06
740.374	312.46
740.774	340.55
741.175	305.44
741.576	277.35
741.977	370.97
742.377	289.06
742.778	260.97
743.178	307.78
743.579	307.78
743.979	307.78
744.379	333.53
744.78	272.67
745.18	277.35
745.58	338.21
745.98	324.16
746.38	326.5
746.78	305.44
747.18	256.29
747.58	356.93
747.98	349.91
748.38	361.61
748.779	265.65
749.179	293.74
749.578	333.53
749.978	246.93
750.377	298.42
750.777	345.23
751.176	321.82
751.575	321.82
751.975	359.27
752.374	356.93
752.773	291.4
753.172	303.1
753.571	232.88
753.97	396.72
754.369	361.61
754.768	324.16
755.166	303.1
755.565	267.99
755.964	289.06
756.362	354.59
756.761	298.42
757.159	373.32
757.558	284.38
757.956	300.76
758.354	291.4
758.753	272.67
759.151	370.97
759.549	303.1
759.947	263.31
760.345	342.89
760.743	305.44
761.141	293.74
761.539	349.91
761.936	253.95
762.334	317.14
762.732	284.38
763.129	326.5
763.527	312.46
763.924	300.76
764.322	328.85
764.719	321.82
765.117	342.89
765.514	293.74
765.911	300.76
