Data from Al_FLMS009871__972__16-20-58-322.txt Node

Date: Fri Mar 08 16:20:58 CST 2024
User: pe5414po
Spectrometer: FLMS00987
Trigger mode: 0
Integration Time (sec): 1.000000E-1
Scans to average: 1
Electric dark correction enabled: true
Nonlinearity correction enabled: false
Boxcar width: 0
XAxis mode: Wavelengths
Number of Pixels in Spectrum: 2048
>>>>>Begin Spectral Data<<<<<
188.938	-79.58
189.409	-79.58
189.879	-79.58
190.349	-81.92
190.819	-91.28
191.29	-102.98
191.76	-100.64
192.23	-107.66
192.7	-44.47
193.17	-138.09
193.64	-21.06
194.109	-7.02
194.579	-37.45
195.049	53.83
195.519	-11.7
195.988	37.45
196.458	30.43
196.927	49.15
197.397	93.62
197.866	131.07
198.336	175.54
198.805	194.26
199.274	175.54
199.744	189.58
200.213	241.08
200.682	163.84
201.151	205.97
201.62	191.92
202.089	283.2
202.558	257.46
203.027	205.97
203.495	292.57
203.964	299.59
204.433	311.29
204.902	290.23
205.37	283.2
205.839	325.33
206.307	217.67
206.776	306.61
207.244	297.25
207.712	358.1
208.181	271.5
208.649	250.44
209.117	313.63
209.585	351.08
210.053	344.06
210.521	283.2
210.989	318.31
211.457	280.86
211.925	299.59
212.393	257.46
212.861	315.97
213.328	344.06
213.796	292.57
214.264	315.97
214.731	280.86
215.199	337.04
215.666	252.78
216.133	269.16
216.601	299.59
217.068	241.08
217.535	255.12
218.003	273.84
218.47	322.99
218.937	273.84
219.404	238.73
219.871	315.97
220.338	348.74
220.805	304.27
221.271	259.8
221.738	294.91
222.205	290.23
222.671	259.8
223.138	266.82
223.605	257.46
224.071	257.46
224.538	245.76
225.004	294.91
225.47	234.05
225.937	248.1
226.403	229.37
226.869	283.2
227.335	285.55
227.801	334.7
228.267	252.78
228.733	271.5
229.199	255.12
229.665	248.1
230.131	234.05
230.597	292.57
231.062	236.39
231.528	208.31
231.994	322.99
232.459	231.71
232.925	283.2
233.39	311.29
233.856	278.52
234.321	327.67
234.786	332.36
235.252	283.2
235.717	278.52
236.182	266.82
236.647	264.48
237.112	299.59
237.577	264.48
238.042	327.67
238.507	215.33
238.972	315.97
239.436	344.06
239.901	297.25
240.366	236.39
240.83	311.29
241.295	332.36
241.76	252.78
242.224	304.27
242.688	241.08
243.153	330.02
243.617	276.18
244.081	301.93
244.545	290.23
245.01	313.63
245.474	259.8
245.938	276.18
246.402	311.29
246.866	311.29
247.33	304.27
247.793	285.55
248.257	290.23
248.721	273.84
249.185	287.89
249.648	304.27
250.112	285.55
250.575	344.06
251.039	306.61
251.502	271.5
251.965	290.23
252.429	294.91
252.892	262.14
253.355	262.14
253.818	236.39
254.281	278.52
254.744	280.86
255.207	283.2
255.67	269.16
256.133	269.16
256.596	238.73
257.059	315.97
257.522	283.2
257.984	322.99
258.447	280.86
258.909	351.08
259.372	215.33
259.834	344.06
260.297	332.36
260.759	330.02
261.221	337.04
261.684	315.97
262.146	276.18
262.608	280.86
263.07	292.57
263.532	245.76
263.994	332.36
264.456	332.36
264.918	311.29
265.38	273.84
265.842	301.93
266.303	276.18
266.765	313.63
267.227	273.84
267.688	287.89
268.15	301.93
268.611	276.18
269.072	238.73
269.534	287.89
269.995	285.55
270.456	311.29
270.918	327.67
271.379	304.27
271.84	299.59
272.301	313.63
272.762	264.48
273.223	306.61
273.684	351.08
274.144	325.33
274.605	313.63
275.066	273.84
275.527	313.63
275.987	322.99
276.448	257.46
276.908	322.99
277.369	339.38
277.829	308.95
278.289	322.99
278.75	332.36
279.21	327.67
279.67	362.78
280.13	339.38
280.59	294.91
281.05	313.63
281.51	292.57
281.97	299.59
282.43	250.44
282.89	276.18
283.35	304.27
283.809	255.12
284.269	362.78
284.729	252.78
285.188	304.27
285.648	308.95
286.107	311.29
286.567	257.46
287.026	273.84
287.485	341.72
287.944	325.33
288.404	283.2
288.863	304.27
289.322	292.57
289.781	262.14
290.24	276.18
290.699	269.16
291.158	355.76
291.616	311.29
292.075	353.42
292.534	299.59
292.992	313.63
293.451	306.61
293.91	287.89
294.368	327.67
294.827	334.7
295.285	351.08
295.743	304.27
296.202	355.76
296.66	283.2
297.118	327.67
297.576	351.08
298.034	299.59
298.492	245.76
298.95	330.02
299.408	334.7
299.866	262.14
300.324	301.93
300.781	362.78
301.239	292.57
301.697	294.91
302.154	301.93
302.612	283.2
303.069	351.08
303.527	311.29
303.984	313.63
304.441	297.25
304.899	283.2
305.356	308.95
305.813	325.33
306.27	322.99
306.727	201.29
307.184	344.06
307.641	315.97
308.098	318.31
308.555	337.04
309.012	304.27
309.468	276.18
309.925	252.78
310.382	255.12
310.838	301.93
311.295	327.67
311.751	294.91
312.208	315.97
312.664	255.12
313.12	245.76
313.577	320.65
314.033	294.91
314.489	346.4
314.945	348.74
315.401	315.97
315.857	320.65
316.313	285.55
316.769	315.97
317.225	292.57
317.681	327.67
318.136	259.8
318.592	248.1
319.048	290.23
319.503	259.8
319.959	273.84
320.414	332.36
320.869	304.27
321.325	320.65
321.78	332.36
322.235	287.89
322.691	318.31
323.146	369.8
323.601	287.89
324.056	332.36
324.511	280.86
324.966	292.57
325.421	337.04
325.875	252.78
326.33	304.27
326.785	283.2
327.24	255.12
327.694	269.16
328.149	367.46
328.603	313.63
329.058	339.38
329.512	292.57
329.966	266.82
330.421	297.25
330.875	243.42
331.329	292.57
331.783	292.57
332.237	262.14
332.691	374.49
333.145	311.29
333.599	311.29
334.053	259.8
334.507	315.97
334.96	306.61
335.414	269.16
335.868	301.93
336.321	322.99
336.775	327.67
337.228	280.86
337.682	290.23
338.135	292.57
338.588	332.36
339.042	334.7
339.495	358.1
339.948	339.38
340.401	297.25
340.854	355.76
341.307	294.91
341.76	306.61
342.213	320.65
342.666	299.59
343.119	358.1
343.571	280.86
344.024	351.08
344.477	297.25
344.929	362.78
345.382	330.02
345.834	278.52
346.287	308.95
346.739	379.17
347.191	374.49
347.644	287.89
348.096	365.12
348.548	297.25
349	332.36
349.452	339.38
349.904	313.63
350.356	301.93
350.808	337.04
351.26	351.08
351.711	320.65
352.163	355.76
352.615	250.44
353.066	278.52
353.518	280.86
353.969	306.61
354.421	315.97
354.872	332.36
355.324	257.46
355.775	301.93
356.226	379.17
356.677	341.72
357.128	332.36
357.579	341.72
358.03	287.89
358.481	322.99
358.932	318.31
359.383	308.95
359.834	337.04
360.285	369.8
360.735	318.31
361.186	330.02
361.637	348.74
362.087	283.2
362.538	271.5
362.988	325.33
363.438	348.74
363.889	358.1
364.339	339.38
364.789	269.16
365.239	290.23
365.689	297.25
366.139	273.84
366.589	376.83
367.039	294.91
367.489	386.19
367.939	290.23
368.389	348.74
368.839	325.33
369.288	341.72
369.738	353.42
370.187	372.15
370.637	311.29
371.086	346.4
371.536	313.63
371.985	290.23
372.434	299.59
372.884	259.8
373.333	339.38
373.782	337.04
374.231	353.42
374.68	315.97
375.129	280.86
375.578	306.61
376.027	334.7
376.475	308.95
376.924	299.59
377.373	348.74
377.822	346.4
378.27	294.91
378.719	269.16
379.167	287.89
379.616	344.06
380.064	330.02
380.512	360.44
380.961	304.27
381.409	299.59
381.857	337.04
382.305	301.93
382.753	308.95
383.201	355.76
383.649	320.65
384.097	339.38
384.545	372.15
384.992	255.12
385.44	320.65
385.888	320.65
386.335	301.93
386.783	332.36
387.231	334.7
387.678	367.46
388.125	287.89
388.573	297.25
389.02	332.36
389.467	346.4
389.914	334.7
390.362	290.23
390.809	355.76
391.256	308.95
391.703	297.25
392.15	332.36
392.596	292.57
393.043	273.84
393.49	292.57
393.937	252.78
394.383	341.72
394.83	273.84
395.276	301.93
395.723	250.44
396.169	358.1
396.616	341.72
397.062	259.8
397.508	320.65
397.954	318.31
398.401	311.29
398.847	369.8
399.293	369.8
399.739	330.02
400.185	325.33
400.631	348.74
401.076	332.36
401.522	341.72
401.968	344.06
402.414	327.67
402.859	325.33
403.305	388.53
403.75	365.12
404.196	341.72
404.641	348.74
405.086	346.4
405.532	346.4
405.977	292.57
406.422	313.63
406.867	292.57
407.312	330.02
407.757	353.42
408.202	306.61
408.647	341.72
409.092	334.7
409.537	301.93
409.982	308.95
410.426	322.99
410.871	341.72
411.316	337.04
411.76	344.06
412.205	344.06
412.649	318.31
413.093	308.95
413.538	320.65
413.982	346.4
414.426	294.91
414.87	358.1
415.314	334.7
415.758	367.46
416.202	315.97
416.646	327.67
417.09	311.29
417.534	337.04
417.978	306.61
418.421	332.36
418.865	358.1
419.309	362.78
419.752	297.25
420.196	337.04
420.639	332.36
421.083	358.1
421.526	327.67
421.969	318.31
422.412	348.74
422.856	322.99
423.299	297.25
423.742	330.02
424.185	325.33
424.628	283.2
425.071	285.55
425.513	351.08
425.956	362.78
426.399	313.63
426.842	339.38
427.284	285.55
427.727	304.27
428.169	351.08
428.612	355.76
429.054	330.02
429.497	355.76
429.939	318.31
430.381	318.31
430.823	297.25
431.265	320.65
431.707	344.06
432.149	292.57
432.591	315.97
433.033	369.8
433.475	311.29
433.917	290.23
434.359	325.33
434.8	276.18
435.242	308.95
435.684	315.97
436.125	311.29
436.567	369.8
437.008	308.95
437.449	292.57
437.891	313.63
438.332	334.7
438.773	285.55
439.214	315.97
439.656	311.29
440.097	327.67
440.538	304.27
440.978	308.95
441.419	369.8
441.86	278.52
442.301	278.52
442.742	327.67
443.182	330.02
443.623	341.72
444.063	318.31
444.504	285.55
444.944	339.38
445.385	358.1
445.825	266.82
446.265	278.52
446.706	294.91
447.146	367.46
447.586	283.2
448.026	332.36
448.466	322.99
448.906	318.31
449.346	353.42
449.786	287.89
450.225	327.67
450.665	355.76
451.105	297.25
451.544	346.4
451.984	304.27
452.424	334.7
452.863	269.16
453.302	346.4
453.742	311.29
454.181	341.72
454.62	322.99
455.059	346.4
455.499	348.74
455.938	306.61
456.377	285.55
456.816	294.91
457.254	269.16
457.693	358.1
458.132	351.08
458.571	308.95
459.01	337.04
459.448	355.76
459.887	311.29
460.325	276.18
460.764	311.29
461.202	301.93
461.641	353.42
462.079	348.74
462.517	379.17
462.955	325.33
463.393	353.42
463.832	365.12
464.27	334.7
464.708	365.12
465.145	322.99
465.583	393.21
466.021	353.42
466.459	322.99
466.897	301.93
467.334	304.27
467.772	301.93
468.209	351.08
468.647	262.14
469.084	306.61
469.522	327.67
469.959	353.42
470.396	262.14
470.833	311.29
471.271	374.49
471.708	301.93
472.145	285.55
472.582	339.38
473.019	287.89
473.456	362.78
473.892	330.02
474.329	360.44
474.766	306.61
475.202	294.91
475.639	360.44
476.076	320.65
476.512	346.4
476.949	365.12
477.385	322.99
477.821	341.72
478.258	344.06
478.694	269.16
479.13	306.61
479.566	266.82
480.002	266.82
480.438	299.59
480.874	360.44
481.31	355.76
481.746	322.99
482.181	299.59
482.617	353.42
483.053	383.85
483.488	283.2
483.924	271.5
484.36	320.65
484.795	322.99
485.23	292.57
485.666	315.97
486.101	306.61
486.536	334.7
486.971	304.27
487.407	353.42
487.842	332.36
488.277	290.23
488.712	224.69
489.146	308.95
489.581	308.95
490.016	276.18
490.451	330.02
490.885	278.52
491.32	269.16
491.755	278.52
492.189	304.27
492.624	287.89
493.058	271.5
493.492	276.18
493.927	318.31
494.361	322.99
494.795	383.85
495.229	315.97
495.663	299.59
496.097	269.16
496.531	355.76
496.965	301.93
497.399	271.5
497.833	344.06
498.266	266.82
498.7	306.61
499.134	320.65
499.567	400.23
500.001	318.31
500.434	332.36
500.868	327.67
501.301	315.97
501.734	271.5
502.168	330.02
502.601	304.27
503.034	320.65
503.467	360.44
503.9	259.8
504.333	353.42
504.766	332.36
505.199	325.33
505.632	360.44
506.064	351.08
506.497	290.23
506.93	379.17
507.362	341.72
507.795	322.99
508.227	379.17
508.66	381.51
509.092	346.4
509.524	341.72
509.956	341.72
510.389	304.27
510.821	276.18
511.253	362.78
511.685	327.67
512.117	290.23
512.549	318.31
512.981	285.55
513.412	337.04
513.844	325.33
514.276	301.93
514.707	283.2
515.139	337.04
515.571	330.02
516.002	351.08
516.433	376.83
516.865	339.38
517.296	315.97
517.727	367.46
518.159	308.95
518.59	372.15
519.021	320.65
519.452	271.5
519.883	306.61
520.314	348.74
520.744	318.31
521.175	372.15
521.606	269.16
522.037	285.55
522.467	325.33
522.898	330.02
523.328	313.63
523.759	369.8
524.189	308.95
524.62	416.62
525.05	339.38
525.48	351.08
525.91	299.59
526.341	292.57
526.771	308.95
527.201	358.1
527.631	383.85
528.061	255.12
528.49	301.93
528.92	320.65
529.35	339.38
529.78	311.29
530.209	292.57
530.639	273.84
531.068	325.33
531.498	325.33
531.927	348.74
532.357	353.42
532.786	311.29
533.215	318.31
533.644	271.5
534.074	348.74
534.503	257.46
534.932	306.61
535.361	306.61
535.79	283.2
536.218	287.89
536.647	346.4
537.076	327.67
537.505	308.95
537.933	376.83
538.362	346.4
538.79	273.84
539.219	273.84
539.647	311.29
540.076	330.02
540.504	325.33
540.932	353.42
541.36	283.2
541.788	358.1
542.217	315.97
542.645	318.31
543.073	322.99
543.5	376.83
543.928	306.61
544.356	360.44
544.784	362.78
545.211	304.27
545.639	330.02
546.067	322.99
546.494	308.95
546.922	322.99
547.349	327.67
547.776	367.46
548.204	337.04
548.631	348.74
549.058	355.76
549.485	320.65
549.912	287.89
550.339	381.51
550.766	320.65
551.193	362.78
551.62	348.74
552.047	262.14
552.474	388.53
552.9	334.7
553.327	304.27
553.754	395.55
554.18	297.25
554.607	393.21
555.033	351.08
555.459	280.86
555.886	287.89
556.312	351.08
556.738	325.33
557.164	318.31
557.59	297.25
558.016	280.86
558.442	299.59
558.868	318.31
559.294	344.06
559.72	341.72
560.145	330.02
560.571	292.57
560.997	325.33
561.422	308.95
561.848	280.86
562.273	325.33
562.699	306.61
563.124	332.36
563.549	386.19
563.974	297.25
564.4	351.08
564.825	416.62
565.25	397.89
565.675	339.38
566.1	341.72
566.525	341.72
566.95	280.86
567.374	360.44
567.799	386.19
568.224	369.8
568.648	351.08
569.073	325.33
569.497	271.5
569.922	315.97
570.346	252.78
570.771	337.04
571.195	337.04
571.619	348.74
572.043	285.55
572.467	250.44
572.891	353.42
573.315	292.57
573.739	376.83
574.163	351.08
574.587	346.4
575.011	322.99
575.435	301.93
575.858	348.74
576.282	337.04
576.705	320.65
577.129	351.08
577.552	362.78
577.976	273.84
578.399	297.25
578.822	344.06
579.245	346.4
579.669	266.82
580.092	348.74
580.515	322.99
580.938	327.67
581.361	278.52
581.784	304.27
582.206	344.06
582.629	332.36
583.052	334.7
583.474	337.04
583.897	252.78
584.32	294.91
584.742	313.63
585.165	280.86
585.587	315.97
586.009	273.84
586.431	322.99
586.854	285.55
587.276	330.02
587.698	299.59
588.12	283.2
588.542	365.12
588.964	383.85
589.386	344.06
589.807	287.89
590.229	353.42
590.651	306.61
591.073	292.57
591.494	341.72
591.916	308.95
592.337	327.67
592.759	294.91
593.18	278.52
593.601	318.31
594.022	325.33
594.444	386.19
594.865	327.67
595.286	285.55
595.707	353.42
596.128	402.57
596.549	301.93
596.97	325.33
597.39	304.27
597.811	327.67
598.232	320.65
598.652	297.25
599.073	332.36
599.494	322.99
599.914	330.02
600.334	334.7
600.755	337.04
601.175	313.63
601.595	327.67
602.015	292.57
602.436	332.36
602.856	451.72
603.276	337.04
603.696	334.7
604.115	330.02
604.535	243.42
604.955	259.8
605.375	330.02
605.794	332.36
606.214	339.38
606.634	344.06
607.053	355.76
607.473	315.97
607.892	290.23
608.311	344.06
608.731	332.36
609.15	353.42
609.569	402.57
609.988	250.44
610.407	276.18
610.826	369.8
611.245	280.86
611.664	311.29
612.083	337.04
612.501	290.23
612.92	308.95
613.339	358.1
613.757	376.83
614.176	311.29
614.594	227.03
615.013	353.42
615.431	269.16
615.85	325.33
616.268	306.61
616.686	372.15
617.104	304.27
617.522	341.72
617.94	299.59
618.358	351.08
618.776	313.63
619.194	290.23
619.612	252.78
620.03	334.7
620.447	285.55
620.865	304.27
621.282	362.78
621.7	339.38
622.117	374.49
622.535	318.31
622.952	299.59
623.369	374.49
623.787	367.46
624.204	306.61
624.621	372.15
625.038	372.15
625.455	311.29
625.872	264.48
626.289	327.67
626.706	402.57
627.123	313.63
627.539	320.65
627.956	348.74
628.373	283.2
628.789	297.25
629.206	280.86
629.622	334.7
630.038	278.52
630.455	245.76
630.871	294.91
631.287	269.16
631.703	332.36
632.12	327.67
632.536	311.29
632.952	280.86
633.368	313.63
633.783	322.99
634.199	269.16
634.615	334.7
635.031	315.97
635.446	341.72
635.862	327.67
636.277	276.18
636.693	308.95
637.108	365.12
637.524	407.25
637.939	306.61
638.354	346.4
638.77	297.25
639.185	320.65
639.6	327.67
640.015	374.49
640.43	320.65
640.845	332.36
641.259	362.78
641.674	250.44
642.089	306.61
642.504	344.06
642.918	285.55
643.333	294.91
643.747	346.4
644.162	308.95
644.576	327.67
644.991	351.08
645.405	374.49
645.819	372.15
646.233	330.02
646.647	367.46
647.061	379.17
647.475	339.38
647.889	327.67
648.303	306.61
648.717	283.2
649.131	341.72
649.545	330.02
649.958	306.61
650.372	304.27
650.785	362.78
651.199	308.95
651.612	264.48
652.026	280.86
652.439	327.67
652.852	351.08
653.266	353.42
653.679	315.97
654.092	306.61
654.505	292.57
654.918	341.72
655.331	332.36
655.744	337.04
656.156	337.04
656.569	376.83
656.982	337.04
657.394	327.67
657.807	301.93
658.22	306.61
658.632	297.25
659.044	325.33
659.457	264.48
659.869	287.89
660.281	332.36
660.693	304.27
661.106	313.63
661.518	339.38
661.93	332.36
662.342	304.27
662.754	322.99
663.165	337.04
663.577	400.23
663.989	365.12
664.401	346.4
664.812	327.67
665.224	315.97
665.635	322.99
666.047	292.57
666.458	330.02
666.869	311.29
667.281	341.72
667.692	322.99
668.103	278.52
668.514	362.78
668.925	386.19
669.336	383.85
669.747	294.91
670.158	262.14
670.569	304.27
670.979	283.2
671.39	311.29
671.801	425.98
672.211	325.33
672.622	327.67
673.032	297.25
673.443	301.93
673.853	360.44
674.263	220.01
674.674	306.61
675.084	365.12
675.494	409.59
675.904	341.72
676.314	379.17
676.724	332.36
677.134	325.33
677.544	393.21
677.953	248.1
678.363	332.36
678.773	374.49
679.182	337.04
679.592	287.89
680.001	332.36
680.411	318.31
680.82	301.93
681.23	334.7
681.639	280.86
682.048	346.4
682.457	334.7
682.866	353.42
683.275	327.67
683.684	287.89
684.093	315.97
684.502	318.31
684.911	318.31
685.32	325.33
685.728	318.31
686.137	280.86
686.546	400.23
686.954	311.29
687.363	280.86
687.771	255.12
688.179	344.06
688.588	337.04
688.996	297.25
689.404	330.02
689.812	297.25
690.22	327.67
690.628	339.38
691.036	271.5
691.444	320.65
691.852	294.91
692.26	348.74
692.667	320.65
693.075	320.65
693.483	320.65
693.89	341.72
694.298	367.46
694.705	358.1
695.112	330.02
695.52	301.93
695.927	280.86
696.334	283.2
696.741	297.25
697.148	278.52
697.555	283.2
697.962	344.06
698.369	381.51
698.776	351.08
699.183	313.63
699.59	283.2
699.996	360.44
700.403	365.12
700.81	341.72
701.216	346.4
701.623	348.74
702.029	379.17
702.435	292.57
702.842	379.17
703.248	358.1
703.654	339.38
704.06	360.44
704.466	367.46
704.872	271.5
705.278	320.65
705.684	325.33
706.09	360.44
706.496	292.57
706.901	311.29
707.307	283.2
707.712	276.18
708.118	337.04
708.523	231.71
708.929	386.19
709.334	287.89
709.74	332.36
710.145	325.33
710.55	299.59
710.955	245.76
711.36	308.95
711.765	341.72
712.17	379.17
712.575	283.2
712.98	863.66
713.385	348.74
713.789	346.4
714.194	322.99
714.599	344.06
715.003	334.7
715.408	348.74
715.812	372.15
716.217	322.99
716.621	341.72
717.025	374.49
717.429	287.89
717.833	332.36
718.238	341.72
718.642	346.4
719.046	353.42
719.449	341.72
719.853	369.8
720.257	332.36
720.661	344.06
721.065	294.91
721.468	299.59
721.872	294.91
722.275	276.18
722.679	337.04
723.082	285.55
723.485	287.89
723.889	332.36
724.292	351.08
724.695	301.93
725.098	290.23
725.501	313.63
725.904	341.72
726.307	262.14
726.71	311.29
727.113	287.89
727.516	332.36
727.918	327.67
728.321	376.83
728.724	372.15
729.126	308.95
729.529	290.23
729.931	339.38
730.333	334.7
730.736	290.23
731.138	301.93
731.54	264.48
731.942	339.38
732.344	327.67
732.746	344.06
733.148	301.93
733.55	325.33
733.952	306.61
734.354	311.29
734.756	341.72
735.157	320.65
735.559	322.99
735.96	308.95
736.362	250.44
736.763	308.95
737.165	325.33
737.566	308.95
737.967	320.65
738.368	355.76
738.77	306.61
739.171	360.44
739.572	283.2
739.973	348.74
740.374	306.61
740.774	308.95
741.175	337.04
741.576	344.06
741.977	330.02
742.377	313.63
742.778	339.38
743.178	386.19
743.579	355.76
743.979	334.7
744.379	313.63
744.78	400.23
745.18	297.25
745.58	259.8
745.98	304.27
746.38	369.8
746.78	327.67
747.18	351.08
747.58	304.27
747.98	322.99
748.38	383.85
748.779	362.78
749.179	271.5
749.578	327.67
749.978	290.23
750.377	311.29
750.777	337.04
751.176	297.25
751.575	353.42
751.975	320.65
752.374	390.87
752.773	334.7
753.172	229.37
753.571	360.44
753.97	348.74
754.369	318.31
754.768	337.04
755.166	308.95
755.565	257.46
755.964	423.64
756.362	311.29
756.761	306.61
757.159	344.06
757.558	271.5
757.956	362.78
758.354	292.57
758.753	248.1
759.151	308.95
759.549	320.65
759.947	313.63
760.345	297.25
760.743	346.4
761.141	376.83
761.539	264.48
761.936	322.99
762.334	271.5
762.732	325.33
763.129	306.61
763.527	287.89
763.924	252.78
764.322	362.78
764.719	280.86
765.117	346.4
