Data from Al_FLMS009871__968__16-20-57-919.txt Node

Date: Fri Mar 08 16:20:57 CST 2024
User: pe5414po
Spectrometer: FLMS00987
Trigger mode: 0
Integration Time (sec): 1.000000E-1
Scans to average: 1
Electric dark correction enabled: true
Nonlinearity correction enabled: false
Boxcar width: 0
XAxis mode: Wavelengths
Number of Pixels in Spectrum: 2048
>>>>>Begin Spectral Data<<<<<
188.938	-39.94
189.409	-39.94
189.879	-39.94
190.349	-119.51
190.819	-63.34
191.29	-86.75
191.76	-68.02
192.23	-121.85
192.7	-70.36
193.17	4.53
193.64	-7.17
194.109	-91.43
194.579	-63.34
195.049	-4.83
195.519	56.03
195.988	-28.23
196.458	79.43
196.927	88.79
197.397	65.39
197.866	133.26
198.336	114.54
198.805	168.37
199.274	88.79
199.744	170.71
200.213	215.18
200.682	177.73
201.151	240.93
201.62	243.27
202.089	243.27
202.558	269.02
203.027	259.65
203.495	287.74
203.964	212.84
204.433	273.7
204.902	273.7
205.37	329.87
205.839	287.74
206.307	287.74
206.776	313.49
207.244	271.36
207.712	304.12
208.181	348.59
208.649	226.89
209.117	210.5
209.585	283.06
210.053	266.67
210.521	304.12
210.989	308.8
211.457	252.63
211.925	276.04
212.393	285.4
212.861	266.67
213.328	329.87
213.796	273.7
214.264	285.4
214.731	243.27
215.199	318.17
215.666	205.82
216.133	327.53
216.601	308.8
217.068	198.8
217.535	283.06
218.003	269.02
218.47	245.61
218.937	297.1
219.404	257.31
219.871	276.04
220.338	283.06
220.805	229.23
221.271	269.02
221.738	261.99
222.205	247.95
222.671	346.25
223.138	224.55
223.605	273.7
224.071	292.42
224.538	229.23
225.004	259.65
225.47	250.29
225.937	205.82
226.403	238.59
226.869	304.12
227.335	194.12
227.801	231.57
228.267	264.33
228.733	229.23
229.199	252.63
229.665	334.55
230.131	292.42
230.597	261.99
231.062	276.04
231.528	325.19
231.994	259.65
232.459	247.95
232.925	264.33
233.39	285.4
233.856	273.7
234.321	297.1
234.786	261.99
235.252	261.99
235.717	280.72
236.182	280.72
236.647	334.55
237.112	250.29
237.577	273.7
238.042	297.1
238.507	329.87
238.972	287.74
239.436	283.06
239.901	280.72
240.366	217.52
240.83	266.67
241.295	259.65
241.76	271.36
242.224	283.06
242.688	341.57
243.153	271.36
243.617	343.91
244.081	264.33
244.545	243.27
245.01	280.72
245.474	353.27
245.938	283.06
246.402	276.04
246.866	283.06
247.33	301.78
247.793	278.38
248.257	304.12
248.721	280.72
249.185	271.36
249.648	177.73
250.112	203.48
250.575	318.17
251.039	236.25
251.502	283.06
251.965	259.65
252.429	283.06
252.892	325.19
253.355	322.85
253.818	233.91
254.281	292.42
254.744	276.04
255.207	320.51
255.67	261.99
256.133	222.2
256.596	290.08
257.059	280.72
257.522	276.04
257.984	287.74
258.447	254.97
258.909	287.74
259.372	301.78
259.834	215.18
260.297	339.23
260.759	294.76
261.221	334.55
261.684	299.44
262.146	283.06
262.608	285.4
263.07	261.99
263.532	259.65
263.994	306.46
264.456	271.36
264.918	276.04
265.38	334.55
265.842	306.46
266.303	287.74
266.765	250.29
267.227	313.49
267.688	306.46
268.15	301.78
268.611	315.83
269.072	287.74
269.534	327.53
269.995	259.65
270.456	252.63
270.918	264.33
271.379	329.87
271.84	250.29
272.301	208.16
272.762	297.1
273.223	322.85
273.684	280.72
274.144	306.46
274.605	304.12
275.066	259.65
275.527	294.76
275.987	198.8
276.448	343.91
276.908	276.04
277.369	297.1
277.829	313.49
278.289	280.72
278.75	287.74
279.21	238.59
279.67	325.19
280.13	219.86
280.59	236.25
281.05	240.93
281.51	261.99
281.97	264.33
282.43	285.4
282.89	280.72
283.35	306.46
283.809	334.55
284.269	304.12
284.729	266.67
285.188	273.7
285.648	315.83
286.107	301.78
286.567	294.76
287.026	266.67
287.485	290.08
287.944	278.38
288.404	280.72
288.863	294.76
289.322	313.49
289.781	254.97
290.24	372
290.699	311.14
291.158	294.76
291.616	336.89
292.075	313.49
292.534	306.46
292.992	322.85
293.451	252.63
293.91	259.65
294.368	290.08
294.827	325.19
295.285	308.8
295.743	250.29
296.202	311.14
296.66	367.32
297.118	297.1
297.576	259.65
298.034	240.93
298.492	308.8
298.95	280.72
299.408	315.83
299.866	306.46
300.324	250.29
300.781	217.52
301.239	264.33
301.697	273.7
302.154	292.42
302.612	315.83
303.069	327.53
303.527	280.72
303.984	285.4
304.441	271.36
304.899	254.97
305.356	273.7
305.813	320.51
306.27	299.44
306.727	240.93
307.184	285.4
307.641	290.08
308.098	290.08
308.555	320.51
309.012	311.14
309.468	332.21
309.925	292.42
310.382	283.06
310.838	327.53
311.295	393.06
311.751	290.08
312.208	313.49
312.664	299.44
313.12	353.27
313.577	306.46
314.033	315.83
314.489	294.76
314.945	297.1
315.401	329.87
315.857	297.1
316.313	315.83
316.769	308.8
317.225	339.23
317.681	294.76
318.136	348.59
318.592	283.06
319.048	259.65
319.503	252.63
319.959	247.95
320.414	304.12
320.869	280.72
321.325	269.02
321.78	278.38
322.235	383.7
322.691	350.93
323.146	273.7
323.601	315.83
324.056	264.33
324.511	250.29
324.966	322.85
325.421	280.72
325.875	315.83
326.33	313.49
326.785	315.83
327.24	271.36
327.694	306.46
328.149	325.19
328.603	388.38
329.058	306.46
329.512	306.46
329.966	301.78
330.421	287.74
330.875	294.76
331.329	278.38
331.783	250.29
332.237	266.67
332.691	287.74
333.145	346.25
333.599	292.42
334.053	264.33
334.507	364.98
334.96	325.19
335.414	315.83
335.868	332.21
336.321	304.12
336.775	339.23
337.228	301.78
337.682	353.27
338.135	322.85
338.588	299.44
339.042	294.76
339.495	257.31
339.948	283.06
340.401	294.76
340.854	287.74
341.307	271.36
341.76	285.4
342.213	350.93
342.666	304.12
343.119	320.51
343.571	320.51
344.024	261.99
344.477	332.21
344.929	374.34
345.382	336.89
345.834	327.53
346.287	297.1
346.739	280.72
347.191	301.78
347.644	315.83
348.096	273.7
348.548	315.83
349	297.1
349.452	322.85
349.904	334.55
350.356	341.57
350.808	334.55
351.26	372
351.711	276.04
352.163	362.64
352.615	252.63
353.066	273.7
353.518	301.78
353.969	290.08
354.421	339.23
354.872	390.72
355.324	294.76
355.775	271.36
356.226	301.78
356.677	304.12
357.128	278.38
357.579	276.04
358.03	306.46
358.481	299.44
358.932	285.4
359.383	348.59
359.834	369.66
360.285	372
360.735	315.83
361.186	341.57
361.637	332.21
362.087	294.76
362.538	339.23
362.988	301.78
363.438	327.53
363.889	257.31
364.339	304.12
364.789	318.17
365.239	318.17
365.689	362.64
366.139	299.44
366.589	322.85
367.039	329.87
367.489	357.96
367.939	259.65
368.389	339.23
368.839	304.12
369.288	299.44
369.738	355.62
370.187	381.36
370.637	327.53
371.086	332.21
371.536	306.46
371.985	287.74
372.434	367.32
372.884	357.96
373.333	346.25
373.782	301.78
374.231	329.87
374.68	304.12
375.129	280.72
375.578	334.55
376.027	332.21
376.475	290.08
376.924	336.89
377.373	325.19
377.822	278.38
378.27	322.85
378.719	357.96
379.167	311.14
379.616	334.55
380.064	297.1
380.512	322.85
380.961	299.44
381.409	266.67
381.857	311.14
382.305	339.23
382.753	402.43
383.201	311.14
383.649	332.21
384.097	341.57
384.545	346.25
384.992	353.27
385.44	336.89
385.888	341.57
386.335	304.12
386.783	311.14
387.231	278.38
387.678	348.59
388.125	355.62
388.573	327.53
389.02	290.08
389.467	343.91
389.914	215.18
390.362	329.87
390.809	348.59
391.256	278.38
391.703	311.14
392.15	343.91
392.596	336.89
393.043	276.04
393.49	301.78
393.937	308.8
394.383	259.65
394.83	269.02
395.276	299.44
395.723	318.17
396.169	278.38
396.616	315.83
397.062	353.27
397.508	329.87
397.954	297.1
398.401	292.42
398.847	287.74
399.293	208.16
399.739	285.4
400.185	269.02
400.631	308.8
401.076	348.59
401.522	350.93
401.968	327.53
402.414	339.23
402.859	273.7
403.305	271.36
403.75	304.12
404.196	306.46
404.641	364.98
405.086	285.4
405.532	320.51
405.977	304.12
406.422	301.78
406.867	245.61
407.312	318.17
407.757	294.76
408.202	308.8
408.647	299.44
409.092	383.7
409.537	320.51
409.982	322.85
410.426	325.19
410.871	348.59
411.316	334.55
411.76	294.76
412.205	304.12
412.649	320.51
413.093	304.12
413.538	320.51
413.982	374.34
414.426	350.93
414.87	257.31
415.314	271.36
415.758	318.17
416.202	348.59
416.646	332.21
417.09	327.53
417.534	311.14
417.978	297.1
418.421	332.21
418.865	327.53
419.309	297.1
419.752	290.08
420.196	301.78
420.639	322.85
421.083	334.55
421.526	353.27
421.969	329.87
422.412	346.25
422.856	276.04
423.299	311.14
423.742	362.64
424.185	332.21
424.628	367.32
425.071	322.85
425.513	336.89
425.956	348.59
426.399	290.08
426.842	350.93
427.284	350.93
427.727	315.83
428.169	336.89
428.612	315.83
429.054	360.3
429.497	290.08
429.939	250.29
430.381	269.02
430.823	283.06
431.265	299.44
431.707	367.32
432.149	301.78
432.591	334.55
433.033	266.67
433.475	339.23
433.917	294.76
434.359	294.76
434.8	343.91
435.242	308.8
435.684	322.85
436.125	308.8
436.567	299.44
437.008	357.96
437.449	367.32
437.891	327.53
438.332	306.46
438.773	287.74
439.214	285.4
439.656	313.49
440.097	343.91
440.538	315.83
440.978	264.33
441.419	308.8
441.86	332.21
442.301	339.23
442.742	301.78
443.182	322.85
443.623	315.83
444.063	304.12
444.504	271.36
444.944	374.34
445.385	304.12
445.825	301.78
446.265	266.67
446.706	245.61
447.146	287.74
447.586	257.31
448.026	290.08
448.466	308.8
448.906	271.36
449.346	297.1
449.786	266.67
450.225	362.64
450.665	273.7
451.105	245.61
451.544	325.19
451.984	266.67
452.424	325.19
452.863	276.04
453.302	327.53
453.742	283.06
454.181	336.89
454.62	348.59
455.059	379.02
455.499	269.02
455.938	346.25
456.377	292.42
456.816	271.36
457.254	360.3
457.693	325.19
458.132	311.14
458.571	290.08
459.01	357.96
459.448	336.89
459.887	339.23
460.325	336.89
460.764	329.87
461.202	294.76
461.641	329.87
462.079	327.53
462.517	315.83
462.955	364.98
463.393	336.89
463.832	346.25
464.27	315.83
464.708	320.51
465.145	320.51
465.583	315.83
466.021	320.51
466.459	320.51
466.897	290.08
467.334	327.53
467.772	315.83
468.209	280.72
468.647	261.99
469.084	325.19
469.522	278.38
469.959	372
470.396	362.64
470.833	339.23
471.271	250.29
471.708	278.38
472.145	353.27
472.582	325.19
473.019	322.85
473.456	311.14
473.892	339.23
474.329	297.1
474.766	362.64
475.202	369.66
475.639	341.57
476.076	285.4
476.512	283.06
476.949	306.46
477.385	233.91
477.821	304.12
478.258	313.49
478.694	304.12
479.13	273.7
479.566	320.51
480.002	341.57
480.438	308.8
480.874	304.12
481.31	304.12
481.746	290.08
482.181	285.4
482.617	334.55
483.053	327.53
483.488	299.44
483.924	315.83
484.36	290.08
484.795	273.7
485.23	259.65
485.666	325.19
486.101	367.32
486.536	278.38
486.971	327.53
487.407	367.32
487.842	278.38
488.277	299.44
488.712	348.59
489.146	320.51
489.581	304.12
490.016	372
490.451	236.25
490.885	332.21
491.32	313.49
491.755	369.66
492.189	343.91
492.624	266.67
493.058	402.43
493.492	332.21
493.927	322.85
494.361	362.64
494.795	341.57
495.229	348.59
495.663	304.12
496.097	379.02
496.531	292.42
496.965	397.74
497.399	294.76
497.833	285.4
498.266	341.57
498.7	336.89
499.134	346.25
499.567	252.63
500.001	397.74
500.434	350.93
500.868	334.55
501.301	339.23
501.734	259.65
502.168	332.21
502.601	290.08
503.034	287.74
503.467	266.67
503.9	329.87
504.333	350.93
504.766	320.51
505.199	372
505.632	294.76
506.064	332.21
506.497	313.49
506.93	238.59
507.362	292.42
507.795	304.12
508.227	243.27
508.66	318.17
509.092	318.17
509.524	355.62
509.956	327.53
510.389	254.97
510.821	311.14
511.253	269.02
511.685	306.46
512.117	381.36
512.549	285.4
512.981	313.49
513.412	362.64
513.844	343.91
514.276	292.42
514.707	346.25
515.139	285.4
515.571	329.87
516.002	362.64
516.433	332.21
516.865	311.14
517.296	341.57
517.727	308.8
518.159	306.46
518.59	364.98
519.021	350.93
519.452	332.21
519.883	362.64
520.314	297.1
520.744	301.78
521.175	290.08
521.606	327.53
522.037	287.74
522.467	315.83
522.898	276.04
523.328	343.91
523.759	311.14
524.189	320.51
524.62	278.38
525.05	285.4
525.48	376.68
525.91	294.76
526.341	313.49
526.771	306.46
527.201	374.34
527.631	327.53
528.061	318.17
528.49	290.08
528.92	297.1
529.35	292.42
529.78	343.91
530.209	292.42
530.639	357.96
531.068	292.42
531.498	308.8
531.927	264.33
532.357	336.89
532.786	304.12
533.215	290.08
533.644	301.78
534.074	304.12
534.503	292.42
534.932	360.3
535.361	306.46
535.79	322.85
536.218	318.17
536.647	374.34
537.076	355.62
537.505	339.23
537.933	332.21
538.362	329.87
538.79	334.55
539.219	320.51
539.647	280.72
540.076	322.85
540.504	336.89
540.932	287.74
541.36	257.31
541.788	334.55
542.217	299.44
542.645	343.91
543.073	315.83
543.5	322.85
543.928	306.46
544.356	311.14
544.784	353.27
545.211	320.51
545.639	308.8
546.067	357.96
546.494	327.53
546.922	334.55
547.349	299.44
547.776	334.55
548.204	318.17
548.631	348.59
549.058	287.74
549.485	325.19
549.912	381.36
550.339	367.32
550.766	360.3
551.193	320.51
551.62	329.87
552.047	315.83
552.474	285.4
552.9	243.27
553.327	247.95
553.754	299.44
554.18	287.74
554.607	299.44
555.033	297.1
555.459	280.72
555.886	343.91
556.312	301.78
556.738	269.02
557.164	301.78
557.59	226.89
558.016	315.83
558.442	369.66
558.868	264.33
559.294	280.72
559.72	308.8
560.145	343.91
560.571	252.63
560.997	360.3
561.422	269.02
561.848	320.51
562.273	325.19
562.699	372
563.124	355.62
563.549	264.33
563.974	299.44
564.4	329.87
564.825	386.04
565.25	292.42
565.675	280.72
566.1	320.51
566.525	318.17
566.95	332.21
567.374	341.57
567.799	367.32
568.224	304.12
568.648	348.59
569.073	318.17
569.497	252.63
569.922	313.49
570.346	308.8
570.771	360.3
571.195	353.27
571.619	315.83
572.043	313.49
572.467	297.1
572.891	308.8
573.315	311.14
573.739	362.64
574.163	322.85
574.587	362.64
575.011	325.19
575.435	313.49
575.858	353.27
576.282	346.25
576.705	311.14
577.129	372
577.552	341.57
577.976	367.32
578.399	372
578.822	290.08
579.245	348.59
579.669	360.3
580.092	308.8
580.515	334.55
580.938	311.14
581.361	341.57
581.784	322.85
582.206	301.78
582.629	301.78
583.052	304.12
583.474	308.8
583.897	327.53
584.32	322.85
584.742	397.74
585.165	360.3
585.587	329.87
586.009	311.14
586.431	350.93
586.854	318.17
587.276	313.49
587.698	238.59
588.12	308.8
588.542	341.57
588.964	362.64
589.386	266.67
589.807	336.89
590.229	292.42
590.651	261.99
591.073	315.83
591.494	360.3
591.916	292.42
592.337	294.76
592.759	334.55
593.18	278.38
593.601	332.21
594.022	280.72
594.444	290.08
594.865	283.06
595.286	273.7
595.707	322.85
596.128	325.19
596.549	320.51
596.97	266.67
597.39	257.31
597.811	332.21
598.232	362.64
598.652	346.25
599.073	327.53
599.494	346.25
599.914	271.36
600.334	320.51
600.755	348.59
601.175	297.1
601.595	372
602.015	362.64
602.436	308.8
602.856	463.28
603.276	283.06
603.696	404.77
604.115	292.42
604.535	222.2
604.955	327.53
605.375	336.89
605.794	304.12
606.214	285.4
606.634	325.19
607.053	301.78
607.473	306.46
607.892	364.98
608.311	346.25
608.731	348.59
609.15	304.12
609.569	315.83
609.988	269.02
610.407	301.78
610.826	336.89
611.245	308.8
611.664	264.33
612.083	343.91
612.501	327.53
612.92	372
613.339	292.42
613.757	318.17
614.176	315.83
614.594	278.38
615.013	343.91
615.431	299.44
615.85	311.14
616.268	367.32
616.686	278.38
617.104	292.42
617.522	250.29
617.94	355.62
618.358	290.08
618.776	301.78
619.194	318.17
619.612	311.14
620.03	273.7
620.447	348.59
620.865	313.49
621.282	292.42
621.7	322.85
622.117	308.8
622.535	252.63
622.952	332.21
623.369	341.57
623.787	336.89
624.204	301.78
624.621	320.51
625.038	271.36
625.455	364.98
625.872	320.51
626.289	313.49
626.706	364.98
627.123	292.42
627.539	353.27
627.956	280.72
628.373	266.67
628.789	372
629.206	369.66
629.622	315.83
630.038	311.14
630.455	379.02
630.871	339.23
631.287	336.89
631.703	287.74
632.12	229.23
632.536	336.89
632.952	341.57
633.368	329.87
633.783	320.51
634.199	350.93
634.615	315.83
635.031	332.21
635.446	299.44
635.862	257.31
636.277	313.49
636.693	315.83
637.108	285.4
637.524	357.96
637.939	350.93
638.354	327.53
638.77	353.27
639.185	421.15
639.6	350.93
640.015	346.25
640.43	334.55
640.845	381.36
641.259	339.23
641.674	285.4
642.089	259.65
642.504	329.87
642.918	343.91
643.333	332.21
643.747	318.17
644.162	329.87
644.576	374.34
644.991	306.46
645.405	360.3
645.819	329.87
646.233	276.04
646.647	386.04
647.061	278.38
647.475	308.8
647.889	346.25
648.303	327.53
648.717	402.43
649.131	311.14
649.545	339.23
649.958	287.74
650.372	343.91
650.785	325.19
651.199	350.93
651.612	322.85
652.026	325.19
652.439	269.02
652.852	362.64
653.266	346.25
653.679	364.98
654.092	311.14
654.505	357.96
654.918	315.83
655.331	315.83
655.744	320.51
656.156	355.62
656.569	336.89
656.982	259.65
657.394	301.78
657.807	322.85
658.22	353.27
658.632	381.36
659.044	292.42
659.457	308.8
659.869	327.53
660.281	269.02
660.693	297.1
661.106	266.67
661.518	334.55
661.93	334.55
662.342	273.7
662.754	301.78
663.165	271.36
663.577	297.1
663.989	292.42
664.401	336.89
664.812	285.4
665.224	311.14
665.635	329.87
666.047	336.89
666.458	353.27
666.869	318.17
667.281	266.67
667.692	280.72
668.103	301.78
668.514	329.87
668.925	301.78
669.336	290.08
669.747	339.23
670.158	290.08
670.569	313.49
670.979	341.57
671.39	367.32
671.801	299.44
672.211	311.14
672.622	327.53
673.032	313.49
673.443	285.4
673.853	287.74
674.263	350.93
674.674	343.91
675.084	290.08
675.494	318.17
675.904	325.19
676.314	308.8
676.724	339.23
677.134	297.1
677.544	292.42
677.953	409.45
678.363	334.55
678.773	379.02
679.182	297.1
679.592	327.53
680.001	329.87
680.411	259.65
680.82	290.08
681.23	339.23
681.639	287.74
682.048	280.72
682.457	348.59
682.866	367.32
683.275	369.66
683.684	362.64
684.093	301.78
684.502	271.36
684.911	313.49
685.32	332.21
685.728	315.83
686.137	313.49
686.546	240.93
686.954	327.53
687.363	322.85
687.771	301.78
688.179	332.21
688.588	348.59
688.996	367.32
689.404	341.57
689.812	304.12
690.22	285.4
690.628	285.4
691.036	304.12
691.444	285.4
691.852	290.08
692.26	318.17
692.667	271.36
693.075	304.12
693.483	346.25
693.89	269.02
694.298	357.96
694.705	283.06
695.112	322.85
695.52	269.02
695.927	357.96
696.334	276.04
696.741	233.91
697.148	308.8
697.555	320.51
697.962	341.57
698.369	313.49
698.776	320.51
699.183	339.23
699.59	294.76
699.996	313.49
700.403	294.76
700.81	252.63
701.216	364.98
701.623	261.99
702.029	327.53
702.435	304.12
702.842	320.51
703.248	357.96
703.654	353.27
704.06	250.29
704.466	261.99
704.872	360.3
705.278	341.57
705.684	311.14
706.09	343.91
706.496	254.97
706.901	308.8
707.307	280.72
707.712	313.49
708.118	311.14
708.523	313.49
708.929	273.7
709.334	283.06
709.74	308.8
710.145	243.27
710.55	346.25
710.955	322.85
711.36	336.89
711.765	250.29
712.17	250.29
712.575	278.38
712.98	805
713.385	325.19
713.789	306.46
714.194	325.19
714.599	334.55
715.003	343.91
715.408	329.87
715.812	297.1
716.217	311.14
716.621	301.78
717.025	259.65
717.429	290.08
717.833	301.78
718.238	285.4
718.642	271.36
719.046	315.83
719.449	343.91
719.853	299.44
720.257	294.76
720.661	329.87
721.065	240.93
721.468	320.51
721.872	273.7
722.275	332.21
722.679	313.49
723.082	320.51
723.485	257.31
723.889	238.59
724.292	327.53
724.695	304.12
725.098	318.17
725.501	341.57
725.904	294.76
726.307	250.29
726.71	332.21
727.113	343.91
727.516	369.66
727.918	336.89
728.321	306.46
728.724	313.49
729.126	269.02
729.529	355.62
729.931	395.4
730.333	292.42
730.736	285.4
731.138	325.19
731.54	236.25
731.942	341.57
732.344	350.93
732.746	304.12
733.148	269.02
733.55	247.95
733.952	346.25
734.354	290.08
734.756	322.85
735.157	301.78
735.559	266.67
735.96	362.64
736.362	353.27
736.763	280.72
737.165	276.04
737.566	341.57
737.967	301.78
738.368	348.59
738.77	357.96
739.171	243.27
739.572	318.17
739.973	364.98
740.374	294.76
740.774	332.21
741.175	250.29
741.576	245.61
741.977	343.91
742.377	313.49
742.778	346.25
743.178	376.68
743.579	257.31
743.979	297.1
744.379	280.72
744.78	240.93
745.18	327.53
745.58	308.8
745.98	325.19
746.38	306.46
746.78	278.38
747.18	339.23
747.58	376.68
747.98	306.46
748.38	306.46
748.779	287.74
749.179	327.53
749.578	355.62
749.978	254.97
750.377	301.78
750.777	240.93
751.176	278.38
751.575	250.29
751.975	308.8
752.374	369.66
752.773	292.42
753.172	306.46
753.571	343.91
753.97	292.42
754.369	285.4
754.768	350.93
755.166	320.51
755.565	236.25
755.964	271.36
756.362	308.8
756.761	332.21
757.159	280.72
757.558	299.44
757.956	329.87
758.354	414.13
758.753	299.44
759.151	343.91
759.549	320.51
759.947	346.25
760.345	299.44
760.743	376.68
761.141	334.55
761.539	290.08
761.936	311.14
762.334	297.1
762.732	304.12
763.129	353.27
763.527	353.27
763.924	294.76
764.322	292.42
764.719	327.53
765.117	287.74
765.514	292.42
765.911	304.12
766.308	322.85
