Data from Al_FLMS009871__963__16-20-57-419.txt Node

Date: Fri Mar 08 16:20:57 CST 2024
User: pe5414po
Spectrometer: FLMS00987
Trigger mode: 0
Integration Time (sec): 1.000000E-1
Scans to average: 1
Electric dark correction enabled: true
Nonlinearity correction enabled: false
Boxcar width: 0
XAxis mode: Wavelengths
Number of Pixels in Spectrum: 2048
>>>>>Begin Spectral Data<<<<<
188.938	-70.8
189.409	-70.8
189.879	-70.8
190.349	-61.44
190.819	-21.65
191.29	-134
191.76	-49.74
192.23	-73.14
192.7	-12.29
193.17	-89.53
193.64	-52.08
194.109	-33.35
194.579	-7.61
195.049	-19.31
195.519	-7.61
195.988	-2.93
196.458	62.61
196.927	34.52
197.397	191.34
197.866	137.51
198.336	55.59
198.805	149.21
199.274	186.66
199.744	160.91
200.213	177.3
200.682	205.38
201.151	256.87
201.62	228.79
202.089	226.45
202.558	247.51
203.027	327.09
203.495	310.71
203.964	240.49
204.433	226.45
204.902	259.21
205.37	406.67
205.839	268.58
206.307	341.13
206.776	259.21
207.244	266.24
207.712	254.53
208.181	308.37
208.649	324.75
209.117	294.32
209.585	249.85
210.053	348.15
210.521	308.37
210.989	280.28
211.457	259.21
211.925	294.32
212.393	291.98
212.861	214.74
213.328	256.87
213.796	280.28
214.264	245.17
214.731	226.45
215.199	284.96
215.666	226.45
216.133	219.43
216.601	273.26
217.068	329.43
217.535	366.88
218.003	212.4
218.47	277.94
218.937	310.71
219.404	212.4
219.871	287.3
220.338	238.15
220.805	256.87
221.271	231.13
221.738	219.43
222.205	275.6
222.671	273.26
223.138	174.96
223.605	233.47
224.071	291.98
224.538	320.07
225.004	259.21
225.47	210.06
225.937	270.92
226.403	268.58
226.869	268.58
227.335	261.55
227.801	249.85
228.267	256.87
228.733	266.24
229.199	308.37
229.665	270.92
230.131	289.64
230.597	240.49
231.062	273.26
231.528	270.92
231.994	252.19
232.459	299
232.925	284.96
233.39	301.34
233.856	200.7
234.321	252.19
234.786	256.87
235.252	231.13
235.717	231.13
236.182	320.07
236.647	289.64
237.112	273.26
237.577	299
238.042	242.83
238.507	226.45
238.972	294.32
239.436	240.49
239.901	350.5
240.366	256.87
240.83	249.85
241.295	254.53
241.76	261.55
242.224	268.58
242.688	226.45
243.153	275.6
243.617	291.98
244.081	294.32
244.545	303.68
245.01	240.49
245.474	320.07
245.938	277.94
246.402	277.94
246.866	221.77
247.33	350.5
247.793	348.15
248.257	224.11
248.721	252.19
249.185	275.6
249.648	277.94
250.112	306.03
250.575	308.37
251.039	280.28
251.502	240.49
251.965	247.51
252.429	299
252.892	261.55
253.355	303.68
253.818	275.6
254.281	334.11
254.744	289.64
255.207	266.24
255.67	352.84
256.133	254.53
256.596	252.19
257.059	303.68
257.522	263.9
257.984	313.05
258.447	259.21
258.909	256.87
259.372	315.39
259.834	287.3
260.297	287.3
260.759	303.68
261.221	306.03
261.684	317.73
262.146	266.24
262.608	327.09
263.07	306.03
263.532	327.09
263.994	238.15
264.456	259.21
264.918	341.13
265.38	289.64
265.842	261.55
266.303	291.98
266.765	350.5
267.227	254.53
267.688	270.92
268.15	322.41
268.611	329.43
269.072	324.75
269.534	254.53
269.995	289.64
270.456	320.07
270.918	301.34
271.379	280.28
271.84	268.58
272.301	317.73
272.762	315.39
273.223	324.75
273.684	266.24
274.144	238.15
274.605	280.28
275.066	350.5
275.527	294.32
275.987	334.11
276.448	296.66
276.908	275.6
277.369	301.34
277.829	310.71
278.289	242.83
278.75	270.92
279.21	334.11
279.67	259.21
280.13	273.26
280.59	294.32
281.05	308.37
281.51	308.37
281.97	294.32
282.43	320.07
282.89	315.39
283.35	280.28
283.809	313.05
284.269	301.34
284.729	324.75
285.188	308.37
285.648	345.81
286.107	287.3
286.567	366.88
287.026	355.18
287.485	313.05
287.944	303.68
288.404	284.96
288.863	366.88
289.322	256.87
289.781	296.66
290.24	301.34
290.699	291.98
291.158	277.94
291.616	282.62
292.075	327.09
292.534	282.62
292.992	334.11
293.451	331.77
293.91	249.85
294.368	256.87
294.827	277.94
295.285	322.41
295.743	226.45
296.202	242.83
296.66	235.81
297.118	224.11
297.576	301.34
298.034	315.39
298.492	266.24
298.95	324.75
299.408	308.37
299.866	254.53
300.324	299
300.781	296.66
301.239	317.73
301.697	327.09
302.154	366.88
302.612	294.32
303.069	359.86
303.527	294.32
303.984	341.13
304.441	301.34
304.899	263.9
305.356	301.34
305.813	287.3
306.27	277.94
306.727	343.47
307.184	338.79
307.641	320.07
308.098	284.96
308.555	313.05
309.012	284.96
309.468	259.21
309.925	390.28
310.382	296.66
310.838	249.85
311.295	282.62
311.751	327.09
312.208	238.15
312.664	322.41
313.12	294.32
313.577	287.3
314.033	308.37
314.489	287.3
314.945	287.3
315.401	287.3
315.857	294.32
316.313	322.41
316.769	247.51
317.225	322.41
317.681	322.41
318.136	301.34
318.592	343.47
319.048	296.66
319.503	310.71
319.959	282.62
320.414	254.53
320.869	242.83
321.325	256.87
321.78	259.21
322.235	348.15
322.691	334.11
323.146	322.41
323.601	263.9
324.056	341.13
324.511	301.34
324.966	308.37
325.421	287.3
325.875	291.98
326.33	301.34
326.785	282.62
327.24	317.73
327.694	242.83
328.149	277.94
328.603	385.6
329.058	329.43
329.512	327.09
329.966	341.13
330.421	313.05
330.875	357.52
331.329	334.11
331.783	294.32
332.237	301.34
332.691	338.79
333.145	301.34
333.599	299
334.053	329.43
334.507	334.11
334.96	282.62
335.414	357.52
335.868	345.81
336.321	291.98
336.775	284.96
337.228	282.62
337.682	282.62
338.135	284.96
338.588	301.34
339.042	301.34
339.495	306.03
339.948	343.47
340.401	315.39
340.854	320.07
341.307	320.07
341.76	327.09
342.213	336.45
342.666	341.13
343.119	277.94
343.571	329.43
344.024	233.47
344.477	266.24
344.929	310.71
345.382	317.73
345.834	306.03
346.287	289.64
346.739	306.03
347.191	329.43
347.644	242.83
348.096	430.07
348.548	317.73
349	270.92
349.452	338.79
349.904	331.77
350.356	322.41
350.808	359.86
351.26	275.6
351.711	315.39
352.163	282.62
352.615	315.39
353.066	324.75
353.518	338.79
353.969	341.13
354.421	282.62
354.872	270.92
355.324	289.64
355.775	338.79
356.226	301.34
356.677	324.75
357.128	256.87
357.579	373.9
358.03	334.11
358.481	310.71
358.932	336.45
359.383	291.98
359.834	313.05
360.285	369.22
360.735	343.47
361.186	261.55
361.637	310.71
362.087	334.11
362.538	320.07
362.988	373.9
363.438	242.83
363.889	301.34
364.339	238.15
364.789	291.98
365.239	331.77
365.689	289.64
366.139	329.43
366.589	296.66
367.039	315.39
367.489	282.62
367.939	280.28
368.389	277.94
368.839	317.73
369.288	275.6
369.738	380.92
370.187	294.32
370.637	350.5
371.086	331.77
371.536	315.39
371.985	336.45
372.434	357.52
372.884	273.26
373.333	334.11
373.782	308.37
374.231	313.05
374.68	320.07
375.129	306.03
375.578	341.13
376.027	261.55
376.475	235.81
376.924	277.94
377.373	355.18
377.822	296.66
378.27	327.09
378.719	273.26
379.167	313.05
379.616	299
380.064	266.24
380.512	345.81
380.961	179.64
381.409	338.79
381.857	313.05
382.305	315.39
382.753	313.05
383.201	296.66
383.649	357.52
384.097	352.84
384.545	294.32
384.992	334.11
385.44	336.45
385.888	366.88
386.335	284.96
386.783	273.26
387.231	336.45
387.678	350.5
388.125	277.94
388.573	320.07
389.02	301.34
389.467	364.54
389.914	277.94
390.362	313.05
390.809	320.07
391.256	287.3
391.703	369.22
392.15	350.5
392.596	287.3
393.043	301.34
393.49	387.94
393.937	310.71
394.383	338.79
394.83	341.13
395.276	352.84
395.723	296.66
396.169	273.26
396.616	338.79
397.062	329.43
397.508	270.92
397.954	303.68
398.401	329.43
398.847	277.94
399.293	296.66
399.739	331.77
400.185	362.2
400.631	310.71
401.076	364.54
401.522	299
401.968	287.3
402.414	364.54
402.859	343.47
403.305	280.28
403.75	331.77
404.196	308.37
404.641	355.18
405.086	172.61
405.532	322.41
405.977	334.11
406.422	256.87
406.867	350.5
407.312	263.9
407.757	324.75
408.202	308.37
408.647	343.47
409.092	329.43
409.537	334.11
409.982	355.18
410.426	341.13
410.871	303.68
411.316	315.39
411.76	369.22
412.205	355.18
412.649	287.3
413.093	334.11
413.538	303.68
413.982	352.84
414.426	336.45
414.87	364.54
415.314	322.41
415.758	334.11
416.202	289.64
416.646	317.73
417.09	331.77
417.534	348.15
417.978	275.6
418.421	331.77
418.865	350.5
419.309	324.75
419.752	296.66
420.196	334.11
420.639	320.07
421.083	324.75
421.526	299
421.969	275.6
422.412	317.73
422.856	338.79
423.299	322.41
423.742	345.81
424.185	343.47
424.628	322.41
425.071	329.43
425.513	268.58
425.956	317.73
426.399	322.41
426.842	310.71
427.284	404.33
427.727	341.13
428.169	327.09
428.612	287.3
429.054	357.52
429.497	348.15
429.939	338.79
430.381	322.41
430.823	327.09
431.265	296.66
431.707	277.94
432.149	306.03
432.591	301.34
433.033	280.28
433.475	345.81
433.917	247.51
434.359	364.54
434.8	357.52
435.242	373.9
435.684	322.41
436.125	324.75
436.567	303.68
437.008	338.79
437.449	327.09
437.891	329.43
438.332	303.68
438.773	399.65
439.214	329.43
439.656	294.32
440.097	315.39
440.538	357.52
440.978	284.96
441.419	320.07
441.86	324.75
442.301	322.41
442.742	334.11
443.182	334.11
443.623	296.66
444.063	336.45
444.504	357.52
444.944	294.32
445.385	359.86
445.825	284.96
446.265	350.5
446.706	343.47
447.146	296.66
447.586	343.47
448.026	399.65
448.466	306.03
448.906	317.73
449.346	299
449.786	308.37
450.225	355.18
450.665	345.81
451.105	303.68
451.544	341.13
451.984	242.83
452.424	303.68
452.863	364.54
453.302	329.43
453.742	296.66
454.181	303.68
454.62	329.43
455.059	331.77
455.499	296.66
455.938	317.73
456.377	357.52
456.816	357.52
457.254	301.34
457.693	299
458.132	308.37
458.571	287.3
459.01	287.3
459.448	277.94
459.887	327.09
460.325	308.37
460.764	313.05
461.202	294.32
461.641	355.18
462.079	317.73
462.517	322.41
462.955	348.15
463.393	320.07
463.832	359.86
464.27	289.64
464.708	301.34
465.145	385.6
465.583	394.97
466.021	315.39
466.459	322.41
466.897	329.43
467.334	301.34
467.772	348.15
468.209	303.68
468.647	296.66
469.084	306.03
469.522	287.3
469.959	315.39
470.396	338.79
470.833	359.86
471.271	364.54
471.708	331.77
472.145	401.99
472.582	320.07
473.019	273.26
473.456	299
473.892	310.71
474.329	345.81
474.766	287.3
475.202	329.43
475.639	359.86
476.076	352.84
476.512	355.18
476.949	303.68
477.385	315.39
477.821	334.11
478.258	247.51
478.694	294.32
479.13	310.71
479.566	327.09
480.002	350.5
480.438	338.79
480.874	343.47
481.31	371.56
481.746	294.32
482.181	338.79
482.617	287.3
483.053	327.09
483.488	336.45
483.924	348.15
484.36	296.66
484.795	355.18
485.23	341.13
485.666	317.73
486.101	310.71
486.536	383.26
486.971	270.92
487.407	268.58
487.842	364.54
488.277	338.79
488.712	284.96
489.146	313.05
489.581	327.09
490.016	355.18
490.451	306.03
490.885	291.98
491.32	371.56
491.755	303.68
492.189	317.73
492.624	284.96
493.058	423.05
493.492	303.68
493.927	315.39
494.361	317.73
494.795	324.75
495.229	334.11
495.663	329.43
496.097	284.96
496.531	345.81
496.965	369.22
497.399	299
497.833	376.24
498.266	329.43
498.7	303.68
499.134	310.71
499.567	387.94
500.001	338.79
500.434	273.26
500.868	343.47
501.301	301.34
501.734	329.43
502.168	329.43
502.601	362.2
503.034	313.05
503.467	291.98
503.9	301.34
504.333	320.07
504.766	299
505.199	348.15
505.632	338.79
506.064	334.11
506.497	287.3
506.93	303.68
507.362	348.15
507.795	287.3
508.227	341.13
508.66	289.64
509.092	259.21
509.524	268.58
509.956	299
510.389	357.52
510.821	308.37
511.253	327.09
511.685	266.24
512.117	303.68
512.549	306.03
512.981	317.73
513.412	341.13
513.844	277.94
514.276	338.79
514.707	373.9
515.139	345.81
515.571	277.94
516.002	322.41
516.433	277.94
516.865	341.13
517.296	317.73
517.727	270.92
518.159	291.98
518.59	327.09
519.021	301.34
519.452	289.64
519.883	284.96
520.314	380.92
520.744	345.81
521.175	296.66
521.606	341.13
522.037	296.66
522.467	341.13
522.898	270.92
523.328	280.28
523.759	357.52
524.189	341.13
524.62	334.11
525.05	331.77
525.48	313.05
525.91	343.47
526.341	301.34
526.771	303.68
527.201	352.84
527.631	315.39
528.061	373.9
528.49	338.79
528.92	338.79
529.35	313.05
529.78	303.68
530.209	233.47
530.639	376.24
531.068	301.34
531.498	287.3
531.927	310.71
532.357	275.6
532.786	249.85
533.215	324.75
533.644	275.6
534.074	343.47
534.503	296.66
534.932	345.81
535.361	252.19
535.79	296.66
536.218	308.37
536.647	308.37
537.076	322.41
537.505	313.05
537.933	313.05
538.362	331.77
538.79	378.58
539.219	315.39
539.647	348.15
540.076	334.11
540.504	259.21
540.932	306.03
541.36	336.45
541.788	334.11
542.217	383.26
542.645	284.96
543.073	401.99
543.5	289.64
543.928	289.64
544.356	313.05
544.784	334.11
545.211	261.55
545.639	317.73
546.067	289.64
546.494	282.62
546.922	313.05
547.349	256.87
547.776	327.09
548.204	364.54
548.631	394.97
549.058	324.75
549.485	310.71
549.912	261.55
550.339	341.13
550.766	315.39
551.193	355.18
551.62	371.56
552.047	378.58
552.474	306.03
552.9	317.73
553.327	313.05
553.754	284.96
554.18	277.94
554.607	308.37
555.033	341.13
555.459	324.75
555.886	357.52
556.312	294.32
556.738	322.41
557.164	338.79
557.59	275.6
558.016	324.75
558.442	277.94
558.868	301.34
559.294	329.43
559.72	310.71
560.145	350.5
560.571	336.45
560.997	320.07
561.422	291.98
561.848	324.75
562.273	296.66
562.699	373.9
563.124	282.62
563.549	352.84
563.974	303.68
564.4	345.81
564.825	308.37
565.25	329.43
565.675	327.09
566.1	376.24
566.525	261.55
566.95	327.09
567.374	357.52
567.799	303.68
568.224	343.47
568.648	313.05
569.073	294.32
569.497	306.03
569.922	338.79
570.346	327.09
570.771	334.11
571.195	362.2
571.619	350.5
572.043	301.34
572.467	294.32
572.891	345.81
573.315	294.32
573.739	273.26
574.163	287.3
574.587	362.2
575.011	327.09
575.435	357.52
575.858	357.52
576.282	373.9
576.705	270.92
577.129	303.68
577.552	324.75
577.976	334.11
578.399	289.64
578.822	355.18
579.245	352.84
579.669	275.6
580.092	345.81
580.515	294.32
580.938	378.58
581.361	275.6
581.784	310.71
582.206	350.5
582.629	324.75
583.052	259.21
583.474	277.94
583.897	320.07
584.32	310.71
584.742	266.24
585.165	247.51
585.587	317.73
586.009	301.34
586.431	287.3
586.854	399.65
587.276	315.39
587.698	322.41
588.12	334.11
588.542	327.09
588.964	350.5
589.386	299
589.807	301.34
590.229	289.64
590.651	303.68
591.073	259.21
591.494	308.37
591.916	254.53
592.337	350.5
592.759	301.34
593.18	284.96
593.601	331.77
594.022	329.43
594.444	268.58
594.865	245.17
595.286	380.92
595.707	366.88
596.128	334.11
596.549	313.05
596.97	338.79
597.39	373.9
597.811	371.56
598.232	224.11
598.652	306.03
599.073	291.98
599.494	322.41
599.914	331.77
600.334	303.68
600.755	308.37
601.175	343.47
601.595	310.71
602.015	338.79
602.436	306.03
602.856	392.62
603.276	299
603.696	376.24
604.115	343.47
604.535	313.05
604.955	275.6
605.375	313.05
605.794	254.53
606.214	299
606.634	334.11
607.053	226.45
607.473	320.07
607.892	306.03
608.311	303.68
608.731	294.32
609.15	329.43
609.569	334.11
609.988	313.05
610.407	376.24
610.826	362.2
611.245	310.71
611.664	289.64
612.083	310.71
612.501	366.88
612.92	350.5
613.339	352.84
613.757	322.41
614.176	306.03
614.594	357.52
615.013	287.3
615.431	247.51
615.85	357.52
616.268	364.54
616.686	291.98
617.104	327.09
617.522	334.11
617.94	362.2
618.358	275.6
618.776	320.07
619.194	317.73
619.612	364.54
620.03	317.73
620.447	315.39
620.865	320.07
621.282	313.05
621.7	355.18
622.117	331.77
622.535	294.32
622.952	306.03
623.369	376.24
623.787	266.24
624.204	338.79
624.621	282.62
625.038	364.54
625.455	343.47
625.872	287.3
626.289	329.43
626.706	334.11
627.123	322.41
627.539	331.77
627.956	238.15
628.373	268.58
628.789	284.96
629.206	357.52
629.622	371.56
630.038	273.26
630.455	341.13
630.871	315.39
631.287	371.56
631.703	327.09
632.12	324.75
632.536	334.11
632.952	308.37
633.368	387.94
633.783	327.09
634.199	294.32
634.615	313.05
635.031	284.96
635.446	385.6
635.862	308.37
636.277	357.52
636.693	324.75
637.108	235.81
637.524	366.88
637.939	317.73
638.354	390.28
638.77	308.37
639.185	315.39
639.6	352.84
640.015	308.37
640.43	359.86
640.845	294.32
641.259	308.37
641.674	373.9
642.089	336.45
642.504	310.71
642.918	296.66
643.333	313.05
643.747	355.18
644.162	284.96
644.576	306.03
644.991	313.05
645.405	343.47
645.819	284.96
646.233	263.9
646.647	383.26
647.061	352.84
647.475	331.77
647.889	404.33
648.303	324.75
648.717	308.37
649.131	327.09
649.545	282.62
649.958	338.79
650.372	345.81
650.785	331.77
651.199	313.05
651.612	282.62
652.026	296.66
652.439	294.32
652.852	357.52
653.266	338.79
653.679	320.07
654.092	359.86
654.505	338.79
654.918	310.71
655.331	334.11
655.744	268.58
656.156	301.34
656.569	259.21
656.982	301.34
657.394	289.64
657.807	359.86
658.22	357.52
658.632	294.32
659.044	291.98
659.457	280.28
659.869	315.39
660.281	334.11
660.693	357.52
661.106	376.24
661.518	317.73
661.93	252.19
662.342	313.05
662.754	390.28
663.165	334.11
663.577	364.54
663.989	364.54
664.401	273.26
664.812	341.13
665.224	308.37
665.635	280.28
666.047	322.41
666.458	282.62
666.869	282.62
667.281	289.64
667.692	294.32
668.103	324.75
668.514	329.43
668.925	338.79
669.336	322.41
669.747	310.71
670.158	256.87
670.569	315.39
670.979	282.62
671.39	324.75
671.801	380.92
672.211	306.03
672.622	322.41
673.032	334.11
673.443	359.86
673.853	303.68
674.263	289.64
674.674	291.98
675.084	270.92
675.494	338.79
675.904	282.62
676.314	313.05
676.724	343.47
677.134	313.05
677.544	376.24
677.953	287.3
678.363	245.17
678.773	411.35
679.182	362.2
679.592	329.43
680.001	383.26
680.411	291.98
680.82	345.81
681.23	359.86
681.639	291.98
682.048	289.64
682.457	282.62
682.866	308.37
683.275	371.56
683.684	343.47
684.093	331.77
684.502	348.15
684.911	280.28
685.32	294.32
685.728	322.41
686.137	315.39
686.546	306.03
686.954	355.18
687.363	306.03
687.771	329.43
688.179	345.81
688.588	327.09
688.996	289.64
689.404	294.32
689.812	310.71
690.22	284.96
690.628	364.54
691.036	327.09
691.444	343.47
691.852	291.98
692.26	371.56
692.667	294.32
693.075	275.6
693.483	294.32
693.89	343.47
694.298	327.09
694.705	221.77
695.112	343.47
695.52	291.98
695.927	322.41
696.334	336.45
696.741	294.32
697.148	270.92
697.555	334.11
697.962	338.79
698.369	313.05
698.776	376.24
699.183	313.05
699.59	303.68
699.996	301.34
700.403	338.79
700.81	310.71
701.216	315.39
701.623	273.26
702.029	352.84
702.435	329.43
702.842	385.6
703.248	378.58
703.654	329.43
704.06	336.45
704.466	357.52
704.872	310.71
705.278	315.39
705.684	324.75
706.09	313.05
706.496	352.84
706.901	287.3
707.307	350.5
707.712	341.13
708.118	352.84
708.523	280.28
708.929	299
709.334	334.11
709.74	306.03
710.145	341.13
710.55	317.73
710.955	341.13
711.36	247.51
711.765	289.64
712.17	301.34
712.575	327.09
712.98	769.45
713.385	343.47
713.789	308.37
714.194	268.58
714.599	331.77
715.003	362.2
715.408	270.92
715.812	308.37
716.217	261.55
716.621	291.98
717.025	299
717.429	266.24
717.833	303.68
718.238	252.19
718.642	324.75
719.046	341.13
719.449	315.39
719.853	254.53
720.257	317.73
720.661	308.37
721.065	277.94
721.468	322.41
721.872	338.79
722.275	350.5
722.679	327.09
723.082	331.77
723.485	263.9
723.889	390.28
724.292	315.39
724.695	284.96
725.098	352.84
725.501	310.71
725.904	214.74
726.307	406.67
726.71	399.65
727.113	308.37
727.516	320.07
727.918	308.37
728.321	343.47
728.724	350.5
729.126	313.05
729.529	324.75
729.931	313.05
730.333	341.13
730.736	310.71
731.138	348.15
731.54	331.77
731.942	324.75
732.344	287.3
732.746	352.84
733.148	329.43
733.55	240.49
733.952	299
734.354	341.13
734.756	284.96
735.157	254.53
735.559	350.5
735.96	317.73
736.362	315.39
736.763	306.03
737.165	362.2
737.566	306.03
737.967	378.58
738.368	327.09
738.77	289.64
739.171	317.73
739.572	331.77
739.973	371.56
740.374	327.09
740.774	284.96
741.175	322.41
741.576	366.88
741.977	341.13
742.377	299
742.778	268.58
743.178	343.47
743.579	273.26
743.979	291.98
744.379	317.73
744.78	369.22
745.18	341.13
745.58	310.71
745.98	371.56
746.38	299
746.78	282.62
747.18	315.39
747.58	343.47
747.98	303.68
748.38	284.96
748.779	268.58
749.179	280.28
749.578	308.37
749.978	338.79
750.377	310.71
750.777	280.28
751.176	247.51
751.575	294.32
751.975	273.26
752.374	301.34
752.773	341.13
753.172	324.75
753.571	380.92
753.97	390.28
754.369	338.79
754.768	291.98
755.166	331.77
755.565	336.45
755.964	317.73
756.362	306.03
756.761	352.84
757.159	320.07
757.558	327.09
757.956	378.58
758.354	369.22
758.753	284.96
759.151	329.43
759.549	364.54
759.947	324.75
760.345	249.85
760.743	394.97
761.141	352.84
761.539	299
761.936	331.77
762.334	331.77
762.732	348.15
763.129	397.31
763.527	284.96
763.924	301.34
764.322	273.26
764.719	291.98
765.117	329.43
765.514	334.11
765.911	245.17
766.308	315.39
