Data from Al_FLMS009871__503__14-38-38-327.txt Node

Date: Fri Mar 08 14:38:38 CST 2024
User: pe5414po
Spectrometer: FLMS00987
Trigger mode: 0
Integration Time (sec): 1.000000E-1
Scans to average: 1
Electric dark correction enabled: true
Nonlinearity correction enabled: false
Boxcar width: 0
XAxis mode: Wavelengths
Number of Pixels in Spectrum: 2048
>>>>>Begin Spectral Data<<<<<
188.938	-15.94
189.409	-15.94
189.879	-15.94
190.349	-137.65
190.819	-107.23
191.29	-102.54
191.76	-65.1
192.23	-97.86
192.7	-51.05
193.17	-44.03
193.64	-60.42
194.109	-37.01
194.579	-48.71
195.049	-39.35
195.519	42.57
195.988	-25.31
196.458	84.7
196.927	77.68
197.397	133.85
197.866	161.94
198.336	70.65
198.805	140.87
199.274	154.91
199.744	197.04
200.213	229.81
200.682	241.51
201.151	215.77
201.62	250.88
202.089	220.45
202.558	232.15
203.027	246.2
203.495	351.52
203.964	297.69
204.433	246.2
204.902	293.01
205.37	229.81
205.839	264.92
206.307	246.2
206.776	309.39
207.244	309.39
207.712	278.96
208.181	370.24
208.649	300.03
209.117	239.17
209.585	318.75
210.053	246.2
210.521	236.83
210.989	314.07
211.457	260.24
211.925	314.07
212.393	267.26
212.861	253.22
213.328	311.73
213.796	278.96
214.264	325.77
214.731	269.6
215.199	290.67
215.666	257.9
216.133	232.15
216.601	297.69
217.068	264.92
217.535	229.81
218.003	255.56
218.47	330.45
218.937	260.24
219.404	295.35
219.871	246.2
220.338	267.26
220.805	243.85
221.271	302.37
221.738	227.47
222.205	262.58
222.671	260.24
223.138	215.77
223.605	262.58
224.071	267.26
224.538	281.3
225.004	274.28
225.47	271.94
225.937	239.17
226.403	232.15
226.869	243.85
227.335	262.58
227.801	257.9
228.267	358.54
228.733	232.15
229.199	276.62
229.665	262.58
230.131	278.96
230.597	257.9
231.062	274.28
231.528	288.32
231.994	253.22
232.459	288.32
232.925	274.28
233.39	239.17
233.856	307.05
234.321	220.45
234.786	213.43
235.252	257.9
235.717	293.01
236.182	246.2
236.647	274.28
237.112	260.24
237.577	311.73
238.042	229.81
238.507	239.17
238.972	309.39
239.436	232.15
239.901	285.98
240.366	316.41
240.83	278.96
241.295	192.36
241.76	325.77
242.224	283.64
242.688	274.28
243.153	236.83
243.617	227.47
244.081	241.51
244.545	253.22
245.01	229.81
245.474	295.35
245.938	234.49
246.402	264.92
246.866	253.22
247.33	302.37
247.793	222.79
248.257	271.94
248.721	267.26
249.185	239.17
249.648	276.62
250.112	278.96
250.575	253.22
251.039	232.15
251.502	204.07
251.965	260.24
252.429	302.37
252.892	281.3
253.355	246.2
253.818	232.15
254.281	311.73
254.744	211.09
255.207	318.75
255.67	220.45
256.133	222.79
256.596	271.94
257.059	255.56
257.522	295.35
257.984	311.73
258.447	307.05
258.909	346.84
259.372	201.72
259.834	293.01
260.297	314.07
260.759	199.38
261.221	239.17
261.684	316.41
262.146	300.03
262.608	293.01
263.07	290.67
263.532	227.47
263.994	302.37
264.456	239.17
264.918	187.68
265.38	271.94
265.842	281.3
266.303	323.43
266.765	278.96
267.227	290.67
267.688	239.17
268.15	257.9
268.611	274.28
269.072	255.56
269.534	328.11
269.995	302.37
270.456	283.64
270.918	243.85
271.379	234.49
271.84	276.62
272.301	323.43
272.762	271.94
273.223	197.04
273.684	239.17
274.144	278.96
274.605	264.92
275.066	304.71
275.527	314.07
275.987	274.28
276.448	302.37
276.908	337.48
277.369	288.32
277.829	307.05
278.289	285.98
278.75	323.43
279.21	281.3
279.67	246.2
280.13	278.96
280.59	288.32
281.05	307.05
281.51	314.07
281.97	346.84
282.43	293.01
282.89	316.41
283.35	302.37
283.809	297.69
284.269	300.03
284.729	314.07
285.188	278.96
285.648	220.45
286.107	185.34
286.567	290.67
287.026	264.92
287.485	283.64
287.944	321.09
288.404	339.82
288.863	285.98
289.322	309.39
289.781	281.3
290.24	342.16
290.699	328.11
291.158	311.73
291.616	342.16
292.075	281.3
292.534	274.28
292.992	295.35
293.451	314.07
293.91	330.45
294.368	271.94
294.827	262.58
295.285	316.41
295.743	274.28
296.202	332.79
296.66	328.11
297.118	318.75
297.576	227.47
298.034	295.35
298.492	316.41
298.95	300.03
299.408	276.62
299.866	332.79
300.324	232.15
300.781	297.69
301.239	267.26
301.697	278.96
302.154	278.96
302.612	325.77
303.069	250.88
303.527	218.11
303.984	307.05
304.441	283.64
304.899	321.09
305.356	264.92
305.813	370.24
306.27	293.01
306.727	337.48
307.184	229.81
307.641	309.39
308.098	302.37
308.555	346.84
309.012	304.71
309.468	335.14
309.925	332.79
310.382	281.3
310.838	314.07
311.295	344.5
311.751	297.69
312.208	288.32
312.664	314.07
313.12	335.14
313.577	246.2
314.033	297.69
314.489	330.45
314.945	278.96
315.401	293.01
315.857	281.3
316.313	241.51
316.769	304.71
317.225	288.32
317.681	285.98
318.136	285.98
318.592	283.64
319.048	367.9
319.503	264.92
319.959	293.01
320.414	311.73
320.869	342.16
321.325	285.98
321.78	225.13
322.235	314.07
322.691	379.61
323.146	307.05
323.601	283.64
324.056	276.62
324.511	236.83
324.966	321.09
325.421	264.92
325.875	342.16
326.33	353.86
326.785	309.39
327.24	300.03
327.694	342.16
328.149	269.6
328.603	293.01
329.058	328.11
329.512	309.39
329.966	278.96
330.421	363.22
330.875	309.39
331.329	328.11
331.783	285.98
332.237	297.69
332.691	335.14
333.145	309.39
333.599	281.3
334.053	269.6
334.507	321.09
334.96	250.88
335.414	309.39
335.868	309.39
336.321	293.01
336.775	276.62
337.228	227.47
337.682	285.98
338.135	309.39
338.588	370.24
339.042	302.37
339.495	271.94
339.948	283.64
340.401	337.48
340.854	363.22
341.307	262.58
341.76	304.71
342.213	346.84
342.666	290.67
343.119	293.01
343.571	271.94
344.024	307.05
344.477	314.07
344.929	356.2
345.382	271.94
345.834	220.45
346.287	321.09
346.739	264.92
347.191	295.35
347.644	318.75
348.096	283.64
348.548	337.48
349	300.03
349.452	278.96
349.904	337.48
350.356	248.54
350.808	271.94
351.26	332.79
351.711	311.73
352.163	337.48
352.615	353.86
353.066	318.75
353.518	288.32
353.969	309.39
354.421	234.49
354.872	307.05
355.324	243.85
355.775	335.14
356.226	295.35
356.677	323.43
357.128	353.86
357.579	285.98
358.03	260.24
358.481	321.09
358.932	344.5
359.383	367.9
359.834	307.05
360.285	293.01
360.735	337.48
361.186	349.18
361.637	300.03
362.087	269.6
362.538	304.71
362.988	360.88
363.438	290.67
363.889	300.03
364.339	335.14
364.789	307.05
365.239	297.69
365.689	337.48
366.139	304.71
366.589	321.09
367.039	335.14
367.489	335.14
367.939	285.98
368.389	358.54
368.839	370.24
369.288	321.09
369.738	274.28
370.187	339.82
370.637	295.35
371.086	377.27
371.536	314.07
371.985	346.84
372.434	271.94
372.884	264.92
373.333	300.03
373.782	246.2
374.231	351.52
374.68	337.48
375.129	253.22
375.578	300.03
376.027	304.71
376.475	330.45
376.924	337.48
377.373	295.35
377.822	309.39
378.27	218.11
378.719	314.07
379.167	300.03
379.616	278.96
380.064	271.94
380.512	206.41
380.961	307.05
381.409	309.39
381.857	358.54
382.305	323.43
382.753	225.13
383.201	278.96
383.649	304.71
384.097	337.48
384.545	232.15
384.992	257.9
385.44	330.45
385.888	321.09
386.335	304.71
386.783	335.14
387.231	288.32
387.678	351.52
388.125	332.79
388.573	297.69
389.02	250.88
389.467	302.37
389.914	311.73
390.362	297.69
390.809	269.6
391.256	278.96
391.703	342.16
392.15	304.71
392.596	344.5
393.043	255.56
393.49	325.77
393.937	260.24
394.383	325.77
394.83	363.22
395.276	285.98
395.723	321.09
396.169	335.14
396.616	255.56
397.062	293.01
397.508	297.69
397.954	323.43
398.401	363.22
398.847	295.35
399.293	290.67
399.739	339.82
400.185	353.86
400.631	367.9
401.076	321.09
401.522	351.52
401.968	314.07
402.414	325.77
402.859	337.48
403.305	267.26
403.75	269.6
404.196	349.18
404.641	278.96
405.086	342.16
405.532	358.54
405.977	325.77
406.422	337.48
406.867	344.5
407.312	353.86
407.757	337.48
408.202	302.37
408.647	239.17
409.092	339.82
409.537	321.09
409.982	285.98
410.426	239.17
410.871	344.5
411.316	314.07
411.76	328.11
412.205	283.64
412.649	358.54
413.093	269.6
413.538	269.6
413.982	332.79
414.426	239.17
414.87	276.62
415.314	288.32
415.758	307.05
416.202	302.37
416.646	255.56
417.09	288.32
417.534	363.22
417.978	330.45
418.421	304.71
418.865	351.52
419.309	316.41
419.752	278.96
420.196	300.03
420.639	283.64
421.083	278.96
421.526	274.28
421.969	274.28
422.412	328.11
422.856	253.22
423.299	264.92
423.742	328.11
424.185	332.79
424.628	267.26
425.071	304.71
425.513	314.07
425.956	262.58
426.399	293.01
426.842	307.05
427.284	246.2
427.727	288.32
428.169	323.43
428.612	314.07
429.054	274.28
429.497	276.62
429.939	293.01
430.381	321.09
430.823	325.77
431.265	276.62
431.707	307.05
432.149	318.75
432.591	323.43
433.033	335.14
433.475	335.14
433.917	358.54
434.359	309.39
434.8	321.09
435.242	307.05
435.684	349.18
436.125	290.67
436.567	239.17
437.008	323.43
437.449	339.82
437.891	332.79
438.332	300.03
438.773	311.73
439.214	250.88
439.656	290.67
440.097	288.32
440.538	342.16
440.978	365.56
441.419	255.56
441.86	290.67
442.301	297.69
442.742	344.5
443.182	309.39
443.623	290.67
444.063	346.84
444.504	311.73
444.944	358.54
445.385	388.97
445.825	295.35
446.265	323.43
446.706	337.48
447.146	314.07
447.586	297.69
448.026	321.09
448.466	278.96
448.906	304.71
449.346	250.88
449.786	274.28
450.225	314.07
450.665	353.86
451.105	311.73
451.544	274.28
451.984	356.2
452.424	302.37
452.863	288.32
453.302	328.11
453.742	300.03
454.181	304.71
454.62	248.54
455.059	302.37
455.499	356.2
455.938	337.48
456.377	339.82
456.816	344.5
457.254	285.98
457.693	314.07
458.132	304.71
458.571	304.71
459.01	283.64
459.448	293.01
459.887	353.86
460.325	232.15
460.764	316.41
461.202	328.11
461.641	309.39
462.079	325.77
462.517	293.01
462.955	363.22
463.393	276.62
463.832	267.26
464.27	302.37
464.708	295.35
465.145	283.64
465.583	330.45
466.021	288.32
466.459	309.39
466.897	311.73
467.334	271.94
467.772	323.43
468.209	269.6
468.647	328.11
469.084	309.39
469.522	360.88
469.959	255.56
470.396	377.27
470.833	300.03
471.271	337.48
471.708	269.6
472.145	332.79
472.582	328.11
473.019	267.26
473.456	281.3
473.892	302.37
474.329	288.32
474.766	337.48
475.202	335.14
475.639	360.88
476.076	332.79
476.512	400.67
476.949	356.2
477.385	283.64
477.821	302.37
478.258	278.96
478.694	302.37
479.13	304.71
479.566	304.71
480.002	314.07
480.438	321.09
480.874	342.16
481.31	330.45
481.746	377.27
482.181	297.69
482.617	323.43
483.053	321.09
483.488	285.98
483.924	314.07
484.36	307.05
484.795	339.82
485.23	351.52
485.666	227.47
486.101	325.77
486.536	386.63
486.971	337.48
487.407	339.82
487.842	356.2
488.277	278.96
488.712	365.56
489.146	257.9
489.581	234.49
490.016	300.03
490.451	269.6
490.885	262.58
491.32	288.32
491.755	342.16
492.189	346.84
492.624	307.05
493.058	314.07
493.492	335.14
493.927	264.92
494.361	309.39
494.795	260.24
495.229	311.73
495.663	293.01
496.097	262.58
496.531	323.43
496.965	302.37
497.399	342.16
497.833	328.11
498.266	323.43
498.7	274.28
499.134	346.84
499.567	353.86
500.001	304.71
500.434	325.77
500.868	300.03
501.301	323.43
501.734	335.14
502.168	316.41
502.601	335.14
503.034	318.75
503.467	302.37
503.9	311.73
504.333	307.05
504.766	269.6
505.199	342.16
505.632	290.67
506.064	300.03
506.497	316.41
506.93	283.64
507.362	302.37
507.795	290.67
508.227	300.03
508.66	250.88
509.092	267.26
509.524	262.58
509.956	346.84
510.389	253.22
510.821	316.41
511.253	344.5
511.685	215.77
512.117	304.71
512.549	243.85
512.981	330.45
513.412	358.54
513.844	337.48
514.276	311.73
514.707	300.03
515.139	290.67
515.571	290.67
516.002	304.71
516.433	332.79
516.865	332.79
517.296	300.03
517.727	295.35
518.159	377.27
518.59	321.09
519.021	325.77
519.452	318.75
519.883	293.01
520.314	346.84
520.744	309.39
521.175	316.41
521.606	304.71
522.037	309.39
522.467	314.07
522.898	271.94
523.328	288.32
523.759	335.14
524.189	351.52
524.62	288.32
525.05	342.16
525.48	293.01
525.91	283.64
526.341	293.01
526.771	321.09
527.201	232.15
527.631	281.3
528.061	314.07
528.49	351.52
528.92	295.35
529.35	325.77
529.78	337.48
530.209	307.05
530.639	321.09
531.068	302.37
531.498	307.05
531.927	314.07
532.357	339.82
532.786	318.75
533.215	323.43
533.644	311.73
534.074	250.88
534.503	314.07
534.932	356.2
535.361	330.45
535.79	300.03
536.218	297.69
536.647	321.09
537.076	332.79
537.505	346.84
537.933	323.43
538.362	321.09
538.79	351.52
539.219	349.18
539.647	295.35
540.076	358.54
540.504	285.98
540.932	269.6
541.36	281.3
541.788	297.69
542.217	346.84
542.645	316.41
543.073	325.77
543.5	281.3
543.928	316.41
544.356	304.71
544.784	330.45
545.211	330.45
545.639	346.84
546.067	297.69
546.494	358.54
546.922	253.22
547.349	253.22
547.776	281.3
548.204	274.28
548.631	309.39
549.058	318.75
549.485	290.67
549.912	281.3
550.339	314.07
550.766	295.35
551.193	314.07
551.62	337.48
552.047	300.03
552.474	307.05
552.9	213.43
553.327	363.22
553.754	285.98
554.18	314.07
554.607	283.64
555.033	302.37
555.459	339.82
555.886	325.77
556.312	381.95
556.738	318.75
557.164	351.52
557.59	314.07
558.016	307.05
558.442	400.67
558.868	295.35
559.294	353.86
559.72	236.83
560.145	283.64
560.571	349.18
560.997	311.73
561.422	311.73
561.848	276.62
562.273	328.11
562.699	271.94
563.124	285.98
563.549	323.43
563.974	311.73
564.4	318.75
564.825	281.3
565.25	339.82
565.675	264.92
566.1	314.07
566.525	332.79
566.95	370.24
567.374	290.67
567.799	295.35
568.224	325.77
568.648	307.05
569.073	274.28
569.497	356.2
569.922	367.9
570.346	278.96
570.771	297.69
571.195	271.94
571.619	295.35
572.043	370.24
572.467	363.22
572.891	321.09
573.315	248.54
573.739	339.82
574.163	367.9
574.587	316.41
575.011	304.71
575.435	321.09
575.858	356.2
576.282	309.39
576.705	283.64
577.129	325.77
577.552	342.16
577.976	271.94
578.399	337.48
578.822	262.58
579.245	274.28
579.669	236.83
580.092	328.11
580.515	304.71
580.938	229.81
581.361	323.43
581.784	337.48
582.206	290.67
582.629	335.14
583.052	349.18
583.474	307.05
583.897	323.43
584.32	337.48
584.742	250.88
585.165	328.11
585.587	264.92
586.009	307.05
586.431	253.22
586.854	264.92
587.276	323.43
587.698	309.39
588.12	255.56
588.542	323.43
588.964	342.16
589.386	335.14
589.807	356.2
590.229	271.94
590.651	330.45
591.073	311.73
591.494	321.09
591.916	323.43
592.337	267.26
592.759	309.39
593.18	285.98
593.601	314.07
594.022	278.96
594.444	339.82
594.865	295.35
595.286	232.15
595.707	335.14
596.128	353.86
596.549	276.62
596.97	260.24
597.39	363.22
597.811	307.05
598.232	264.92
598.652	358.54
599.073	349.18
599.494	293.01
599.914	283.64
600.334	314.07
600.755	332.79
601.175	290.67
601.595	318.75
602.015	304.71
602.436	307.05
602.856	513.02
603.276	384.29
603.696	262.58
604.115	335.14
604.535	316.41
604.955	321.09
605.375	295.35
605.794	323.43
606.214	353.86
606.634	307.05
607.053	295.35
607.473	330.45
607.892	311.73
608.311	274.28
608.731	381.95
609.15	344.5
609.569	346.84
609.988	300.03
610.407	332.79
610.826	321.09
611.245	325.77
611.664	318.75
612.083	281.3
612.501	321.09
612.92	309.39
613.339	344.5
613.757	346.84
614.176	323.43
614.594	323.43
615.013	295.35
615.431	358.54
615.85	407.69
616.268	316.41
616.686	330.45
617.104	339.82
617.522	309.39
617.94	283.64
618.358	293.01
618.776	276.62
619.194	197.04
619.612	304.71
620.03	332.79
620.447	318.75
620.865	311.73
621.282	332.79
621.7	293.01
622.117	307.05
622.535	290.67
622.952	295.35
623.369	264.92
623.787	342.16
624.204	311.73
624.621	253.22
625.038	316.41
625.455	257.9
625.872	316.41
626.289	281.3
626.706	300.03
627.123	307.05
627.539	288.32
627.956	274.28
628.373	304.71
628.789	281.3
629.206	335.14
629.622	269.6
630.038	318.75
630.455	316.41
630.871	314.07
631.287	386.63
631.703	264.92
632.12	309.39
632.536	311.73
632.952	283.64
633.368	243.85
633.783	304.71
634.199	267.26
634.615	309.39
635.031	281.3
635.446	309.39
635.862	302.37
636.277	307.05
636.693	328.11
637.108	276.62
637.524	379.61
637.939	309.39
638.354	274.28
638.77	285.98
639.185	335.14
639.6	335.14
640.015	360.88
640.43	276.62
640.845	293.01
641.259	293.01
641.674	391.31
642.089	325.77
642.504	353.86
642.918	318.75
643.333	356.2
643.747	250.88
644.162	283.64
644.576	274.28
644.991	295.35
645.405	337.48
645.819	278.96
646.233	318.75
646.647	285.98
647.061	335.14
647.475	309.39
647.889	307.05
648.303	337.48
648.717	311.73
649.131	288.32
649.545	248.54
649.958	321.09
650.372	290.67
650.785	295.35
651.199	339.82
651.612	283.64
652.026	337.48
652.439	337.48
652.852	372.58
653.266	285.98
653.679	285.98
654.092	323.43
654.505	295.35
654.918	330.45
655.331	321.09
655.744	321.09
656.156	316.41
656.569	269.6
656.982	257.9
657.394	318.75
657.807	276.62
658.22	335.14
658.632	358.54
659.044	288.32
659.457	271.94
659.869	288.32
660.281	288.32
660.693	304.71
661.106	311.73
661.518	295.35
661.93	367.9
662.342	246.2
662.754	311.73
663.165	332.79
663.577	316.41
663.989	300.03
664.401	328.11
664.812	365.56
665.224	255.56
665.635	255.56
666.047	271.94
666.458	309.39
666.869	342.16
667.281	332.79
667.692	314.07
668.103	314.07
668.514	309.39
668.925	349.18
669.336	344.5
669.747	311.73
670.158	311.73
670.569	323.43
670.979	281.3
671.39	241.51
671.801	365.56
672.211	300.03
672.622	274.28
673.032	304.71
673.443	293.01
673.853	318.75
674.263	370.24
674.674	285.98
675.084	297.69
675.494	257.9
675.904	281.3
676.314	321.09
676.724	302.37
677.134	288.32
677.544	339.82
677.953	290.67
678.363	276.62
678.773	304.71
679.182	288.32
679.592	314.07
680.001	285.98
680.411	264.92
680.82	367.9
681.23	335.14
681.639	321.09
682.048	321.09
682.457	295.35
682.866	285.98
683.275	297.69
683.684	290.67
684.093	346.84
684.502	344.5
684.911	293.01
685.32	330.45
685.728	318.75
686.137	309.39
686.546	391.31
686.954	314.07
687.363	295.35
687.771	309.39
688.179	393.65
688.588	316.41
688.996	372.58
689.404	339.82
689.812	356.2
690.22	370.24
690.628	288.32
691.036	288.32
691.444	314.07
691.852	328.11
692.26	330.45
692.667	330.45
693.075	339.82
693.483	278.96
693.89	257.9
694.298	388.97
694.705	290.67
695.112	285.98
695.52	302.37
695.927	302.37
696.334	293.01
696.741	328.11
697.148	274.28
697.555	323.43
697.962	384.29
698.369	285.98
698.776	337.48
699.183	257.9
699.59	264.92
699.996	290.67
700.403	297.69
700.81	290.67
701.216	293.01
701.623	253.22
702.029	314.07
702.435	283.64
702.842	281.3
703.248	281.3
703.654	356.2
704.06	297.69
704.466	318.75
704.872	304.71
705.278	309.39
705.684	295.35
706.09	288.32
706.496	281.3
706.901	316.41
707.307	346.84
707.712	264.92
708.118	321.09
708.523	328.11
708.929	353.86
709.334	276.62
709.74	332.79
710.145	351.52
710.55	290.67
710.955	339.82
711.36	325.77
711.765	307.05
712.17	255.56
712.575	304.71
712.98	814.95
713.385	325.77
713.789	302.37
714.194	281.3
714.599	264.92
715.003	314.07
715.408	278.96
715.812	248.54
716.217	300.03
716.621	342.16
717.025	274.28
717.429	307.05
717.833	246.2
718.238	337.48
718.642	255.56
719.046	304.71
719.449	311.73
719.853	290.67
720.257	295.35
720.661	309.39
721.065	278.96
721.468	267.26
721.872	309.39
722.275	274.28
722.679	328.11
723.082	307.05
723.485	264.92
723.889	328.11
724.292	271.94
724.695	309.39
725.098	339.82
725.501	314.07
725.904	281.3
726.307	262.58
726.71	309.39
727.113	342.16
727.516	330.45
727.918	318.75
728.321	332.79
728.724	304.71
729.126	307.05
729.529	285.98
729.931	253.22
730.333	250.88
730.736	288.32
731.138	274.28
731.54	330.45
731.942	328.11
732.344	307.05
732.746	297.69
733.148	328.11
733.55	239.17
733.952	276.62
734.354	339.82
734.756	353.86
735.157	323.43
735.559	311.73
735.96	339.82
736.362	267.26
736.763	288.32
737.165	381.95
737.566	253.22
737.967	243.85
738.368	363.22
738.77	330.45
739.171	297.69
739.572	295.35
739.973	314.07
740.374	321.09
740.774	271.94
741.175	293.01
741.576	367.9
741.977	307.05
742.377	239.17
742.778	314.07
743.178	295.35
743.579	267.26
743.979	260.24
744.379	325.77
744.78	293.01
745.18	325.77
745.58	274.28
745.98	330.45
746.38	274.28
746.78	253.22
747.18	335.14
747.58	276.62
747.98	300.03
748.38	276.62
748.779	356.2
749.179	236.83
749.578	302.37
749.978	318.75
750.377	297.69
750.777	262.58
751.176	271.94
751.575	281.3
751.975	267.26
752.374	353.86
752.773	267.26
753.172	295.35
753.571	271.94
753.97	288.32
754.369	302.37
754.768	260.24
755.166	302.37
755.565	323.43
755.964	330.45
756.362	318.75
756.761	307.05
757.159	332.79
757.558	349.18
757.956	248.54
758.354	271.94
758.753	307.05
759.151	321.09
759.549	276.62
759.947	307.05
760.345	309.39
760.743	321.09
761.141	234.49
761.539	293.01
761.936	316.41
762.334	318.75
762.732	323.43
763.129	281.3
763.527	356.2
763.924	386.63
764.322	290.67
