Data from Al_FLMS009871__519__14-38-39-927.txt Node

Date: Fri Mar 08 14:38:39 CST 2024
User: pe5414po
Spectrometer: FLMS00987
Trigger mode: 0
Integration Time (sec): 1.000000E-1
Scans to average: 1
Electric dark correction enabled: true
Nonlinearity correction enabled: false
Boxcar width: 0
XAxis mode: Wavelengths
Number of Pixels in Spectrum: 2048
>>>>>Begin Spectral Data<<<<<
188.938	-55.3
189.409	-55.3
189.879	-55.3
190.349	-111.47
190.819	-50.61
191.29	-102.11
191.76	-130.19
192.23	-31.89
192.7	-74.02
193.17	-71.68
193.64	-13.17
194.109	-22.53
194.579	-48.27
195.049	33.65
195.519	28.96
195.988	31.3
196.458	64.07
196.927	73.43
197.397	82.8
197.866	80.46
198.336	99.18
198.805	138.97
199.274	82.8
199.744	185.78
200.213	223.23
200.682	176.42
201.151	274.72
201.62	279.4
202.089	204.5
202.558	251.32
203.027	204.5
203.495	230.25
203.964	307.49
204.433	246.63
204.902	246.63
205.37	223.23
205.839	284.08
206.307	246.63
206.776	295.79
207.244	225.57
207.712	284.08
208.181	239.61
208.649	314.51
209.117	241.95
209.585	286.42
210.053	267.7
210.521	288.76
210.989	241.95
211.457	321.53
211.925	241.95
212.393	270.04
212.861	284.08
213.328	241.95
213.796	239.61
214.264	241.95
214.731	237.27
215.199	244.29
215.666	260.68
216.133	335.57
216.601	288.76
217.068	305.15
217.535	295.79
218.003	279.4
218.47	298.13
218.937	237.27
219.404	284.08
219.871	251.32
220.338	270.04
220.805	232.59
221.271	211.53
221.738	244.29
222.205	251.32
222.671	232.59
223.138	232.59
223.605	223.23
224.071	248.97
224.538	227.91
225.004	256
225.47	237.27
225.937	260.68
226.403	302.81
226.869	291.1
227.335	267.7
227.801	286.42
228.267	307.49
228.733	230.25
229.199	244.29
229.665	227.91
230.131	223.23
230.597	321.53
231.062	274.72
231.528	277.06
231.994	272.38
232.459	195.14
232.925	323.87
233.39	225.57
233.856	279.4
234.321	305.15
234.786	227.91
235.252	274.72
235.717	300.47
236.182	302.81
236.647	326.21
237.112	248.97
237.577	258.34
238.042	319.19
238.507	225.57
238.972	232.59
239.436	321.53
239.901	237.27
240.366	239.61
240.83	314.51
241.295	288.76
241.76	239.61
242.224	248.97
242.688	237.27
243.153	316.85
243.617	251.32
244.081	316.85
244.545	270.04
245.01	267.7
245.474	349.62
245.938	227.91
246.402	251.32
246.866	265.36
247.33	284.08
247.793	291.1
248.257	206.84
248.721	199.82
249.185	295.79
249.648	361.32
250.112	286.42
250.575	323.87
251.039	300.47
251.502	293.44
251.965	260.68
252.429	279.4
252.892	330.89
253.355	305.15
253.818	267.7
254.281	312.17
254.744	326.21
255.207	314.51
255.67	284.08
256.133	274.72
256.596	323.87
257.059	288.76
257.522	251.32
257.984	309.83
258.447	295.79
258.909	316.85
259.372	302.81
259.834	293.44
260.297	253.66
260.759	260.68
261.221	340.26
261.684	244.29
262.146	277.06
262.608	291.1
263.07	251.32
263.532	248.97
263.994	239.61
264.456	335.57
264.918	267.7
265.38	326.21
265.842	241.95
266.303	246.63
266.765	316.85
267.227	330.89
267.688	293.44
268.15	284.08
268.611	333.23
269.072	260.68
269.534	295.79
269.995	328.55
270.456	263.02
270.918	246.63
271.379	241.95
271.84	279.4
272.301	258.34
272.762	286.42
273.223	272.38
273.684	307.49
274.144	321.53
274.605	298.13
275.066	270.04
275.527	277.06
275.987	251.32
276.448	281.74
276.908	354.3
277.369	265.36
277.829	270.04
278.289	284.08
278.75	309.83
279.21	330.89
279.67	309.83
280.13	293.44
280.59	319.19
281.05	244.29
281.51	309.83
281.97	263.02
282.43	281.74
282.89	314.51
283.35	281.74
283.809	323.87
284.269	319.19
284.729	281.74
285.188	270.04
285.648	281.74
286.107	204.5
286.567	319.19
287.026	333.23
287.485	293.44
287.944	300.47
288.404	312.17
288.863	286.42
289.322	340.26
289.781	220.89
290.24	277.06
290.699	323.87
291.158	298.13
291.616	220.89
292.075	288.76
292.534	298.13
292.992	293.44
293.451	288.76
293.91	256
294.368	302.81
294.827	241.95
295.285	286.42
295.743	288.76
296.202	291.1
296.66	272.38
297.118	265.36
297.576	302.81
298.034	232.59
298.492	272.38
298.95	300.47
299.408	295.79
299.866	197.48
300.324	335.57
300.781	281.74
301.239	314.51
301.697	298.13
302.154	305.15
302.612	298.13
303.069	300.47
303.527	316.85
303.984	330.89
304.441	307.49
304.899	335.57
305.356	291.1
305.813	293.44
306.27	300.47
306.727	330.89
307.184	265.36
307.641	277.06
308.098	225.57
308.555	305.15
309.012	305.15
309.468	286.42
309.925	251.32
310.382	291.1
310.838	302.81
311.295	330.89
311.751	354.3
312.208	246.63
312.664	389.41
313.12	328.55
313.577	258.34
314.033	302.81
314.489	263.02
314.945	344.94
315.401	305.15
315.857	340.26
316.313	337.91
316.769	342.6
317.225	344.94
317.681	358.98
318.136	248.97
318.592	272.38
319.048	288.76
319.503	330.89
319.959	267.7
320.414	265.36
320.869	272.38
321.325	293.44
321.78	263.02
322.235	288.76
322.691	319.19
323.146	272.38
323.601	356.64
324.056	309.83
324.511	316.85
324.966	230.25
325.421	178.76
325.875	342.6
326.33	281.74
326.785	307.49
327.24	312.17
327.694	342.6
328.149	279.4
328.603	263.02
329.058	293.44
329.512	263.02
329.966	302.81
330.421	274.72
330.875	305.15
331.329	281.74
331.783	342.6
332.237	347.28
332.691	314.51
333.145	344.94
333.599	309.83
334.053	298.13
334.507	337.91
334.96	265.36
335.414	307.49
335.868	351.96
336.321	330.89
336.775	244.29
337.228	319.19
337.682	312.17
338.135	326.21
338.588	333.23
339.042	328.55
339.495	291.1
339.948	333.23
340.401	344.94
340.854	377.7
341.307	267.7
341.76	375.36
342.213	321.53
342.666	265.36
343.119	305.15
343.571	344.94
344.024	286.42
344.477	263.02
344.929	295.79
345.382	373.02
345.834	274.72
346.287	354.3
346.739	263.02
347.191	284.08
347.644	279.4
348.096	337.91
348.548	265.36
349	277.06
349.452	309.83
349.904	307.49
350.356	300.47
350.808	295.79
351.26	279.4
351.711	281.74
352.163	307.49
352.615	328.55
353.066	302.81
353.518	302.81
353.969	356.64
354.421	237.27
354.872	323.87
355.324	295.79
355.775	333.23
356.226	314.51
356.677	300.47
357.128	363.66
357.579	316.85
358.03	270.04
358.481	270.04
358.932	286.42
359.383	326.21
359.834	302.81
360.285	312.17
360.735	340.26
361.186	288.76
361.637	326.21
362.087	295.79
362.538	263.02
362.988	361.32
363.438	340.26
363.889	270.04
364.339	279.4
364.789	300.47
365.239	284.08
365.689	319.19
366.139	270.04
366.589	293.44
367.039	295.79
367.489	305.15
367.939	309.83
368.389	363.66
368.839	295.79
369.288	260.68
369.738	330.89
370.187	253.66
370.637	302.81
371.086	274.72
371.536	302.81
371.985	291.1
372.434	263.02
372.884	286.42
373.333	337.91
373.782	291.1
374.231	277.06
374.68	258.34
375.129	293.44
375.578	347.28
376.027	300.47
376.475	270.04
376.924	368.34
377.373	333.23
377.822	305.15
378.27	286.42
378.719	307.49
379.167	356.64
379.616	349.62
380.064	256
380.512	312.17
380.961	241.95
381.409	333.23
381.857	333.23
382.305	239.61
382.753	300.47
383.201	344.94
383.649	270.04
384.097	279.4
384.545	330.89
384.992	286.42
385.44	321.53
385.888	302.81
386.335	340.26
386.783	342.6
387.231	330.89
387.678	314.51
388.125	309.83
388.573	342.6
389.02	349.62
389.467	291.1
389.914	321.53
390.362	277.06
390.809	284.08
391.256	319.19
391.703	206.84
392.15	342.6
392.596	302.81
393.043	286.42
393.49	342.6
393.937	319.19
394.383	321.53
394.83	333.23
395.276	349.62
395.723	307.49
396.169	309.83
396.616	263.02
397.062	335.57
397.508	309.83
397.954	330.89
398.401	281.74
398.847	347.28
399.293	326.21
399.739	356.64
400.185	309.83
400.631	295.79
401.076	305.15
401.522	340.26
401.968	319.19
402.414	333.23
402.859	330.89
403.305	373.02
403.75	333.23
404.196	375.36
404.641	251.32
405.086	333.23
405.532	312.17
405.977	218.55
406.422	333.23
406.867	354.3
407.312	316.85
407.757	295.79
408.202	347.28
408.647	288.76
409.092	312.17
409.537	270.04
409.982	279.4
410.426	258.34
410.871	312.17
411.316	314.51
411.76	368.34
412.205	307.49
412.649	307.49
413.093	281.74
413.538	316.85
413.982	230.25
414.426	335.57
414.87	279.4
415.314	239.61
415.758	312.17
416.202	260.68
416.646	274.72
417.09	302.81
417.534	298.13
417.978	337.91
418.421	260.68
418.865	272.38
419.309	356.64
419.752	270.04
420.196	328.55
420.639	218.55
421.083	361.32
421.526	263.02
421.969	274.72
422.412	277.06
422.856	333.23
423.299	335.57
423.742	286.42
424.185	281.74
424.628	270.04
425.071	326.21
425.513	330.89
425.956	316.85
426.399	300.47
426.842	373.02
427.284	326.21
427.727	314.51
428.169	302.81
428.612	319.19
429.054	307.49
429.497	363.66
429.939	298.13
430.381	333.23
430.823	258.34
431.265	298.13
431.707	335.57
432.149	363.66
432.591	312.17
433.033	265.36
433.475	298.13
433.917	340.26
434.359	251.32
434.8	314.51
435.242	295.79
435.684	298.13
436.125	291.1
436.567	312.17
437.008	344.94
437.449	246.63
437.891	274.72
438.332	347.28
438.773	239.61
439.214	265.36
439.656	319.19
440.097	323.87
440.538	295.79
440.978	316.85
441.419	323.87
441.86	323.87
442.301	312.17
442.742	302.81
443.182	270.04
443.623	307.49
444.063	368.34
444.504	314.51
444.944	291.1
445.385	344.94
445.825	358.98
446.265	319.19
446.706	251.32
447.146	248.97
447.586	298.13
448.026	309.83
448.466	263.02
448.906	354.3
449.346	326.21
449.786	363.66
450.225	319.19
450.665	337.91
451.105	241.95
451.544	307.49
451.984	293.44
452.424	281.74
452.863	333.23
453.302	358.98
453.742	373.02
454.181	333.23
454.62	263.02
455.059	330.89
455.499	309.83
455.938	270.04
456.377	316.85
456.816	347.28
457.254	281.74
457.693	347.28
458.132	302.81
458.571	251.32
459.01	281.74
459.448	366
459.887	253.66
460.325	300.47
460.764	241.95
461.202	272.38
461.641	342.6
462.079	300.47
462.517	314.51
462.955	241.95
463.393	319.19
463.832	279.4
464.27	295.79
464.708	368.34
465.145	274.72
465.583	197.48
466.021	321.53
466.459	251.32
466.897	337.91
467.334	356.64
467.772	370.68
468.209	356.64
468.647	344.94
469.084	277.06
469.522	291.1
469.959	288.76
470.396	263.02
470.833	288.76
471.271	340.26
471.708	337.91
472.145	349.62
472.582	277.06
473.019	307.49
473.456	305.15
473.892	286.42
474.329	277.06
474.766	349.62
475.202	321.53
475.639	307.49
476.076	284.08
476.512	298.13
476.949	277.06
477.385	267.7
477.821	270.04
478.258	319.19
478.694	307.49
479.13	288.76
479.566	298.13
480.002	330.89
480.438	328.55
480.874	330.89
481.31	326.21
481.746	265.36
482.181	309.83
482.617	225.57
483.053	309.83
483.488	307.49
483.924	267.7
484.36	300.47
484.795	309.83
485.23	286.42
485.666	316.85
486.101	330.89
486.536	295.79
486.971	337.91
487.407	326.21
487.842	387.07
488.277	333.23
488.712	307.49
489.146	328.55
489.581	321.53
490.016	366
490.451	302.81
490.885	302.81
491.32	277.06
491.755	286.42
492.189	291.1
492.624	342.6
493.058	225.57
493.492	265.36
493.927	363.66
494.361	281.74
494.795	298.13
495.229	403.45
495.663	286.42
496.097	223.23
496.531	337.91
496.965	312.17
497.399	281.74
497.833	330.89
498.266	270.04
498.7	314.51
499.134	319.19
499.567	337.91
500.001	314.51
500.434	279.4
500.868	330.89
501.301	347.28
501.734	314.51
502.168	335.57
502.601	274.72
503.034	342.6
503.467	323.87
503.9	298.13
504.333	349.62
504.766	337.91
505.199	377.7
505.632	251.32
506.064	335.57
506.497	366
506.93	291.1
507.362	351.96
507.795	256
508.227	330.89
508.66	295.79
509.092	337.91
509.524	373.02
509.956	309.83
510.389	286.42
510.821	293.44
511.253	314.51
511.685	293.44
512.117	277.06
512.549	335.57
512.981	286.42
513.412	330.89
513.844	309.83
514.276	237.27
514.707	340.26
515.139	302.81
515.571	309.83
516.002	351.96
516.433	337.91
516.865	370.68
517.296	342.6
517.727	342.6
518.159	326.21
518.59	314.51
519.021	237.27
519.452	312.17
519.883	293.44
520.314	368.34
520.744	330.89
521.175	309.83
521.606	244.29
522.037	267.7
522.467	328.55
522.898	337.91
523.328	319.19
523.759	272.38
524.189	288.76
524.62	295.79
525.05	277.06
525.48	272.38
525.91	370.68
526.341	321.53
526.771	316.85
527.201	321.53
527.631	323.87
528.061	307.49
528.49	366
528.92	377.7
529.35	253.66
529.78	316.85
530.209	279.4
530.639	323.87
531.068	286.42
531.498	384.73
531.927	307.49
532.357	288.76
532.786	312.17
533.215	251.32
533.644	291.1
534.074	302.81
534.503	302.81
534.932	263.02
535.361	344.94
535.79	300.47
536.218	337.91
536.647	272.38
537.076	309.83
537.505	373.02
537.933	305.15
538.362	272.38
538.79	300.47
539.219	309.83
539.647	340.26
540.076	358.98
540.504	351.96
540.932	319.19
541.36	295.79
541.788	314.51
542.217	295.79
542.645	279.4
543.073	281.74
543.5	326.21
543.928	302.81
544.356	279.4
544.784	340.26
545.211	305.15
545.639	354.3
546.067	309.83
546.494	270.04
546.922	281.74
547.349	293.44
547.776	363.66
548.204	384.73
548.631	312.17
549.058	342.6
549.485	361.32
549.912	246.63
550.339	305.15
550.766	347.28
551.193	298.13
551.62	312.17
552.047	277.06
552.474	302.81
552.9	286.42
553.327	321.53
553.754	319.19
554.18	321.53
554.607	356.64
555.033	335.57
555.459	314.51
555.886	342.6
556.312	291.1
556.738	248.97
557.164	326.21
557.59	307.49
558.016	326.21
558.442	361.32
558.868	330.89
559.294	344.94
559.72	298.13
560.145	256
560.571	293.44
560.997	234.93
561.422	302.81
561.848	274.72
562.273	272.38
562.699	384.73
563.124	333.23
563.549	281.74
563.974	333.23
564.4	309.83
564.825	337.91
565.25	284.08
565.675	272.38
566.1	298.13
566.525	370.68
566.95	272.38
567.374	305.15
567.799	380.04
568.224	265.36
568.648	288.76
569.073	370.68
569.497	288.76
569.922	302.81
570.346	309.83
570.771	270.04
571.195	335.57
571.619	316.85
572.043	295.79
572.467	319.19
572.891	288.76
573.315	265.36
573.739	284.08
574.163	288.76
574.587	300.47
575.011	335.57
575.435	291.1
575.858	319.19
576.282	335.57
576.705	323.87
577.129	260.68
577.552	351.96
577.976	323.87
578.399	298.13
578.822	284.08
579.245	340.26
579.669	302.81
580.092	326.21
580.515	293.44
580.938	272.38
581.361	286.42
581.784	281.74
582.206	335.57
582.629	328.55
583.052	277.06
583.474	288.76
583.897	333.23
584.32	387.07
584.742	300.47
585.165	288.76
585.587	298.13
586.009	330.89
586.431	328.55
586.854	323.87
587.276	354.3
587.698	363.66
588.12	300.47
588.542	337.91
588.964	312.17
589.386	293.44
589.807	260.68
590.229	323.87
590.651	267.7
591.073	295.79
591.494	328.55
591.916	349.62
592.337	321.53
592.759	288.76
593.18	274.72
593.601	281.74
594.022	263.02
594.444	277.06
594.865	256
595.286	333.23
595.707	347.28
596.128	267.7
596.549	302.81
596.97	300.47
597.39	349.62
597.811	356.64
598.232	302.81
598.652	342.6
599.073	328.55
599.494	319.19
599.914	309.83
600.334	239.61
600.755	237.27
601.175	300.47
601.595	328.55
602.015	337.91
602.436	307.49
602.856	408.13
603.276	300.47
603.696	300.47
604.115	380.04
604.535	246.63
604.955	274.72
605.375	319.19
605.794	319.19
606.214	260.68
606.634	281.74
607.053	351.96
607.473	323.87
607.892	328.55
608.311	335.57
608.731	342.6
609.15	330.89
609.569	321.53
609.988	323.87
610.407	288.76
610.826	293.44
611.245	295.79
611.664	300.47
612.083	330.89
612.501	298.13
612.92	319.19
613.339	251.32
613.757	295.79
614.176	361.32
614.594	284.08
615.013	323.87
615.431	265.36
615.85	344.94
616.268	340.26
616.686	211.53
617.104	316.85
617.522	323.87
617.94	260.68
618.358	314.51
618.776	302.81
619.194	298.13
619.612	302.81
620.03	363.66
620.447	326.21
620.865	319.19
621.282	354.3
621.7	295.79
622.117	307.49
622.535	265.36
622.952	286.42
623.369	274.72
623.787	256
624.204	316.85
624.621	291.1
625.038	330.89
625.455	366
625.872	319.19
626.289	316.85
626.706	356.64
627.123	351.96
627.539	333.23
627.956	328.55
628.373	307.49
628.789	309.83
629.206	265.36
629.622	326.21
630.038	314.51
630.455	279.4
630.871	333.23
631.287	337.91
631.703	274.72
632.12	354.3
632.536	302.81
632.952	316.85
633.368	305.15
633.783	314.51
634.199	344.94
634.615	216.21
635.031	316.85
635.446	256
635.862	354.3
636.277	274.72
636.693	351.96
637.108	316.85
637.524	351.96
637.939	274.72
638.354	295.79
638.77	363.66
639.185	312.17
639.6	284.08
640.015	342.6
640.43	349.62
640.845	284.08
641.259	370.68
641.674	277.06
642.089	321.53
642.504	277.06
642.918	300.47
643.333	288.76
643.747	340.26
644.162	267.7
644.576	293.44
644.991	328.55
645.405	302.81
645.819	347.28
646.233	270.04
646.647	319.19
647.061	291.1
647.475	286.42
647.889	333.23
648.303	260.68
648.717	300.47
649.131	333.23
649.545	344.94
649.958	316.85
650.372	373.02
650.785	272.38
651.199	298.13
651.612	316.85
652.026	340.26
652.439	340.26
652.852	309.83
653.266	330.89
653.679	312.17
654.092	323.87
654.505	272.38
654.918	370.68
655.331	281.74
655.744	370.68
656.156	298.13
656.569	314.51
656.982	256
657.394	300.47
657.807	274.72
658.22	298.13
658.632	307.49
659.044	319.19
659.457	267.7
659.869	309.83
660.281	326.21
660.693	316.85
661.106	314.51
661.518	312.17
661.93	309.83
662.342	344.94
662.754	298.13
663.165	293.44
663.577	295.79
663.989	206.84
664.401	256
664.812	321.53
665.224	333.23
665.635	321.53
666.047	319.19
666.458	272.38
666.869	253.66
667.281	265.36
667.692	337.91
668.103	305.15
668.514	267.7
668.925	309.83
669.336	272.38
669.747	323.87
670.158	284.08
670.569	340.26
670.979	309.83
671.39	333.23
671.801	349.62
672.211	305.15
672.622	295.79
673.032	337.91
673.443	232.59
673.853	244.29
674.263	321.53
674.674	316.85
675.084	323.87
675.494	265.36
675.904	389.41
676.314	295.79
676.724	335.57
677.134	284.08
677.544	309.83
677.953	344.94
678.363	321.53
678.773	354.3
679.182	277.06
679.592	286.42
680.001	321.53
680.411	300.47
680.82	335.57
681.23	256
681.639	354.3
682.048	305.15
682.457	295.79
682.866	349.62
683.275	333.23
683.684	270.04
684.093	302.81
684.502	316.85
684.911	351.96
685.32	307.49
685.728	302.81
686.137	347.28
686.546	330.89
686.954	307.49
687.363	307.49
687.771	263.02
688.179	286.42
688.588	366
688.996	340.26
689.404	284.08
689.812	323.87
690.22	316.85
690.628	263.02
691.036	361.32
691.444	309.83
691.852	321.53
692.26	316.85
692.667	230.25
693.075	241.95
693.483	277.06
693.89	305.15
694.298	293.44
694.705	246.63
695.112	330.89
695.52	358.98
695.927	358.98
696.334	300.47
696.741	305.15
697.148	248.97
697.555	319.19
697.962	323.87
698.369	319.19
698.776	265.36
699.183	199.82
699.59	277.06
699.996	270.04
700.403	319.19
700.81	389.41
701.216	295.79
701.623	387.07
702.029	330.89
702.435	417.49
702.842	316.85
703.248	368.34
703.654	337.91
704.06	272.38
704.466	316.85
704.872	232.59
705.278	286.42
705.684	272.38
706.09	319.19
706.496	307.49
706.901	316.85
707.307	246.63
707.712	314.51
708.118	356.64
708.523	358.98
708.929	312.17
709.334	258.34
709.74	251.32
710.145	277.06
710.55	323.87
710.955	291.1
711.36	344.94
711.765	274.72
712.17	316.85
712.575	293.44
712.98	927.73
713.385	396.43
713.789	328.55
714.194	302.81
714.599	291.1
715.003	328.55
715.408	277.06
715.812	244.29
716.217	286.42
716.621	286.42
717.025	328.55
717.429	354.3
717.833	281.74
718.238	330.89
718.642	293.44
719.046	263.02
719.449	213.87
719.853	328.55
720.257	342.6
720.661	216.21
721.065	263.02
721.468	302.81
721.872	286.42
722.275	284.08
722.679	286.42
723.082	286.42
723.485	258.34
723.889	288.76
724.292	291.1
724.695	326.21
725.098	274.72
725.501	335.57
725.904	251.32
726.307	333.23
726.71	368.34
727.113	277.06
727.516	349.62
727.918	298.13
728.321	312.17
728.724	351.96
729.126	321.53
729.529	337.91
729.931	335.57
730.333	347.28
730.736	302.81
731.138	239.61
731.54	309.83
731.942	307.49
732.344	319.19
732.746	361.32
733.148	340.26
733.55	305.15
733.952	256
734.354	356.64
734.756	270.04
735.157	263.02
735.559	358.98
735.96	333.23
736.362	347.28
736.763	274.72
737.165	281.74
737.566	337.91
737.967	321.53
738.368	323.87
738.77	258.34
739.171	267.7
739.572	295.79
739.973	286.42
740.374	241.95
740.774	312.17
741.175	265.36
741.576	256
741.977	368.34
742.377	284.08
742.778	253.66
743.178	323.87
743.579	314.51
743.979	351.96
744.379	305.15
744.78	305.15
745.18	335.57
745.58	354.3
745.98	330.89
746.38	363.66
746.78	241.95
747.18	340.26
747.58	302.81
747.98	263.02
748.38	326.21
748.779	307.49
749.179	342.6
749.578	309.83
749.978	300.47
750.377	387.07
750.777	260.68
751.176	241.95
751.575	314.51
751.975	281.74
752.374	328.55
752.773	312.17
753.172	373.02
753.571	298.13
753.97	351.96
754.369	351.96
754.768	291.1
755.166	307.49
755.565	363.66
755.964	344.94
756.362	293.44
756.761	281.74
757.159	274.72
757.558	321.53
757.956	265.36
758.354	263.02
758.753	291.1
759.151	309.83
759.549	300.47
759.947	300.47
760.345	394.09
760.743	281.74
761.141	328.55
761.539	337.91
761.936	300.47
762.334	291.1
762.732	300.47
763.129	295.79
763.527	319.19
763.924	408.13
764.322	286.42
764.719	319.19
765.117	312.17
765.514	291.1
765.911	265.36
