Data from Al_FLMS009871__510__14-38-39-027.txt Node

Date: Fri Mar 08 14:38:39 CST 2024
User: pe5414po
Spectrometer: FLMS00987
Trigger mode: 0
Integration Time (sec): 1.000000E-1
Scans to average: 1
Electric dark correction enabled: true
Nonlinearity correction enabled: false
Boxcar width: 0
XAxis mode: Wavelengths
Number of Pixels in Spectrum: 2048
>>>>>Begin Spectral Data<<<<<
188.938	-67
189.409	-67
189.879	-67
190.349	-95.08
190.819	-78.7
191.29	-69.34
191.76	-120.83
192.23	-81.04
192.7	-17.85
193.17	-113.81
193.64	-10.82
194.109	-27.21
194.579	-24.87
195.049	-27.21
195.519	38.33
195.988	14.92
196.458	10.24
196.927	82.8
197.397	127.27
197.866	127.27
198.336	92.16
198.805	117.9
199.274	136.63
199.744	106.2
200.213	218.55
200.682	216.21
201.151	256
201.62	213.87
202.089	241.95
202.558	270.04
203.027	258.34
203.495	298.13
203.964	230.25
204.433	272.38
204.902	295.79
205.37	260.68
205.839	309.83
206.307	270.04
206.776	300.47
207.244	326.21
207.712	319.19
208.181	286.42
208.649	337.91
209.117	309.83
209.585	309.83
210.053	323.87
210.521	307.49
210.989	333.23
211.457	337.91
211.925	295.79
212.393	260.68
212.861	333.23
213.328	340.26
213.796	263.02
214.264	265.36
214.731	305.15
215.199	265.36
215.666	302.81
216.133	291.1
216.601	330.89
217.068	298.13
217.535	270.04
218.003	270.04
218.47	267.7
218.937	260.68
219.404	206.84
219.871	248.97
220.338	277.06
220.805	298.13
221.271	277.06
221.738	295.79
222.205	293.44
222.671	284.08
223.138	305.15
223.605	270.04
224.071	270.04
224.538	326.21
225.004	213.87
225.47	284.08
225.937	281.74
226.403	305.15
226.869	337.91
227.335	248.97
227.801	270.04
228.267	267.7
228.733	340.26
229.199	337.91
229.665	288.76
230.131	300.47
230.597	256
231.062	279.4
231.528	281.74
231.994	253.66
232.459	267.7
232.925	251.32
233.39	225.57
233.856	258.34
234.321	286.42
234.786	265.36
235.252	347.28
235.717	267.7
236.182	298.13
236.647	246.63
237.112	284.08
237.577	295.79
238.042	321.53
238.507	323.87
238.972	279.4
239.436	260.68
239.901	330.89
240.366	227.91
240.83	237.27
241.295	309.83
241.76	319.19
242.224	256
242.688	330.89
243.153	270.04
243.617	291.1
244.081	309.83
244.545	330.89
245.01	302.81
245.474	361.32
245.938	337.91
246.402	267.7
246.866	284.08
247.33	363.66
247.793	246.63
248.257	328.55
248.721	270.04
249.185	330.89
249.648	286.42
250.112	279.4
250.575	267.7
251.039	323.87
251.502	312.17
251.965	246.63
252.429	225.57
252.892	293.44
253.355	279.4
253.818	358.98
254.281	349.62
254.744	295.79
255.207	302.81
255.67	277.06
256.133	340.26
256.596	298.13
257.059	270.04
257.522	298.13
257.984	335.57
258.447	274.72
258.909	328.55
259.372	281.74
259.834	277.06
260.297	328.55
260.759	298.13
261.221	309.83
261.684	342.6
262.146	288.76
262.608	351.96
263.07	263.02
263.532	286.42
263.994	312.17
264.456	309.83
264.918	237.27
265.38	309.83
265.842	335.57
266.303	354.3
266.765	295.79
267.227	396.43
267.688	305.15
268.15	272.38
268.611	277.06
269.072	241.95
269.534	307.49
269.995	316.85
270.456	309.83
270.918	288.76
271.379	370.68
271.84	248.97
272.301	253.66
272.762	305.15
273.223	239.61
273.684	349.62
274.144	298.13
274.605	319.19
275.066	344.94
275.527	312.17
275.987	288.76
276.448	314.51
276.908	295.79
277.369	314.51
277.829	302.81
278.289	361.32
278.75	307.49
279.21	284.08
279.67	363.66
280.13	387.07
280.59	279.4
281.05	291.1
281.51	265.36
281.97	333.23
282.43	382.39
282.89	328.55
283.35	337.91
283.809	284.08
284.269	321.53
284.729	258.34
285.188	408.13
285.648	258.34
286.107	373.02
286.567	293.44
287.026	382.39
287.485	358.98
287.944	335.57
288.404	300.47
288.863	302.81
289.322	319.19
289.781	321.53
290.24	305.15
290.699	351.96
291.158	316.85
291.616	291.1
292.075	330.89
292.534	344.94
292.992	340.26
293.451	314.51
293.91	295.79
294.368	340.26
294.827	230.25
295.285	307.49
295.743	326.21
296.202	330.89
296.66	270.04
297.118	256
297.576	295.79
298.034	314.51
298.492	270.04
298.95	347.28
299.408	232.59
299.866	265.36
300.324	279.4
300.781	314.51
301.239	314.51
301.697	305.15
302.154	241.95
302.612	309.83
303.069	274.72
303.527	279.4
303.984	312.17
304.441	206.84
304.899	337.91
305.356	330.89
305.813	333.23
306.27	326.21
306.727	337.91
307.184	342.6
307.641	288.76
308.098	387.07
308.555	351.96
309.012	286.42
309.468	321.53
309.925	323.87
310.382	344.94
310.838	302.81
311.295	335.57
311.751	349.62
312.208	321.53
312.664	389.41
313.12	344.94
313.577	300.47
314.033	265.36
314.489	293.44
314.945	298.13
315.401	309.83
315.857	333.23
316.313	260.68
316.769	302.81
317.225	319.19
317.681	291.1
318.136	293.44
318.592	319.19
319.048	302.81
319.503	300.47
319.959	319.19
320.414	330.89
320.869	319.19
321.325	312.17
321.78	286.42
322.235	328.55
322.691	302.81
323.146	370.68
323.601	349.62
324.056	288.76
324.511	370.68
324.966	298.13
325.421	312.17
325.875	382.39
326.33	366
326.785	312.17
327.24	342.6
327.694	391.75
328.149	328.55
328.603	291.1
329.058	293.44
329.512	330.89
329.966	375.36
330.421	319.19
330.875	291.1
331.329	284.08
331.783	316.85
332.237	291.1
332.691	366
333.145	300.47
333.599	312.17
334.053	323.87
334.507	319.19
334.96	370.68
335.414	286.42
335.868	284.08
336.321	316.85
336.775	253.66
337.228	349.62
337.682	354.3
338.135	368.34
338.588	286.42
339.042	380.04
339.495	293.44
339.948	319.19
340.401	284.08
340.854	312.17
341.307	368.34
341.76	307.49
342.213	291.1
342.666	340.26
343.119	326.21
343.571	321.53
344.024	305.15
344.477	300.47
344.929	298.13
345.382	328.55
345.834	256
346.287	377.7
346.739	342.6
347.191	300.47
347.644	281.74
348.096	330.89
348.548	298.13
349	293.44
349.452	319.19
349.904	314.51
350.356	316.85
350.808	234.93
351.26	246.63
351.711	314.51
352.163	302.81
352.615	366
353.066	347.28
353.518	302.81
353.969	373.02
354.421	270.04
354.872	342.6
355.324	314.51
355.775	349.62
356.226	361.32
356.677	323.87
357.128	312.17
357.579	274.72
358.03	270.04
358.481	354.3
358.932	377.7
359.383	256
359.834	349.62
360.285	295.79
360.735	272.38
361.186	326.21
361.637	302.81
362.087	368.34
362.538	368.34
362.988	342.6
363.438	253.66
363.889	391.75
364.339	373.02
364.789	288.76
365.239	246.63
365.689	370.68
366.139	347.28
366.589	281.74
367.039	319.19
367.489	298.13
367.939	312.17
368.389	333.23
368.839	366
369.288	389.41
369.738	323.87
370.187	279.4
370.637	387.07
371.086	342.6
371.536	373.02
371.985	302.81
372.434	323.87
372.884	382.39
373.333	284.08
373.782	370.68
374.231	358.98
374.68	391.75
375.129	342.6
375.578	349.62
376.027	326.21
376.475	330.89
376.924	370.68
377.373	326.21
377.822	377.7
378.27	239.61
378.719	382.39
379.167	326.21
379.616	366
380.064	354.3
380.512	326.21
380.961	272.38
381.409	356.64
381.857	328.55
382.305	281.74
382.753	319.19
383.201	291.1
383.649	356.64
384.097	370.68
384.545	333.23
384.992	309.83
385.44	375.36
385.888	347.28
386.335	363.66
386.783	335.57
387.231	291.1
387.678	347.28
388.125	319.19
388.573	375.36
389.02	295.79
389.467	286.42
389.914	319.19
390.362	384.73
390.809	319.19
391.256	326.21
391.703	335.57
392.15	328.55
392.596	337.91
393.043	337.91
393.49	375.36
393.937	342.6
394.383	323.87
394.83	347.28
395.276	323.87
395.723	314.51
396.169	298.13
396.616	316.85
397.062	319.19
397.508	270.04
397.954	344.94
398.401	384.73
398.847	351.96
399.293	333.23
399.739	272.38
400.185	398.77
400.631	305.15
401.076	373.02
401.522	307.49
401.968	328.55
402.414	326.21
402.859	373.02
403.305	328.55
403.75	295.79
404.196	342.6
404.641	319.19
405.086	412.81
405.532	412.81
405.977	288.76
406.422	330.89
406.867	286.42
407.312	309.83
407.757	291.1
408.202	356.64
408.647	302.81
409.092	358.98
409.537	300.47
409.982	309.83
410.426	328.55
410.871	344.94
411.316	321.53
411.76	342.6
412.205	356.64
412.649	319.19
413.093	309.83
413.538	330.89
413.982	312.17
414.426	347.28
414.87	314.51
415.314	389.41
415.758	373.02
416.202	358.98
416.646	333.23
417.09	382.39
417.534	274.72
417.978	333.23
418.421	330.89
418.865	312.17
419.309	300.47
419.752	358.98
420.196	377.7
420.639	354.3
421.083	349.62
421.526	323.87
421.969	316.85
422.412	321.53
422.856	333.23
423.299	302.81
423.742	312.17
424.185	347.28
424.628	363.66
425.071	344.94
425.513	288.76
425.956	391.75
426.399	366
426.842	356.64
427.284	328.55
427.727	291.1
428.169	351.96
428.612	347.28
429.054	286.42
429.497	309.83
429.939	347.28
430.381	326.21
430.823	309.83
431.265	279.4
431.707	328.55
432.149	347.28
432.591	319.19
433.033	286.42
433.475	309.83
433.917	295.79
434.359	351.96
434.8	389.41
435.242	288.76
435.684	375.36
436.125	326.21
436.567	363.66
437.008	373.02
437.449	337.91
437.891	370.68
438.332	328.55
438.773	342.6
439.214	286.42
439.656	394.09
440.097	246.63
440.538	319.19
440.978	326.21
441.419	298.13
441.86	319.19
442.301	326.21
442.742	361.32
443.182	300.47
443.623	295.79
444.063	300.47
444.504	286.42
444.944	312.17
445.385	323.87
445.825	330.89
446.265	384.73
446.706	344.94
447.146	326.21
447.586	349.62
448.026	298.13
448.466	314.51
448.906	347.28
449.346	356.64
449.786	316.85
450.225	323.87
450.665	354.3
451.105	370.68
451.544	366
451.984	328.55
452.424	321.53
452.863	412.81
453.302	312.17
453.742	323.87
454.181	314.51
454.62	307.49
455.059	277.06
455.499	316.85
455.938	293.44
456.377	358.98
456.816	361.32
457.254	424.51
457.693	319.19
458.132	293.44
458.571	321.53
459.01	326.21
459.448	284.08
459.887	314.51
460.325	344.94
460.764	349.62
461.202	314.51
461.641	270.04
462.079	288.76
462.517	328.55
462.955	321.53
463.393	326.21
463.832	333.23
464.27	351.96
464.708	291.1
465.145	321.53
465.583	314.51
466.021	326.21
466.459	237.27
466.897	319.19
467.334	330.89
467.772	316.85
468.209	300.47
468.647	335.57
469.084	319.19
469.522	344.94
469.959	263.02
470.396	366
470.833	291.1
471.271	375.36
471.708	351.96
472.145	342.6
472.582	342.6
473.019	300.47
473.456	305.15
473.892	279.4
474.329	279.4
474.766	326.21
475.202	291.1
475.639	344.94
476.076	337.91
476.512	305.15
476.949	398.77
477.385	351.96
477.821	272.38
478.258	295.79
478.694	298.13
479.13	354.3
479.566	326.21
480.002	347.28
480.438	307.49
480.874	356.64
481.31	351.96
481.746	295.79
482.181	389.41
482.617	361.32
483.053	291.1
483.488	368.34
483.924	279.4
484.36	302.81
484.795	298.13
485.23	319.19
485.666	363.66
486.101	323.87
486.536	237.27
486.971	323.87
487.407	361.32
487.842	319.19
488.277	256
488.712	288.76
489.146	293.44
489.581	373.02
490.016	337.91
490.451	363.66
490.885	380.04
491.32	340.26
491.755	333.23
492.189	281.74
492.624	333.23
493.058	391.75
493.492	340.26
493.927	340.26
494.361	351.96
494.795	307.49
495.229	361.32
495.663	340.26
496.097	312.17
496.531	340.26
496.965	375.36
497.399	377.7
497.833	373.02
498.266	415.15
498.7	387.07
499.134	314.51
499.567	270.04
500.001	323.87
500.434	349.62
500.868	387.07
501.301	312.17
501.734	361.32
502.168	316.85
502.601	368.34
503.034	358.98
503.467	419.83
503.9	302.81
504.333	323.87
504.766	382.39
505.199	354.3
505.632	342.6
506.064	363.66
506.497	340.26
506.93	272.38
507.362	323.87
507.795	321.53
508.227	319.19
508.66	349.62
509.092	267.7
509.524	344.94
509.956	316.85
510.389	370.68
510.821	344.94
511.253	391.75
511.685	267.7
512.117	328.55
512.549	307.49
512.981	319.19
513.412	375.36
513.844	363.66
514.276	347.28
514.707	333.23
515.139	300.47
515.571	291.1
516.002	323.87
516.433	286.42
516.865	340.26
517.296	319.19
517.727	300.47
518.159	363.66
518.59	354.3
519.021	298.13
519.452	314.51
519.883	356.64
520.314	328.55
520.744	319.19
521.175	375.36
521.606	344.94
522.037	328.55
522.467	333.23
522.898	281.74
523.328	291.1
523.759	300.47
524.189	361.32
524.62	354.3
525.05	366
525.48	356.64
525.91	333.23
526.341	302.81
526.771	295.79
527.201	258.34
527.631	286.42
528.061	344.94
528.49	373.02
528.92	349.62
529.35	391.75
529.78	335.57
530.209	305.15
530.639	347.28
531.068	382.39
531.498	337.91
531.927	333.23
532.357	354.3
532.786	337.91
533.215	351.96
533.644	323.87
534.074	344.94
534.503	300.47
534.932	361.32
535.361	340.26
535.79	256
536.218	323.87
536.647	356.64
537.076	307.49
537.505	358.98
537.933	349.62
538.362	326.21
538.79	319.19
539.219	394.09
539.647	298.13
540.076	298.13
540.504	337.91
540.932	370.68
541.36	370.68
541.788	291.1
542.217	319.19
542.645	366
543.073	284.08
543.5	335.57
543.928	267.7
544.356	347.28
544.784	380.04
545.211	293.44
545.639	281.74
546.067	349.62
546.494	333.23
546.922	363.66
547.349	293.44
547.776	300.47
548.204	358.98
548.631	349.62
549.058	394.09
549.485	363.66
549.912	337.91
550.339	321.53
550.766	302.81
551.193	337.91
551.62	333.23
552.047	342.6
552.474	302.81
552.9	316.85
553.327	333.23
553.754	302.81
554.18	321.53
554.607	344.94
555.033	309.83
555.459	232.59
555.886	316.85
556.312	363.66
556.738	263.02
557.164	305.15
557.59	351.96
558.016	375.36
558.442	309.83
558.868	380.04
559.294	312.17
559.72	321.53
560.145	380.04
560.571	366
560.997	326.21
561.422	307.49
561.848	293.44
562.273	349.62
562.699	300.47
563.124	375.36
563.549	323.87
563.974	340.26
564.4	321.53
564.825	323.87
565.25	300.47
565.675	354.3
566.1	307.49
566.525	321.53
566.95	330.89
567.374	366
567.799	333.23
568.224	328.55
568.648	396.43
569.073	330.89
569.497	300.47
569.922	293.44
570.346	305.15
570.771	349.62
571.195	368.34
571.619	333.23
572.043	326.21
572.467	321.53
572.891	326.21
573.315	358.98
573.739	377.7
574.163	328.55
574.587	358.98
575.011	361.32
575.435	396.43
575.858	330.89
576.282	314.51
576.705	354.3
577.129	344.94
577.552	358.98
577.976	340.26
578.399	316.85
578.822	337.91
579.245	375.36
579.669	288.76
580.092	330.89
580.515	319.19
580.938	291.1
581.361	295.79
581.784	328.55
582.206	377.7
582.629	323.87
583.052	366
583.474	382.39
583.897	384.73
584.32	391.75
584.742	405.79
585.165	300.47
585.587	328.55
586.009	351.96
586.431	323.87
586.854	298.13
587.276	342.6
587.698	337.91
588.12	312.17
588.542	265.36
588.964	319.19
589.386	312.17
589.807	300.47
590.229	344.94
590.651	354.3
591.073	309.83
591.494	358.98
591.916	300.47
592.337	412.81
592.759	342.6
593.18	277.06
593.601	326.21
594.022	370.68
594.444	328.55
594.865	307.49
595.286	326.21
595.707	295.79
596.128	326.21
596.549	319.19
596.97	305.15
597.39	277.06
597.811	326.21
598.232	328.55
598.652	319.19
599.073	358.98
599.494	326.21
599.914	286.42
600.334	319.19
600.755	342.6
601.175	288.76
601.595	300.47
602.015	419.83
602.436	323.87
602.856	419.83
603.276	319.19
603.696	323.87
604.115	291.1
604.535	377.7
604.955	286.42
605.375	272.38
605.794	363.66
606.214	328.55
606.634	330.89
607.053	335.57
607.473	408.13
607.892	314.51
608.311	295.79
608.731	335.57
609.15	333.23
609.569	330.89
609.988	340.26
610.407	387.07
610.826	375.36
611.245	377.7
611.664	358.98
612.083	382.39
612.501	335.57
612.92	328.55
613.339	363.66
613.757	358.98
614.176	356.64
614.594	328.55
615.013	314.51
615.431	342.6
615.85	340.26
616.268	375.36
616.686	342.6
617.104	279.4
617.522	237.27
617.94	349.62
618.358	300.47
618.776	307.49
619.194	361.32
619.612	335.57
620.03	293.44
620.447	291.1
620.865	281.74
621.282	288.76
621.7	380.04
622.117	358.98
622.535	328.55
622.952	370.68
623.369	366
623.787	279.4
624.204	288.76
624.621	333.23
625.038	330.89
625.455	361.32
625.872	356.64
626.289	314.51
626.706	312.17
627.123	279.4
627.539	288.76
627.956	408.13
628.373	419.83
628.789	307.49
629.206	333.23
629.622	370.68
630.038	316.85
630.455	380.04
630.871	370.68
631.287	349.62
631.703	335.57
632.12	384.73
632.536	377.7
632.952	335.57
633.368	377.7
633.783	295.79
634.199	248.97
634.615	302.81
635.031	361.32
635.446	363.66
635.862	326.21
636.277	354.3
636.693	340.26
637.108	298.13
637.524	366
637.939	337.91
638.354	300.47
638.77	312.17
639.185	337.91
639.6	337.91
640.015	300.47
640.43	286.42
640.845	293.44
641.259	295.79
641.674	356.64
642.089	356.64
642.504	340.26
642.918	204.5
643.333	340.26
643.747	366
644.162	281.74
644.576	321.53
644.991	305.15
645.405	387.07
645.819	314.51
646.233	300.47
646.647	363.66
647.061	368.34
647.475	354.3
647.889	377.7
648.303	309.83
648.717	337.91
649.131	321.53
649.545	361.32
649.958	274.72
650.372	342.6
650.785	351.96
651.199	396.43
651.612	298.13
652.026	326.21
652.439	330.89
652.852	340.26
653.266	363.66
653.679	337.91
654.092	323.87
654.505	302.81
654.918	326.21
655.331	314.51
655.744	351.96
656.156	363.66
656.569	373.02
656.982	370.68
657.394	302.81
657.807	326.21
658.22	291.1
658.632	295.79
659.044	340.26
659.457	335.57
659.869	291.1
660.281	281.74
660.693	340.26
661.106	284.08
661.518	272.38
661.93	323.87
662.342	375.36
662.754	274.72
663.165	279.4
663.577	305.15
663.989	335.57
664.401	300.47
664.812	373.02
665.224	300.47
665.635	293.44
666.047	384.73
666.458	248.97
666.869	337.91
667.281	314.51
667.692	363.66
668.103	323.87
668.514	335.57
668.925	277.06
669.336	302.81
669.747	305.15
670.158	330.89
670.569	328.55
670.979	288.76
671.39	368.34
671.801	330.89
672.211	302.81
672.622	342.6
673.032	314.51
673.443	270.04
673.853	368.34
674.263	326.21
674.674	377.7
675.084	260.68
675.494	295.79
675.904	330.89
676.314	314.51
676.724	312.17
677.134	342.6
677.544	368.34
677.953	293.44
678.363	354.3
678.773	349.62
679.182	298.13
679.592	265.36
680.001	405.79
680.411	319.19
680.82	358.98
681.23	342.6
681.639	373.02
682.048	382.39
682.457	361.32
682.866	316.85
683.275	293.44
683.684	305.15
684.093	314.51
684.502	293.44
684.911	328.55
685.32	330.89
685.728	326.21
686.137	344.94
686.546	344.94
686.954	309.83
687.363	321.53
687.771	291.1
688.179	351.96
688.588	323.87
688.996	347.28
689.404	316.85
689.812	291.1
690.22	279.4
690.628	316.85
691.036	380.04
691.444	356.64
691.852	300.47
692.26	351.96
692.667	253.66
693.075	302.81
693.483	356.64
693.89	295.79
694.298	363.66
694.705	351.96
695.112	335.57
695.52	361.32
695.927	307.49
696.334	351.96
696.741	354.3
697.148	342.6
697.555	279.4
697.962	319.19
698.369	312.17
698.776	333.23
699.183	354.3
699.59	319.19
699.996	305.15
700.403	298.13
700.81	316.85
701.216	356.64
701.623	337.91
702.029	321.53
702.435	333.23
702.842	361.32
703.248	305.15
703.654	351.96
704.06	358.98
704.466	274.72
704.872	387.07
705.278	349.62
705.684	265.36
706.09	424.51
706.496	349.62
706.901	391.75
707.307	391.75
707.712	340.26
708.118	298.13
708.523	302.81
708.929	356.64
709.334	291.1
709.74	307.49
710.145	361.32
710.55	316.85
710.955	314.51
711.36	295.79
711.765	323.87
712.17	270.04
712.575	309.83
712.98	897.3
713.385	410.47
713.789	344.94
714.194	366
714.599	319.19
715.003	384.73
715.408	328.55
715.812	295.79
716.217	305.15
716.621	356.64
717.025	328.55
717.429	323.87
717.833	312.17
718.238	335.57
718.642	361.32
719.046	370.68
719.449	335.57
719.853	293.44
720.257	337.91
720.661	321.53
721.065	302.81
721.468	351.96
721.872	312.17
722.275	319.19
722.679	326.21
723.082	298.13
723.485	354.3
723.889	298.13
724.292	328.55
724.695	342.6
725.098	305.15
725.501	384.73
725.904	314.51
726.307	281.74
726.71	330.89
727.113	326.21
727.516	328.55
727.918	260.68
728.321	328.55
728.724	279.4
729.126	277.06
729.529	333.23
729.931	356.64
730.333	295.79
730.736	253.66
731.138	237.27
731.54	293.44
731.942	314.51
732.344	344.94
732.746	337.91
733.148	363.66
733.55	368.34
733.952	340.26
734.354	263.02
734.756	384.73
735.157	314.51
735.559	377.7
735.96	330.89
736.362	328.55
736.763	314.51
737.165	298.13
737.566	279.4
737.967	368.34
738.368	286.42
738.77	288.76
739.171	291.1
739.572	314.51
739.973	293.44
740.374	307.49
740.774	323.87
741.175	314.51
741.576	274.72
741.977	349.62
742.377	351.96
742.778	293.44
743.178	279.4
743.579	340.26
743.979	373.02
744.379	321.53
744.78	293.44
745.18	342.6
745.58	354.3
745.98	333.23
746.38	279.4
746.78	326.21
747.18	274.72
747.58	300.47
747.98	312.17
748.38	337.91
748.779	333.23
749.179	288.76
749.578	347.28
749.978	298.13
750.377	295.79
750.777	307.49
751.176	319.19
751.575	375.36
751.975	286.42
752.374	316.85
752.773	333.23
753.172	333.23
753.571	291.1
753.97	396.43
754.369	277.06
754.768	326.21
755.166	349.62
755.565	319.19
755.964	373.02
756.362	316.85
756.761	351.96
757.159	330.89
757.558	361.32
757.956	342.6
758.354	384.73
758.753	302.81
759.151	302.81
759.549	354.3
759.947	335.57
760.345	305.15
760.743	265.36
761.141	307.49
761.539	333.23
761.936	366
762.334	335.57
762.732	307.49
763.129	309.83
763.527	354.3
763.924	366
764.322	305.15
764.719	375.36
765.117	295.79
765.514	333.23
765.911	314.51
766.308	358.98
766.705	281.74
767.102	387.07
767.499	326.21
