Data from Al_FLMS009871__513__14-38-39-327.txt Node

Date: Fri Mar 08 14:38:39 CST 2024
User: pe5414po
Spectrometer: FLMS00987
Trigger mode: 0
Integration Time (sec): 1.000000E-1
Scans to average: 1
Electric dark correction enabled: true
Nonlinearity correction enabled: false
Boxcar width: 0
XAxis mode: Wavelengths
Number of Pixels in Spectrum: 2048
>>>>>Begin Spectral Data<<<<<
188.938	46.66
189.409	46.66
189.879	46.66
190.349	-110.15
190.819	-100.79
191.29	-61
191.76	-117.17
192.23	-86.75
192.7	-121.85
193.17	-46.96
193.64	-11.85
194.109	-16.53
194.579	-44.62
195.049	-0.15
195.519	37.3
195.988	11.56
196.458	65.39
196.927	116.88
197.397	65.39
197.866	126.24
198.336	84.11
198.805	149.65
199.274	198.8
199.744	215.18
200.213	250.29
200.682	238.59
201.151	238.59
201.62	238.59
202.089	261.99
202.558	311.14
203.027	254.97
203.495	367.32
203.964	269.02
204.433	304.12
204.902	276.04
205.37	290.08
205.839	313.49
206.307	287.74
206.776	297.1
207.244	301.78
207.712	322.85
208.181	301.78
208.649	301.78
209.117	325.19
209.585	280.72
210.053	343.91
210.521	271.36
210.989	290.08
211.457	301.78
211.925	313.49
212.393	320.51
212.861	280.72
213.328	252.63
213.796	276.04
214.264	283.06
214.731	299.44
215.199	308.8
215.666	318.17
216.133	306.46
216.601	332.21
217.068	299.44
217.535	280.72
218.003	294.76
218.47	301.78
218.937	297.1
219.404	322.85
219.871	332.21
220.338	264.33
220.805	299.44
221.271	240.93
221.738	301.78
222.205	245.61
222.671	201.14
223.138	247.95
223.605	292.42
224.071	327.53
224.538	294.76
225.004	297.1
225.47	311.14
225.937	191.78
226.403	252.63
226.869	236.25
227.335	259.65
227.801	280.72
228.267	297.1
228.733	304.12
229.199	290.08
229.665	353.27
230.131	271.36
230.597	236.25
231.062	264.33
231.528	238.59
231.994	334.55
232.459	322.85
232.925	341.57
233.39	233.91
233.856	287.74
234.321	311.14
234.786	259.65
235.252	320.51
235.717	285.4
236.182	297.1
236.647	299.44
237.112	231.57
237.577	247.95
238.042	297.1
238.507	273.7
238.972	304.12
239.436	315.83
239.901	287.74
240.366	264.33
240.83	266.67
241.295	292.42
241.76	301.78
242.224	283.06
242.688	308.8
243.153	297.1
243.617	327.53
244.081	341.57
244.545	327.53
245.01	336.89
245.474	292.42
245.938	280.72
246.402	297.1
246.866	304.12
247.33	313.49
247.793	266.67
248.257	299.44
248.721	376.68
249.185	297.1
249.648	306.46
250.112	311.14
250.575	327.53
251.039	332.21
251.502	292.42
251.965	250.29
252.429	308.8
252.892	313.49
253.355	273.7
253.818	238.59
254.281	311.14
254.744	327.53
255.207	269.02
255.67	327.53
256.133	250.29
256.596	280.72
257.059	280.72
257.522	283.06
257.984	313.49
258.447	273.7
258.909	308.8
259.372	247.95
259.834	327.53
260.297	278.38
260.759	271.36
261.221	266.67
261.684	269.02
262.146	280.72
262.608	283.06
263.07	308.8
263.532	339.23
263.994	320.51
264.456	299.44
264.918	313.49
265.38	332.21
265.842	210.5
266.303	336.89
266.765	327.53
267.227	269.02
267.688	226.89
268.15	329.87
268.611	294.76
269.072	294.76
269.534	278.38
269.995	369.66
270.456	346.25
270.918	357.96
271.379	311.14
271.84	297.1
272.301	400.09
272.762	261.99
273.223	280.72
273.684	341.57
274.144	306.46
274.605	325.19
275.066	308.8
275.527	299.44
275.987	292.42
276.448	320.51
276.908	273.7
277.369	313.49
277.829	304.12
278.289	332.21
278.75	294.76
279.21	364.98
279.67	301.78
280.13	259.65
280.59	264.33
281.05	283.06
281.51	215.18
281.97	364.98
282.43	320.51
282.89	332.21
283.35	336.89
283.809	285.4
284.269	318.17
284.729	299.44
285.188	254.97
285.648	280.72
286.107	301.78
286.567	294.76
287.026	350.93
287.485	327.53
287.944	318.17
288.404	290.08
288.863	306.46
289.322	329.87
289.781	299.44
290.24	332.21
290.699	285.4
291.158	306.46
291.616	299.44
292.075	360.3
292.534	222.2
292.992	339.23
293.451	278.38
293.91	252.63
294.368	339.23
294.827	306.46
295.285	318.17
295.743	259.65
296.202	332.21
296.66	271.36
297.118	292.42
297.576	285.4
298.034	339.23
298.492	245.61
298.95	364.98
299.408	285.4
299.866	343.91
300.324	285.4
300.781	290.08
301.239	318.17
301.697	292.42
302.154	297.1
302.612	325.19
303.069	313.49
303.527	322.85
303.984	327.53
304.441	315.83
304.899	315.83
305.356	334.55
305.813	254.97
306.27	276.04
306.727	269.02
307.184	339.23
307.641	259.65
308.098	360.3
308.555	306.46
309.012	311.14
309.468	290.08
309.925	339.23
310.382	320.51
310.838	329.87
311.295	308.8
311.751	271.36
312.208	318.17
312.664	280.72
313.12	261.99
313.577	360.3
314.033	308.8
314.489	332.21
314.945	332.21
315.401	308.8
315.857	292.42
316.313	294.76
316.769	343.91
317.225	278.38
317.681	313.49
318.136	350.93
318.592	329.87
319.048	301.78
319.503	254.97
319.959	292.42
320.414	306.46
320.869	304.12
321.325	294.76
321.78	304.12
322.235	322.85
322.691	315.83
323.146	278.38
323.601	254.97
324.056	343.91
324.511	329.87
324.966	278.38
325.421	250.29
325.875	318.17
326.33	325.19
326.785	308.8
327.24	264.33
327.694	297.1
328.149	322.85
328.603	348.59
329.058	280.72
329.512	308.8
329.966	334.55
330.421	311.14
330.875	364.98
331.329	327.53
331.783	304.12
332.237	353.27
332.691	294.76
333.145	276.04
333.599	318.17
334.053	315.83
334.507	236.25
334.96	311.14
335.414	334.55
335.868	276.04
336.321	297.1
336.775	308.8
337.228	313.49
337.682	297.1
338.135	329.87
338.588	306.46
339.042	336.89
339.495	329.87
339.948	348.59
340.401	304.12
340.854	306.46
341.307	374.34
341.76	327.53
342.213	336.89
342.666	376.68
343.119	287.74
343.571	290.08
344.024	322.85
344.477	318.17
344.929	313.49
345.382	334.55
345.834	383.7
346.287	329.87
346.739	271.36
347.191	259.65
347.644	297.1
348.096	407.11
348.548	313.49
349	308.8
349.452	306.46
349.904	292.42
350.356	311.14
350.808	348.59
351.26	313.49
351.711	320.51
352.163	327.53
352.615	294.76
353.066	308.8
353.518	297.1
353.969	374.34
354.421	346.25
354.872	301.78
355.324	294.76
355.775	325.19
356.226	299.44
356.677	355.62
357.128	393.06
357.579	329.87
358.03	245.61
358.481	407.11
358.932	308.8
359.383	332.21
359.834	346.25
360.285	379.02
360.735	301.78
361.186	346.25
361.637	334.55
362.087	332.21
362.538	353.27
362.988	313.49
363.438	318.17
363.889	283.06
364.339	372
364.789	329.87
365.239	329.87
365.689	374.34
366.139	360.3
366.589	320.51
367.039	346.25
367.489	322.85
367.939	304.12
368.389	357.96
368.839	388.38
369.288	402.43
369.738	376.68
370.187	339.23
370.637	374.34
371.086	334.55
371.536	304.12
371.985	290.08
372.434	290.08
372.884	304.12
373.333	329.87
373.782	339.23
374.231	294.76
374.68	304.12
375.129	287.74
375.578	327.53
376.027	299.44
376.475	315.83
376.924	325.19
377.373	278.38
377.822	346.25
378.27	350.93
378.719	325.19
379.167	245.61
379.616	297.1
380.064	364.98
380.512	278.38
380.961	320.51
381.409	308.8
381.857	325.19
382.305	327.53
382.753	278.38
383.201	294.76
383.649	332.21
384.097	306.46
384.545	393.06
384.992	348.59
385.44	292.42
385.888	367.32
386.335	325.19
386.783	318.17
387.231	364.98
387.678	346.25
388.125	416.47
388.573	287.74
389.02	304.12
389.467	322.85
389.914	261.99
390.362	339.23
390.809	226.89
391.256	334.55
391.703	240.93
392.15	379.02
392.596	336.89
393.043	257.31
393.49	311.14
393.937	325.19
394.383	292.42
394.83	346.25
395.276	283.06
395.723	294.76
396.169	301.78
396.616	322.85
397.062	257.31
397.508	355.62
397.954	311.14
398.401	308.8
398.847	329.87
399.293	353.27
399.739	308.8
400.185	364.98
400.631	299.44
401.076	299.44
401.522	339.23
401.968	261.99
402.414	383.7
402.859	322.85
403.305	355.62
403.75	336.89
404.196	346.25
404.641	304.12
405.086	339.23
405.532	336.89
405.977	350.93
406.422	336.89
406.867	297.1
407.312	350.93
407.757	355.62
408.202	348.59
408.647	341.57
409.092	329.87
409.537	325.19
409.982	369.66
410.426	280.72
410.871	334.55
411.316	332.21
411.76	353.27
412.205	306.46
412.649	271.36
413.093	278.38
413.538	390.72
413.982	357.96
414.426	367.32
414.87	313.49
415.314	381.36
415.758	325.19
416.202	332.21
416.646	318.17
417.09	306.46
417.534	334.55
417.978	292.42
418.421	315.83
418.865	313.49
419.309	320.51
419.752	325.19
420.196	341.57
420.639	343.91
421.083	269.02
421.526	308.8
421.969	315.83
422.412	292.42
422.856	250.29
423.299	353.27
423.742	294.76
424.185	348.59
424.628	360.3
425.071	339.23
425.513	301.78
425.956	343.91
426.399	290.08
426.842	315.83
427.284	369.66
427.727	313.49
428.169	315.83
428.612	341.57
429.054	353.27
429.497	353.27
429.939	325.19
430.381	376.68
430.823	315.83
431.265	301.78
431.707	315.83
432.149	301.78
432.591	318.17
433.033	325.19
433.475	374.34
433.917	329.87
434.359	313.49
434.8	299.44
435.242	297.1
435.684	304.12
436.125	360.3
436.567	292.42
437.008	276.04
437.449	273.7
437.891	315.83
438.332	372
438.773	332.21
439.214	325.19
439.656	332.21
440.097	283.06
440.538	315.83
440.978	311.14
441.419	423.49
441.86	320.51
442.301	332.21
442.742	362.64
443.182	341.57
443.623	285.4
444.063	341.57
444.504	353.27
444.944	414.13
445.385	409.45
445.825	320.51
446.265	339.23
446.706	390.72
447.146	318.17
447.586	329.87
448.026	304.12
448.466	318.17
448.906	362.64
449.346	341.57
449.786	280.72
450.225	390.72
450.665	308.8
451.105	297.1
451.544	283.06
451.984	308.8
452.424	292.42
452.863	280.72
453.302	325.19
453.742	322.85
454.181	238.59
454.62	299.44
455.059	294.76
455.499	236.25
455.938	325.19
456.377	306.46
456.816	285.4
457.254	334.55
457.693	304.12
458.132	362.64
458.571	301.78
459.01	297.1
459.448	325.19
459.887	372
460.325	339.23
460.764	290.08
461.202	283.06
461.641	381.36
462.079	320.51
462.517	341.57
462.955	318.17
463.393	318.17
463.832	301.78
464.27	327.53
464.708	390.72
465.145	336.89
465.583	336.89
466.021	332.21
466.459	308.8
466.897	343.91
467.334	379.02
467.772	304.12
468.209	320.51
468.647	313.49
469.084	362.64
469.522	357.96
469.959	311.14
470.396	261.99
470.833	283.06
471.271	320.51
471.708	407.11
472.145	308.8
472.582	299.44
473.019	350.93
473.456	290.08
473.892	334.55
474.329	299.44
474.766	322.85
475.202	343.91
475.639	369.66
476.076	343.91
476.512	299.44
476.949	372
477.385	357.96
477.821	339.23
478.258	287.74
478.694	350.93
479.13	343.91
479.566	280.72
480.002	318.17
480.438	353.27
480.874	334.55
481.31	301.78
481.746	322.85
482.181	322.85
482.617	325.19
483.053	353.27
483.488	355.62
483.924	376.68
484.36	273.7
484.795	278.38
485.23	386.04
485.666	322.85
486.101	364.98
486.536	322.85
486.971	329.87
487.407	304.12
487.842	297.1
488.277	308.8
488.712	320.51
489.146	336.89
489.581	292.42
490.016	278.38
490.451	346.25
490.885	332.21
491.32	304.12
491.755	350.93
492.189	273.7
492.624	304.12
493.058	367.32
493.492	339.23
493.927	339.23
494.361	383.7
494.795	343.91
495.229	290.08
495.663	402.43
496.097	308.8
496.531	336.89
496.965	348.59
497.399	369.66
497.833	313.49
498.266	318.17
498.7	336.89
499.134	313.49
499.567	301.78
500.001	325.19
500.434	327.53
500.868	350.93
501.301	311.14
501.734	233.91
502.168	334.55
502.601	364.98
503.034	390.72
503.467	346.25
503.9	341.57
504.333	367.32
504.766	257.31
505.199	381.36
505.632	364.98
506.064	325.19
506.497	332.21
506.93	311.14
507.362	301.78
507.795	369.66
508.227	292.42
508.66	325.19
509.092	341.57
509.524	327.53
509.956	329.87
510.389	299.44
510.821	357.96
511.253	278.38
511.685	313.49
512.117	294.76
512.549	327.53
512.981	299.44
513.412	292.42
513.844	348.59
514.276	357.96
514.707	350.93
515.139	313.49
515.571	341.57
516.002	350.93
516.433	285.4
516.865	273.7
517.296	315.83
517.727	297.1
518.159	320.51
518.59	278.38
519.021	313.49
519.452	348.59
519.883	357.96
520.314	379.02
520.744	283.06
521.175	320.51
521.606	355.62
522.037	261.99
522.467	404.77
522.898	280.72
523.328	360.3
523.759	350.93
524.189	327.53
524.62	308.8
525.05	308.8
525.48	315.83
525.91	362.64
526.341	393.06
526.771	304.12
527.201	360.3
527.631	287.74
528.061	353.27
528.49	332.21
528.92	362.64
529.35	311.14
529.78	343.91
530.209	372
530.639	381.36
531.068	292.42
531.498	322.85
531.927	325.19
532.357	334.55
532.786	320.51
533.215	393.06
533.644	353.27
534.074	292.42
534.503	311.14
534.932	299.44
535.361	346.25
535.79	381.36
536.218	360.3
536.647	313.49
537.076	336.89
537.505	416.47
537.933	315.83
538.362	381.36
538.79	301.78
539.219	313.49
539.647	297.1
540.076	357.96
540.504	414.13
540.932	341.57
541.36	278.38
541.788	292.42
542.217	243.27
542.645	374.34
543.073	315.83
543.5	343.91
543.928	294.76
544.356	299.44
544.784	322.85
545.211	292.42
545.639	376.68
546.067	348.59
546.494	308.8
546.922	259.65
547.349	360.3
547.776	374.34
548.204	346.25
548.631	322.85
549.058	343.91
549.485	297.1
549.912	280.72
550.339	276.04
550.766	320.51
551.193	315.83
551.62	320.51
552.047	290.08
552.474	301.78
552.9	355.62
553.327	329.87
553.754	355.62
554.18	313.49
554.607	299.44
555.033	257.31
555.459	299.44
555.886	369.66
556.312	348.59
556.738	318.17
557.164	325.19
557.59	308.8
558.016	325.19
558.442	346.25
558.868	327.53
559.294	414.13
559.72	304.12
560.145	376.68
560.571	308.8
560.997	280.72
561.422	341.57
561.848	311.14
562.273	341.57
562.699	332.21
563.124	304.12
563.549	273.7
563.974	304.12
564.4	311.14
564.825	320.51
565.25	320.51
565.675	374.34
566.1	343.91
566.525	453.92
566.95	257.31
567.374	243.27
567.799	290.08
568.224	334.55
568.648	357.96
569.073	348.59
569.497	332.21
569.922	285.4
570.346	311.14
570.771	393.06
571.195	350.93
571.619	320.51
572.043	315.83
572.467	308.8
572.891	327.53
573.315	315.83
573.739	290.08
574.163	325.19
574.587	318.17
575.011	304.12
575.435	311.14
575.858	327.53
576.282	386.04
576.705	327.53
577.129	329.87
577.552	360.3
577.976	388.38
578.399	294.76
578.822	388.38
579.245	299.44
579.669	306.46
580.092	292.42
580.515	362.64
580.938	334.55
581.361	308.8
581.784	329.87
582.206	322.85
582.629	325.19
583.052	353.27
583.474	327.53
583.897	374.34
584.32	339.23
584.742	339.23
585.165	334.55
585.587	346.25
586.009	341.57
586.431	322.85
586.854	346.25
587.276	386.04
587.698	327.53
588.12	278.38
588.542	320.51
588.964	322.85
589.386	308.8
589.807	290.08
590.229	287.74
590.651	360.3
591.073	311.14
591.494	360.3
591.916	355.62
592.337	367.32
592.759	311.14
593.18	327.53
593.601	311.14
594.022	332.21
594.444	336.89
594.865	257.31
595.286	299.44
595.707	369.66
596.128	334.55
596.549	374.34
596.97	376.68
597.39	355.62
597.811	315.83
598.232	264.33
598.652	346.25
599.073	294.76
599.494	285.4
599.914	357.96
600.334	276.04
600.755	350.93
601.175	339.23
601.595	325.19
602.015	318.17
602.436	390.72
602.856	456.26
603.276	374.34
603.696	343.91
604.115	299.44
604.535	292.42
604.955	339.23
605.375	313.49
605.794	343.91
606.214	318.17
606.634	299.44
607.053	318.17
607.473	315.83
607.892	325.19
608.311	294.76
608.731	280.72
609.15	332.21
609.569	390.72
609.988	372
610.407	278.38
610.826	350.93
611.245	357.96
611.664	320.51
612.083	362.64
612.501	306.46
612.92	334.55
613.339	308.8
613.757	360.3
614.176	329.87
614.594	348.59
615.013	367.32
615.431	285.4
615.85	357.96
616.268	318.17
616.686	308.8
617.104	327.53
617.522	367.32
617.94	280.72
618.358	322.85
618.776	285.4
619.194	346.25
619.612	332.21
620.03	322.85
620.447	311.14
620.865	329.87
621.282	379.02
621.7	357.96
622.117	348.59
622.535	346.25
622.952	350.93
623.369	301.78
623.787	332.21
624.204	346.25
624.621	318.17
625.038	306.46
625.455	322.85
625.872	367.32
626.289	360.3
626.706	322.85
627.123	325.19
627.539	329.87
627.956	308.8
628.373	306.46
628.789	325.19
629.206	362.64
629.622	322.85
630.038	318.17
630.455	353.27
630.871	325.19
631.287	306.46
631.703	311.14
632.12	355.62
632.536	325.19
632.952	329.87
633.368	320.51
633.783	276.04
634.199	350.93
634.615	292.42
635.031	322.85
635.446	322.85
635.862	315.83
636.277	386.04
636.693	355.62
637.108	301.78
637.524	259.65
637.939	311.14
638.354	280.72
638.77	304.12
639.185	346.25
639.6	315.83
640.015	313.49
640.43	327.53
640.845	339.23
641.259	290.08
641.674	325.19
642.089	278.38
642.504	304.12
642.918	322.85
643.333	299.44
643.747	297.1
644.162	287.74
644.576	325.19
644.991	311.14
645.405	318.17
645.819	376.68
646.233	339.23
646.647	301.78
647.061	341.57
647.475	350.93
647.889	341.57
648.303	369.66
648.717	346.25
649.131	297.1
649.545	315.83
649.958	339.23
650.372	301.78
650.785	355.62
651.199	367.32
651.612	339.23
652.026	341.57
652.439	327.53
652.852	350.93
653.266	294.76
653.679	290.08
654.092	339.23
654.505	290.08
654.918	339.23
655.331	372
655.744	294.76
656.156	299.44
656.569	364.98
656.982	299.44
657.394	315.83
657.807	311.14
658.22	304.12
658.632	360.3
659.044	332.21
659.457	348.59
659.869	346.25
660.281	372
660.693	334.55
661.106	339.23
661.518	350.93
661.93	327.53
662.342	343.91
662.754	269.02
663.165	318.17
663.577	273.7
663.989	350.93
664.401	329.87
664.812	283.06
665.224	341.57
665.635	280.72
666.047	339.23
666.458	299.44
666.869	341.57
667.281	264.33
667.692	313.49
668.103	327.53
668.514	299.44
668.925	320.51
669.336	341.57
669.747	367.32
670.158	341.57
670.569	322.85
670.979	346.25
671.39	376.68
671.801	332.21
672.211	325.19
672.622	339.23
673.032	332.21
673.443	294.76
673.853	343.91
674.263	297.1
674.674	388.38
675.084	325.19
675.494	357.96
675.904	357.96
676.314	278.38
676.724	329.87
677.134	283.06
677.544	322.85
677.953	327.53
678.363	311.14
678.773	425.83
679.182	299.44
679.592	372
680.001	369.66
680.411	327.53
680.82	343.91
681.23	327.53
681.639	297.1
682.048	315.83
682.457	313.49
682.866	329.87
683.275	285.4
683.684	250.29
684.093	334.55
684.502	292.42
684.911	261.99
685.32	343.91
685.728	297.1
686.137	353.27
686.546	266.67
686.954	332.21
687.363	334.55
687.771	306.46
688.179	334.55
688.588	292.42
688.996	269.02
689.404	334.55
689.812	372
690.22	273.7
690.628	261.99
691.036	287.74
691.444	357.96
691.852	339.23
692.26	285.4
692.667	266.67
693.075	292.42
693.483	308.8
693.89	318.17
694.298	315.83
694.705	339.23
695.112	308.8
695.52	332.21
695.927	322.85
696.334	269.02
696.741	266.67
697.148	313.49
697.555	283.06
697.962	306.46
698.369	297.1
698.776	339.23
699.183	376.68
699.59	299.44
699.996	250.29
700.403	269.02
700.81	304.12
701.216	332.21
701.623	336.89
702.029	353.27
702.435	320.51
702.842	329.87
703.248	311.14
703.654	294.76
704.06	259.65
704.466	369.66
704.872	271.36
705.278	355.62
705.684	362.64
706.09	334.55
706.496	329.87
706.901	341.57
707.307	294.76
707.712	287.74
708.118	348.59
708.523	308.8
708.929	339.23
709.334	311.14
709.74	386.04
710.145	407.11
710.55	290.08
710.955	294.76
711.36	421.15
711.765	350.93
712.17	395.4
712.575	346.25
712.98	882.24
713.385	318.17
713.789	376.68
714.194	308.8
714.599	276.04
715.003	299.44
715.408	322.85
715.812	360.3
716.217	350.93
716.621	320.51
717.025	308.8
717.429	404.77
717.833	311.14
718.238	240.93
718.642	360.3
719.046	271.36
719.449	304.12
719.853	299.44
720.257	329.87
720.661	301.78
721.065	290.08
721.468	315.83
721.872	290.08
722.275	285.4
722.679	332.21
723.082	322.85
723.485	264.33
723.889	304.12
724.292	329.87
724.695	269.02
725.098	320.51
725.501	327.53
725.904	283.06
726.307	346.25
726.71	343.91
727.113	355.62
727.516	280.72
727.918	313.49
728.321	322.85
728.724	320.51
729.126	294.76
729.529	327.53
729.931	315.83
730.333	376.68
730.736	341.57
731.138	329.87
731.54	341.57
731.942	283.06
732.344	308.8
732.746	343.91
733.148	280.72
733.55	329.87
733.952	318.17
734.354	341.57
734.756	283.06
735.157	294.76
735.559	243.27
735.96	276.04
736.362	362.64
736.763	294.76
737.165	357.96
737.566	350.93
737.967	334.55
738.368	329.87
738.77	301.78
739.171	336.89
739.572	292.42
739.973	311.14
740.374	336.89
740.774	327.53
741.175	276.04
741.576	322.85
741.977	332.21
742.377	266.67
742.778	374.34
743.178	339.23
743.579	372
743.979	329.87
744.379	320.51
744.78	346.25
745.18	294.76
745.58	386.04
745.98	346.25
746.38	304.12
746.78	304.12
747.18	315.83
747.58	327.53
747.98	318.17
748.38	343.91
748.779	343.91
749.179	306.46
749.578	350.93
749.978	299.44
750.377	254.97
750.777	283.06
751.176	278.38
751.575	339.23
751.975	327.53
752.374	304.12
752.773	322.85
753.172	297.1
753.571	346.25
753.97	299.44
754.369	372
754.768	362.64
755.166	343.91
755.565	374.34
755.964	393.06
756.362	301.78
756.761	339.23
757.159	325.19
757.558	318.17
757.956	308.8
758.354	350.93
758.753	290.08
759.151	357.96
759.549	308.8
759.947	327.53
760.345	315.83
760.743	350.93
761.141	332.21
761.539	346.25
761.936	308.8
762.334	311.14
762.732	357.96
763.129	325.19
763.527	336.89
763.924	327.53
764.322	346.25
764.719	327.53
765.117	367.32
765.514	341.57
765.911	280.72
