Data from Al_FLMS009871__624__14-49-12-212.txt Node

Date: Fri Mar 08 14:49:12 CST 2024
User: pe5414po
Spectrometer: FLMS00987
Trigger mode: 0
Integration Time (sec): 1.000000E-1
Scans to average: 1
Electric dark correction enabled: true
Nonlinearity correction enabled: false
Boxcar width: 0
XAxis mode: Wavelengths
Number of Pixels in Spectrum: 2048
>>>>>Begin Spectral Data<<<<<
188.938	-104.74
189.409	-104.74
189.879	-104.74
190.349	-128.14
190.819	-116.44
191.29	-93.04
191.76	-97.72
192.23	-62.61
192.7	-90.7
193.17	-60.27
193.64	-95.38
194.109	-55.59
194.579	-25.16
195.049	40.37
195.519	38.03
195.988	84.84
196.458	68.46
196.927	21.65
197.397	105.91
197.866	68.46
198.336	152.72
198.805	148.04
199.274	124.63
199.744	129.31
200.213	166.76
200.682	251.02
201.151	187.83
201.62	246.34
202.089	267.41
202.558	248.68
203.027	290.81
203.495	265.07
203.964	288.47
204.433	244
204.902	276.77
205.37	251.02
205.839	208.89
206.307	290.81
206.776	274.43
207.244	328.26
207.712	328.26
208.181	283.79
208.649	255.7
209.117	325.92
209.585	311.88
210.053	269.75
210.521	321.24
210.989	307.2
211.457	276.77
211.925	316.56
212.393	281.45
212.861	241.66
213.328	215.91
213.796	258.04
214.264	272.09
214.731	293.15
215.199	276.77
215.666	283.79
216.133	234.64
216.601	222.94
217.068	297.83
217.535	234.64
218.003	255.7
218.47	311.88
218.937	262.73
219.404	258.04
219.871	265.07
220.338	260.38
220.805	260.38
221.271	279.11
221.738	290.81
222.205	279.11
222.671	304.85
223.138	244
223.605	267.41
224.071	241.66
224.538	295.49
225.004	234.64
225.47	236.98
225.937	234.64
226.403	290.81
226.869	206.55
227.335	316.56
227.801	265.07
228.267	222.94
228.733	307.2
229.199	246.34
229.665	276.77
230.131	311.88
230.597	248.68
231.062	328.26
231.528	269.75
231.994	276.77
232.459	283.79
232.925	309.54
233.39	255.7
233.856	346.98
234.321	253.36
234.786	307.2
235.252	241.66
235.717	279.11
236.182	288.47
236.647	236.98
237.112	281.45
237.577	267.41
238.042	290.81
238.507	286.13
238.972	321.24
239.436	293.15
239.901	234.64
240.366	279.11
240.83	314.22
241.295	288.47
241.76	194.85
242.224	311.88
242.688	290.81
243.153	248.68
243.617	229.96
244.081	290.81
244.545	246.34
245.01	288.47
245.474	239.32
245.938	286.13
246.402	302.51
246.866	297.83
247.33	229.96
247.793	272.09
248.257	281.45
248.721	344.64
249.185	304.85
249.648	328.26
250.112	307.2
250.575	251.02
251.039	267.41
251.502	314.22
251.965	302.51
252.429	295.49
252.892	211.23
253.355	318.9
253.818	286.13
254.281	283.79
254.744	295.49
255.207	318.9
255.67	297.83
256.133	286.13
256.596	297.83
257.059	328.26
257.522	283.79
257.984	225.28
258.447	276.77
258.909	253.36
259.372	279.11
259.834	302.51
260.297	246.34
260.759	290.81
261.221	297.83
261.684	290.81
262.146	297.83
262.608	302.51
263.07	274.43
263.532	337.62
263.994	302.51
264.456	267.41
264.918	269.75
265.38	288.47
265.842	307.2
266.303	255.7
266.765	286.13
267.227	276.77
267.688	239.32
268.15	332.94
268.611	288.47
269.072	244
269.534	323.58
269.995	314.22
270.456	244
270.918	267.41
271.379	260.38
271.84	337.62
272.301	248.68
272.762	269.75
273.223	290.81
273.684	295.49
274.144	265.07
274.605	286.13
275.066	351.67
275.527	260.38
275.987	262.73
276.448	288.47
276.908	272.09
277.369	281.45
277.829	286.13
278.289	255.7
278.75	290.81
279.21	335.28
279.67	293.15
280.13	328.26
280.59	321.24
281.05	321.24
281.51	281.45
281.97	339.96
282.43	368.05
282.89	302.51
283.35	377.41
283.809	339.96
284.269	307.2
284.729	316.56
285.188	265.07
285.648	316.56
286.107	325.92
286.567	328.26
287.026	361.03
287.485	302.51
287.944	318.9
288.404	272.09
288.863	293.15
289.322	290.81
289.781	358.69
290.24	349.32
290.699	307.2
291.158	321.24
291.616	302.51
292.075	302.51
292.534	368.05
292.992	290.81
293.451	368.05
293.91	293.15
294.368	391.45
294.827	232.3
295.285	274.43
295.743	358.69
296.202	330.6
296.66	318.9
297.118	262.73
297.576	307.2
298.034	246.34
298.492	241.66
298.95	330.6
299.408	330.6
299.866	337.62
300.324	302.51
300.781	258.04
301.239	358.69
301.697	218.25
302.154	260.38
302.612	321.24
303.069	272.09
303.527	293.15
303.984	330.6
304.441	211.23
304.899	269.75
305.356	311.88
305.813	269.75
306.27	307.2
306.727	290.81
307.184	337.62
307.641	288.47
308.098	262.73
308.555	295.49
309.012	232.3
309.468	321.24
309.925	276.77
310.382	265.07
310.838	295.49
311.295	290.81
311.751	283.79
312.208	309.54
312.664	302.51
313.12	346.98
313.577	213.57
314.033	293.15
314.489	297.83
314.945	325.92
315.401	330.6
315.857	281.45
316.313	255.7
316.769	346.98
317.225	323.58
317.681	358.69
318.136	311.88
318.592	335.28
319.048	321.24
319.503	272.09
319.959	311.88
320.414	222.94
320.869	304.85
321.325	288.47
321.78	265.07
322.235	297.83
322.691	365.71
323.146	300.17
323.601	267.41
324.056	208.89
324.511	276.77
324.966	274.43
325.421	339.96
325.875	304.85
326.33	288.47
326.785	346.98
327.24	372.73
327.694	274.43
328.149	337.62
328.603	309.54
329.058	349.32
329.512	290.81
329.966	316.56
330.421	269.75
330.875	288.47
331.329	363.37
331.783	325.92
332.237	253.36
332.691	332.94
333.145	309.54
333.599	281.45
334.053	384.43
334.507	307.2
334.96	314.22
335.414	302.51
335.868	349.32
336.321	363.37
336.775	337.62
337.228	346.98
337.682	382.09
338.135	339.96
338.588	304.85
339.042	358.69
339.495	311.88
339.948	304.85
340.401	363.37
340.854	276.77
341.307	302.51
341.76	321.24
342.213	314.22
342.666	384.43
343.119	295.49
343.571	386.77
344.024	325.92
344.477	323.58
344.929	382.09
345.382	346.98
345.834	288.47
346.287	328.26
346.739	337.62
347.191	356.35
347.644	330.6
348.096	337.62
348.548	297.83
349	325.92
349.452	368.05
349.904	293.15
350.356	372.73
350.808	229.96
351.26	361.03
351.711	307.2
352.163	339.96
352.615	337.62
353.066	332.94
353.518	351.67
353.969	323.58
354.421	330.6
354.872	269.75
355.324	351.67
355.775	318.9
356.226	258.04
356.677	302.51
357.128	370.39
357.579	300.17
358.03	293.15
358.481	342.3
358.932	335.28
359.383	272.09
359.834	307.2
360.285	246.34
360.735	304.85
361.186	314.22
361.637	368.05
362.087	314.22
362.538	288.47
362.988	281.45
363.438	286.13
363.889	344.64
364.339	323.58
364.789	318.9
365.239	330.6
365.689	300.17
366.139	337.62
366.589	342.3
367.039	307.2
367.489	260.38
367.939	283.79
368.389	339.96
368.839	314.22
369.288	318.9
369.738	253.36
370.187	279.11
370.637	307.2
371.086	318.9
371.536	274.43
371.985	274.43
372.434	281.45
372.884	309.54
373.333	311.88
373.782	293.15
374.231	297.83
374.68	325.92
375.129	363.37
375.578	279.11
376.027	293.15
376.475	370.39
376.924	332.94
377.373	323.58
377.822	361.03
378.27	325.92
378.719	318.9
379.167	290.81
379.616	309.54
380.064	300.17
380.512	332.94
380.961	321.24
381.409	325.92
381.857	288.47
382.305	227.62
382.753	337.62
383.201	339.96
383.649	262.73
384.097	342.3
384.545	344.64
384.992	316.56
385.44	293.15
385.888	325.92
386.335	318.9
386.783	253.36
387.231	323.58
387.678	293.15
388.125	244
388.573	325.92
389.02	260.38
389.467	351.67
389.914	358.69
390.362	344.64
390.809	328.26
391.256	295.49
391.703	290.81
392.15	358.69
392.596	351.67
393.043	354.01
393.49	365.71
393.937	260.38
394.383	354.01
394.83	323.58
395.276	323.58
395.723	330.6
396.169	342.3
396.616	365.71
397.062	346.98
397.508	262.73
397.954	339.96
398.401	346.98
398.847	316.56
399.293	344.64
399.739	288.47
400.185	321.24
400.631	325.92
401.076	314.22
401.522	295.49
401.968	309.54
402.414	311.88
402.859	342.3
403.305	393.8
403.75	309.54
404.196	339.96
404.641	391.45
405.086	328.26
405.532	363.37
405.977	358.69
406.422	307.2
406.867	318.9
407.312	260.38
407.757	300.17
408.202	358.69
408.647	304.85
409.092	288.47
409.537	267.41
409.982	372.73
410.426	311.88
410.871	356.35
411.316	286.13
411.76	295.49
412.205	370.39
412.649	302.51
413.093	321.24
413.538	337.62
413.982	286.13
414.426	276.77
414.87	368.05
415.314	335.28
415.758	297.83
416.202	351.67
416.646	276.77
417.09	400.82
417.534	351.67
417.978	309.54
418.421	346.98
418.865	314.22
419.309	342.3
419.752	337.62
420.196	288.47
420.639	372.73
421.083	290.81
421.526	295.49
421.969	279.11
422.412	304.85
422.856	295.49
423.299	279.11
423.742	361.03
424.185	286.13
424.628	328.26
425.071	290.81
425.513	309.54
425.956	295.49
426.399	300.17
426.842	368.05
427.284	339.96
427.727	307.2
428.169	398.48
428.612	358.69
429.054	382.09
429.497	339.96
429.939	356.35
430.381	328.26
430.823	293.15
431.265	272.09
431.707	358.69
432.149	297.83
432.591	358.69
433.033	321.24
433.475	358.69
433.917	321.24
434.359	304.85
434.8	269.75
435.242	316.56
435.684	307.2
436.125	321.24
436.567	290.81
437.008	304.85
437.449	332.94
437.891	267.41
438.332	396.14
438.773	339.96
439.214	314.22
439.656	253.36
440.097	323.58
440.538	283.79
440.978	339.96
441.419	356.35
441.86	335.28
442.301	318.9
442.742	339.96
443.182	279.11
443.623	246.34
444.063	304.85
444.504	354.01
444.944	213.57
445.385	300.17
445.825	316.56
446.265	323.58
446.706	309.54
447.146	332.94
447.586	344.64
448.026	351.67
448.466	314.22
448.906	321.24
449.346	309.54
449.786	276.77
450.225	295.49
450.665	300.17
451.105	316.56
451.544	354.01
451.984	318.9
452.424	309.54
452.863	293.15
453.302	375.07
453.742	332.94
454.181	396.14
454.62	251.02
455.059	344.64
455.499	368.05
455.938	262.73
456.377	255.7
456.816	300.17
457.254	337.62
457.693	325.92
458.132	293.15
458.571	428.9
459.01	382.09
459.448	293.15
459.887	286.13
460.325	405.5
460.764	309.54
461.202	318.9
461.641	321.24
462.079	323.58
462.517	316.56
462.955	302.51
463.393	288.47
463.832	311.88
464.27	304.85
464.708	290.81
465.145	283.79
465.583	361.03
466.021	325.92
466.459	281.45
466.897	321.24
467.334	297.83
467.772	290.81
468.209	323.58
468.647	358.69
469.084	321.24
469.522	309.54
469.959	288.47
470.396	272.09
470.833	316.56
471.271	368.05
471.708	279.11
472.145	276.77
472.582	283.79
473.019	328.26
473.456	307.2
473.892	351.67
474.329	342.3
474.766	321.24
475.202	302.51
475.639	276.77
476.076	318.9
476.512	314.22
476.949	246.34
477.385	255.7
477.821	286.13
478.258	354.01
478.694	337.62
479.13	316.56
479.566	391.45
480.002	337.62
480.438	332.94
480.874	297.83
481.31	332.94
481.746	318.9
482.181	311.88
482.617	295.49
483.053	346.98
483.488	351.67
483.924	288.47
484.36	354.01
484.795	342.3
485.23	330.6
485.666	337.62
486.101	323.58
486.536	295.49
486.971	318.9
487.407	321.24
487.842	260.38
488.277	328.26
488.712	290.81
489.146	349.32
489.581	358.69
490.016	290.81
490.451	274.43
490.885	288.47
491.32	363.37
491.755	297.83
492.189	321.24
492.624	321.24
493.058	323.58
493.492	300.17
493.927	295.49
494.361	311.88
494.795	325.92
495.229	304.85
495.663	274.43
496.097	304.85
496.531	274.43
496.965	351.67
497.399	346.98
497.833	311.88
498.266	300.17
498.7	325.92
499.134	346.98
499.567	311.88
500.001	265.07
500.434	307.2
500.868	295.49
501.301	307.2
501.734	344.64
502.168	325.92
502.601	262.73
503.034	328.26
503.467	295.49
503.9	267.41
504.333	267.41
504.766	330.6
505.199	358.69
505.632	328.26
506.064	351.67
506.497	276.77
506.93	288.47
507.362	283.79
507.795	316.56
508.227	286.13
508.66	328.26
509.092	375.07
509.524	335.28
509.956	304.85
510.389	314.22
510.821	316.56
511.253	377.41
511.685	300.17
512.117	286.13
512.549	332.94
512.981	346.98
513.412	354.01
513.844	307.2
514.276	304.85
514.707	332.94
515.139	307.2
515.571	295.49
516.002	295.49
516.433	314.22
516.865	295.49
517.296	318.9
517.727	356.35
518.159	290.81
518.59	304.85
519.021	318.9
519.452	391.45
519.883	325.92
520.314	339.96
520.744	276.77
521.175	279.11
521.606	384.43
522.037	286.13
522.467	274.43
522.898	384.43
523.328	356.35
523.759	297.83
524.189	309.54
524.62	358.69
525.05	283.79
525.48	283.79
525.91	328.26
526.341	311.88
526.771	297.83
527.201	279.11
527.631	279.11
528.061	325.92
528.49	339.96
528.92	323.58
529.35	272.09
529.78	337.62
530.209	290.81
530.639	283.79
531.068	337.62
531.498	321.24
531.927	325.92
532.357	358.69
532.786	279.11
533.215	335.28
533.644	283.79
534.074	328.26
534.503	269.75
534.932	356.35
535.361	318.9
535.79	358.69
536.218	279.11
536.647	286.13
537.076	363.37
537.505	311.88
537.933	316.56
538.362	393.8
538.79	248.68
539.219	290.81
539.647	344.64
540.076	290.81
540.504	339.96
540.932	384.43
541.36	363.37
541.788	337.62
542.217	363.37
542.645	358.69
543.073	283.79
543.5	304.85
543.928	330.6
544.356	281.45
544.784	311.88
545.211	335.28
545.639	314.22
546.067	279.11
546.494	297.83
546.922	354.01
547.349	384.43
547.776	295.49
548.204	351.67
548.631	295.49
549.058	379.75
549.485	288.47
549.912	346.98
550.339	286.13
550.766	361.03
551.193	328.26
551.62	276.77
552.047	335.28
552.474	346.98
552.9	337.62
553.327	302.51
553.754	281.45
554.18	332.94
554.607	335.28
555.033	279.11
555.459	325.92
555.886	302.51
556.312	365.71
556.738	342.3
557.164	300.17
557.59	346.98
558.016	335.28
558.442	311.88
558.868	328.26
559.294	316.56
559.72	274.43
560.145	318.9
560.571	330.6
560.997	339.96
561.422	356.35
561.848	349.32
562.273	288.47
562.699	363.37
563.124	321.24
563.549	297.83
563.974	354.01
564.4	342.3
564.825	318.9
565.25	316.56
565.675	379.75
566.1	318.9
566.525	375.07
566.95	283.79
567.374	272.09
567.799	365.71
568.224	311.88
568.648	321.24
569.073	339.96
569.497	358.69
569.922	363.37
570.346	330.6
570.771	368.05
571.195	330.6
571.619	316.56
572.043	276.77
572.467	358.69
572.891	283.79
573.315	274.43
573.739	351.67
574.163	351.67
574.587	368.05
575.011	339.96
575.435	302.51
575.858	304.85
576.282	407.84
576.705	358.69
577.129	311.88
577.552	339.96
577.976	290.81
578.399	272.09
578.822	302.51
579.245	316.56
579.669	302.51
580.092	293.15
580.515	260.38
580.938	363.37
581.361	332.94
581.784	311.88
582.206	325.92
582.629	276.77
583.052	286.13
583.474	295.49
583.897	302.51
584.32	332.94
584.742	351.67
585.165	342.3
585.587	276.77
586.009	349.32
586.431	286.13
586.854	342.3
587.276	337.62
587.698	281.45
588.12	274.43
588.542	258.04
588.964	318.9
589.386	339.96
589.807	236.98
590.229	288.47
590.651	267.41
591.073	354.01
591.494	293.15
591.916	283.79
592.337	370.39
592.759	328.26
593.18	304.85
593.601	368.05
594.022	339.96
594.444	332.94
594.865	339.96
595.286	295.49
595.707	368.05
596.128	368.05
596.549	281.45
596.97	288.47
597.39	323.58
597.811	325.92
598.232	330.6
598.652	293.15
599.073	304.85
599.494	314.22
599.914	304.85
600.334	344.64
600.755	232.3
601.175	314.22
601.595	328.26
602.015	328.26
602.436	361.03
602.856	407.84
603.276	318.9
603.696	321.24
604.115	414.86
604.535	314.22
604.955	379.75
605.375	236.98
605.794	241.66
606.214	269.75
606.634	276.77
607.053	342.3
607.473	297.83
607.892	286.13
608.311	356.35
608.731	286.13
609.15	295.49
609.569	272.09
609.988	337.62
610.407	358.69
610.826	314.22
611.245	304.85
611.664	339.96
612.083	316.56
612.501	274.43
612.92	379.75
613.339	248.68
613.757	325.92
614.176	379.75
614.594	339.96
615.013	272.09
615.431	337.62
615.85	295.49
616.268	281.45
616.686	302.51
617.104	274.43
617.522	335.28
617.94	328.26
618.358	311.88
618.776	274.43
619.194	269.75
619.612	361.03
620.03	297.83
620.447	316.56
620.865	339.96
621.282	337.62
621.7	323.58
622.117	258.04
622.535	365.71
622.952	382.09
623.369	321.24
623.787	342.3
624.204	332.94
624.621	363.37
625.038	342.3
625.455	358.69
625.872	244
626.289	286.13
626.706	286.13
627.123	244
627.539	358.69
627.956	260.38
628.373	276.77
628.789	332.94
629.206	279.11
629.622	302.51
630.038	267.41
630.455	295.49
630.871	290.81
631.287	351.67
631.703	311.88
632.12	356.35
632.536	267.41
632.952	297.83
633.368	318.9
633.783	335.28
634.199	311.88
634.615	332.94
635.031	389.11
635.446	330.6
635.862	351.67
636.277	311.88
636.693	361.03
637.108	290.81
637.524	279.11
637.939	370.39
638.354	255.7
638.77	342.3
639.185	386.77
639.6	318.9
640.015	328.26
640.43	302.51
640.845	323.58
641.259	330.6
641.674	339.96
642.089	382.09
642.504	330.6
642.918	253.36
643.333	279.11
643.747	307.2
644.162	309.54
644.576	349.32
644.991	227.62
645.405	276.77
645.819	332.94
646.233	335.28
646.647	410.18
647.061	339.96
647.475	328.26
647.889	244
648.303	220.6
648.717	337.62
649.131	344.64
649.545	321.24
649.958	382.09
650.372	346.98
650.785	349.32
651.199	272.09
651.612	293.15
652.026	300.17
652.439	368.05
652.852	288.47
653.266	321.24
653.679	288.47
654.092	344.64
654.505	316.56
654.918	332.94
655.331	251.02
655.744	346.98
656.156	342.3
656.569	332.94
656.982	276.77
657.394	323.58
657.807	265.07
658.22	370.39
658.632	286.13
659.044	276.77
659.457	267.41
659.869	293.15
660.281	351.67
660.693	346.98
661.106	290.81
661.518	253.36
661.93	316.56
662.342	300.17
662.754	251.02
663.165	377.41
663.577	344.64
663.989	281.45
664.401	311.88
664.812	323.58
665.224	311.88
665.635	337.62
666.047	269.75
666.458	265.07
666.869	314.22
667.281	274.43
667.692	386.77
668.103	267.41
668.514	274.43
668.925	323.58
669.336	311.88
669.747	419.54
670.158	290.81
670.569	400.82
670.979	286.13
671.39	293.15
671.801	323.58
672.211	297.83
672.622	332.94
673.032	304.85
673.443	321.24
673.853	272.09
674.263	346.98
674.674	253.36
675.084	337.62
675.494	274.43
675.904	325.92
676.314	307.2
676.724	302.51
677.134	330.6
677.544	255.7
677.953	351.67
678.363	370.39
678.773	344.64
679.182	269.75
679.592	354.01
680.001	300.17
680.411	328.26
680.82	253.36
681.23	300.17
681.639	342.3
682.048	302.51
682.457	344.64
682.866	307.2
683.275	372.73
683.684	253.36
684.093	405.5
684.502	290.81
684.911	304.85
685.32	351.67
685.728	227.62
686.137	279.11
686.546	335.28
686.954	370.39
687.363	407.84
687.771	344.64
688.179	365.71
688.588	356.35
688.996	332.94
689.404	389.11
689.812	314.22
690.22	265.07
690.628	354.01
691.036	281.45
691.444	361.03
691.852	346.98
692.26	354.01
692.667	351.67
693.075	335.28
693.483	332.94
693.89	307.2
694.298	286.13
694.705	253.36
695.112	318.9
695.52	356.35
695.927	351.67
696.334	309.54
696.741	321.24
697.148	269.75
697.555	316.56
697.962	384.43
698.369	279.11
698.776	307.2
699.183	276.77
699.59	309.54
699.996	335.28
700.403	370.39
700.81	361.03
701.216	332.94
701.623	255.7
702.029	286.13
702.435	272.09
702.842	318.9
703.248	290.81
703.654	288.47
704.06	314.22
704.466	344.64
704.872	335.28
705.278	339.96
705.684	309.54
706.09	300.17
706.496	229.96
706.901	365.71
707.307	358.69
707.712	339.96
708.118	325.92
708.523	342.3
708.929	311.88
709.334	302.51
709.74	325.92
710.145	365.71
710.55	286.13
710.955	293.15
711.36	288.47
711.765	290.81
712.17	288.47
712.575	229.96
712.98	775.3
713.385	417.2
713.789	339.96
714.194	295.49
714.599	332.94
715.003	286.13
715.408	342.3
715.812	311.88
716.217	328.26
716.621	342.3
717.025	323.58
717.429	286.13
717.833	396.14
718.238	363.37
718.642	328.26
719.046	365.71
719.449	323.58
719.853	344.64
720.257	342.3
720.661	307.2
721.065	335.28
721.468	290.81
721.872	332.94
722.275	318.9
722.679	304.85
723.082	356.35
723.485	396.14
723.889	351.67
724.292	339.96
724.695	332.94
725.098	325.92
725.501	349.32
725.904	295.49
726.307	382.09
726.71	276.77
727.113	281.45
727.516	354.01
727.918	281.45
728.321	375.07
728.724	295.49
729.126	279.11
729.529	346.98
729.931	255.7
730.333	325.92
730.736	337.62
731.138	286.13
731.54	307.2
731.942	335.28
732.344	300.17
732.746	377.41
733.148	262.73
733.55	342.3
733.952	281.45
734.354	349.32
734.756	330.6
735.157	311.88
735.559	248.68
735.96	344.64
736.362	330.6
736.763	288.47
737.165	339.96
737.566	215.91
737.967	304.85
738.368	265.07
738.77	314.22
739.171	349.32
739.572	302.51
739.973	276.77
740.374	339.96
740.774	286.13
741.175	307.2
741.576	363.37
741.977	379.75
742.377	307.2
742.778	234.64
743.178	300.17
743.579	304.85
743.979	328.26
744.379	342.3
744.78	344.64
745.18	321.24
745.58	337.62
745.98	325.92
746.38	300.17
746.78	393.8
747.18	293.15
747.58	325.92
747.98	314.22
748.38	339.96
748.779	274.43
749.179	321.24
749.578	276.77
749.978	375.07
750.377	325.92
750.777	274.43
751.176	358.69
751.575	295.49
751.975	325.92
752.374	328.26
752.773	255.7
753.172	316.56
753.571	300.17
753.97	365.71
754.369	297.83
754.768	302.51
755.166	346.98
755.565	349.32
755.964	260.38
756.362	351.67
756.761	344.64
757.159	302.51
757.558	269.75
757.956	267.41
758.354	314.22
758.753	300.17
759.151	288.47
759.549	351.67
759.947	290.81
760.345	365.71
760.743	269.75
761.141	309.54
761.539	304.85
761.936	283.79
762.334	283.79
762.732	356.35
763.129	255.7
763.527	346.98
763.924	358.69
764.322	288.47
764.719	288.47
765.117	279.11
765.514	335.28
