Data from Al_FLMS009871__630__14-49-12-812.txt Node

Date: Fri Mar 08 14:49:12 CST 2024
User: pe5414po
Spectrometer: FLMS00987
Trigger mode: 0
Integration Time (sec): 1.000000E-1
Scans to average: 1
Electric dark correction enabled: true
Nonlinearity correction enabled: false
Boxcar width: 0
XAxis mode: Wavelengths
Number of Pixels in Spectrum: 2048
>>>>>Begin Spectral Data<<<<<
188.938	-44.47
189.409	-44.47
189.879	-44.47
190.349	-88.94
190.819	-119.37
191.29	-72.56
191.76	-121.71
192.23	-114.69
192.7	-121.71
193.17	-86.6
193.64	-39.79
194.109	-25.75
194.579	18.72
195.049	25.75
195.519	18.72
195.988	84.26
196.458	49.15
196.927	58.51
197.397	88.94
197.866	147.45
198.336	91.28
198.805	161.5
199.274	133.41
199.744	140.43
200.213	149.79
200.682	191.92
201.151	175.54
201.62	180.22
202.089	241.08
202.558	203.63
203.027	271.5
203.495	220.01
203.964	255.12
204.433	234.05
204.902	220.01
205.37	236.39
205.839	243.42
206.307	311.29
206.776	315.97
207.244	243.42
207.712	269.16
208.181	250.44
208.649	269.16
209.117	257.46
209.585	269.16
210.053	313.63
210.521	262.14
210.989	266.82
211.457	257.46
211.925	271.5
212.393	271.5
212.861	264.48
213.328	271.5
213.796	308.95
214.264	297.25
214.731	330.02
215.199	198.95
215.666	264.48
216.133	292.57
216.601	285.55
217.068	241.08
217.535	236.39
218.003	231.71
218.47	245.76
218.937	201.29
219.404	290.23
219.871	245.76
220.338	187.24
220.805	315.97
221.271	243.42
221.738	292.57
222.205	255.12
222.671	250.44
223.138	201.29
223.605	198.95
224.071	255.12
224.538	250.44
225.004	299.59
225.47	205.97
225.937	278.52
226.403	236.39
226.869	276.18
227.335	315.97
227.801	236.39
228.267	252.78
228.733	241.08
229.199	220.01
229.665	266.82
230.131	273.84
230.597	287.89
231.062	294.91
231.528	224.69
231.994	215.33
232.459	212.99
232.925	257.46
233.39	257.46
233.856	283.2
234.321	194.26
234.786	215.33
235.252	299.59
235.717	196.6
236.182	292.57
236.647	224.69
237.112	297.25
237.577	189.58
238.042	283.2
238.507	297.25
238.972	227.03
239.436	238.73
239.901	269.16
240.366	231.71
240.83	224.69
241.295	292.57
241.76	252.78
242.224	191.92
242.688	243.42
243.153	259.8
243.617	222.35
244.081	297.25
244.545	337.04
245.01	278.52
245.474	262.14
245.938	229.37
246.402	271.5
246.866	264.48
247.33	276.18
247.793	283.2
248.257	299.59
248.721	320.65
249.185	273.84
249.648	248.1
250.112	255.12
250.575	269.16
251.039	325.33
251.502	344.06
251.965	294.91
252.429	241.08
252.892	299.59
253.355	257.46
253.818	280.86
254.281	276.18
254.744	257.46
255.207	245.76
255.67	304.27
256.133	231.71
256.596	257.46
257.059	215.33
257.522	264.48
257.984	234.05
258.447	308.95
258.909	266.82
259.372	245.76
259.834	297.25
260.297	273.84
260.759	212.99
261.221	271.5
261.684	325.33
262.146	280.86
262.608	292.57
263.07	257.46
263.532	283.2
263.994	304.27
264.456	287.89
264.918	208.31
265.38	252.78
265.842	217.67
266.303	243.42
266.765	248.1
267.227	269.16
267.688	269.16
268.15	315.97
268.611	236.39
269.072	276.18
269.534	308.95
269.995	294.91
270.456	257.46
270.918	278.52
271.379	266.82
271.84	259.8
272.301	322.99
272.762	262.14
273.223	271.5
273.684	262.14
274.144	294.91
274.605	290.23
275.066	376.83
275.527	194.26
275.987	325.33
276.448	262.14
276.908	278.52
277.369	325.33
277.829	294.91
278.289	290.23
278.75	259.8
279.21	290.23
279.67	276.18
280.13	257.46
280.59	245.76
281.05	285.55
281.51	245.76
281.97	290.23
282.43	271.5
282.89	315.97
283.35	332.36
283.809	250.44
284.269	269.16
284.729	292.57
285.188	205.97
285.648	234.05
286.107	257.46
286.567	290.23
287.026	301.93
287.485	264.48
287.944	250.44
288.404	257.46
288.863	292.57
289.322	269.16
289.781	306.61
290.24	327.67
290.699	271.5
291.158	348.74
291.616	257.46
292.075	224.69
292.534	259.8
292.992	269.16
293.451	250.44
293.91	220.01
294.368	348.74
294.827	257.46
295.285	276.18
295.743	285.55
296.202	266.82
296.66	227.03
297.118	290.23
297.576	285.55
298.034	276.18
298.492	276.18
298.95	283.2
299.408	273.84
299.866	243.42
300.324	299.59
300.781	257.46
301.239	222.35
301.697	231.71
302.154	301.93
302.612	269.16
303.069	280.86
303.527	313.63
303.984	252.78
304.441	297.25
304.899	318.31
305.356	301.93
305.813	294.91
306.27	320.65
306.727	304.27
307.184	315.97
307.641	301.93
308.098	304.27
308.555	315.97
309.012	332.36
309.468	266.82
309.925	269.16
310.382	243.42
310.838	285.55
311.295	313.63
311.751	285.55
312.208	294.91
312.664	292.57
313.12	351.08
313.577	257.46
314.033	266.82
314.489	248.1
314.945	287.89
315.401	243.42
315.857	243.42
316.313	224.69
316.769	304.27
317.225	290.23
317.681	255.12
318.136	273.84
318.592	255.12
319.048	285.55
319.503	264.48
319.959	264.48
320.414	250.44
320.869	255.12
321.325	262.14
321.78	306.61
322.235	273.84
322.691	276.18
323.146	273.84
323.601	255.12
324.056	304.27
324.511	273.84
324.966	271.5
325.421	297.25
325.875	259.8
326.33	257.46
326.785	306.61
327.24	320.65
327.694	271.5
328.149	313.63
328.603	355.76
329.058	322.99
329.512	330.02
329.966	292.57
330.421	337.04
330.875	301.93
331.329	365.12
331.783	301.93
332.237	292.57
332.691	353.42
333.145	269.16
333.599	273.84
334.053	273.84
334.507	330.02
334.96	318.31
335.414	318.31
335.868	344.06
336.321	297.25
336.775	339.38
337.228	278.52
337.682	334.7
338.135	262.14
338.588	271.5
339.042	325.33
339.495	313.63
339.948	290.23
340.401	315.97
340.854	320.65
341.307	224.69
341.76	337.04
342.213	273.84
342.666	322.99
343.119	269.16
343.571	367.46
344.024	297.25
344.477	334.7
344.929	346.4
345.382	234.05
345.834	287.89
346.287	313.63
346.739	280.86
347.191	311.29
347.644	283.2
348.096	243.42
348.548	266.82
349	292.57
349.452	259.8
349.904	311.29
350.356	245.76
350.808	294.91
351.26	301.93
351.711	238.73
352.163	245.76
352.615	353.42
353.066	257.46
353.518	339.38
353.969	337.04
354.421	330.02
354.872	243.42
355.324	276.18
355.775	311.29
356.226	287.89
356.677	311.29
357.128	278.52
357.579	332.36
358.03	311.29
358.481	266.82
358.932	255.12
359.383	294.91
359.834	294.91
360.285	273.84
360.735	271.5
361.186	292.57
361.637	304.27
362.087	266.82
362.538	306.61
362.988	292.57
363.438	245.76
363.889	332.36
364.339	229.37
364.789	299.59
365.239	372.15
365.689	320.65
366.139	257.46
366.589	285.55
367.039	241.08
367.489	299.59
367.939	330.02
368.389	308.95
368.839	285.55
369.288	276.18
369.738	301.93
370.187	264.48
370.637	344.06
371.086	285.55
371.536	285.55
371.985	278.52
372.434	372.15
372.884	294.91
373.333	360.44
373.782	374.49
374.231	407.25
374.68	271.5
375.129	308.95
375.578	285.55
376.027	269.16
376.475	308.95
376.924	315.97
377.373	278.52
377.822	322.99
378.27	266.82
378.719	297.25
379.167	257.46
379.616	365.12
380.064	285.55
380.512	290.23
380.961	313.63
381.409	257.46
381.857	311.29
382.305	346.4
382.753	330.02
383.201	327.67
383.649	322.99
384.097	311.29
384.545	381.51
384.992	283.2
385.44	283.2
385.888	285.55
386.335	339.38
386.783	337.04
387.231	311.29
387.678	315.97
388.125	308.95
388.573	301.93
389.02	311.29
389.467	344.06
389.914	355.76
390.362	306.61
390.809	315.97
391.256	311.29
391.703	318.31
392.15	241.08
392.596	341.72
393.043	262.14
393.49	325.33
393.937	292.57
394.383	341.72
394.83	266.82
395.276	320.65
395.723	299.59
396.169	283.2
396.616	308.95
397.062	341.72
397.508	259.8
397.954	292.57
398.401	301.93
398.847	306.61
399.293	294.91
399.739	355.76
400.185	259.8
400.631	292.57
401.076	308.95
401.522	304.27
401.968	330.02
402.414	369.8
402.859	255.12
403.305	330.02
403.75	351.08
404.196	306.61
404.641	215.33
405.086	283.2
405.532	344.06
405.977	313.63
406.422	271.5
406.867	315.97
407.312	315.97
407.757	337.04
408.202	313.63
408.647	311.29
409.092	341.72
409.537	318.31
409.982	339.38
410.426	238.73
410.871	301.93
411.316	327.67
411.76	245.76
412.205	372.15
412.649	285.55
413.093	348.74
413.538	320.65
413.982	344.06
414.426	383.85
414.87	351.08
415.314	283.2
415.758	278.52
416.202	252.78
416.646	292.57
417.09	290.23
417.534	339.38
417.978	355.76
418.421	287.89
418.865	325.33
419.309	278.52
419.752	339.38
420.196	273.84
420.639	355.76
421.083	299.59
421.526	341.72
421.969	194.26
422.412	278.52
422.856	283.2
423.299	287.89
423.742	337.04
424.185	327.67
424.628	313.63
425.071	315.97
425.513	360.44
425.956	325.33
426.399	330.02
426.842	248.1
427.284	262.14
427.727	271.5
428.169	304.27
428.612	297.25
429.054	313.63
429.497	297.25
429.939	306.61
430.381	332.36
430.823	299.59
431.265	304.27
431.707	313.63
432.149	285.55
432.591	369.8
433.033	330.02
433.475	257.46
433.917	299.59
434.359	299.59
434.8	313.63
435.242	334.7
435.684	271.5
436.125	287.89
436.567	283.2
437.008	332.36
437.449	280.86
437.891	255.12
438.332	285.55
438.773	287.89
439.214	299.59
439.656	283.2
440.097	358.1
440.538	360.44
440.978	308.95
441.419	320.65
441.86	297.25
442.301	301.93
442.742	294.91
443.182	273.84
443.623	231.71
444.063	280.86
444.504	264.48
444.944	332.36
445.385	330.02
445.825	299.59
446.265	325.33
446.706	381.51
447.146	276.18
447.586	301.93
448.026	339.38
448.466	322.99
448.906	252.78
449.346	332.36
449.786	325.33
450.225	306.61
450.665	318.31
451.105	339.38
451.544	355.76
451.984	318.31
452.424	332.36
452.863	269.16
453.302	381.51
453.742	297.25
454.181	255.12
454.62	337.04
455.059	280.86
455.499	308.95
455.938	290.23
456.377	315.97
456.816	297.25
457.254	315.97
457.693	315.97
458.132	273.84
458.571	234.05
459.01	276.18
459.448	290.23
459.887	248.1
460.325	344.06
460.764	278.52
461.202	276.18
461.641	283.2
462.079	238.73
462.517	313.63
462.955	304.27
463.393	308.95
463.832	334.7
464.27	304.27
464.708	294.91
465.145	383.85
465.583	311.29
466.021	341.72
466.459	313.63
466.897	257.46
467.334	264.48
467.772	334.7
468.209	285.55
468.647	262.14
469.084	262.14
469.522	381.51
469.959	262.14
470.396	257.46
470.833	273.84
471.271	250.44
471.708	271.5
472.145	339.38
472.582	285.55
473.019	334.7
473.456	290.23
473.892	339.38
474.329	315.97
474.766	341.72
475.202	266.82
475.639	301.93
476.076	334.7
476.512	276.18
476.949	294.91
477.385	318.31
477.821	320.65
478.258	308.95
478.694	276.18
479.13	299.59
479.566	339.38
480.002	315.97
480.438	287.89
480.874	257.46
481.31	297.25
481.746	339.38
482.181	308.95
482.617	360.44
483.053	337.04
483.488	266.82
483.924	311.29
484.36	287.89
484.795	276.18
485.23	325.33
485.666	308.95
486.101	301.93
486.536	276.18
486.971	266.82
487.407	294.91
487.842	297.25
488.277	334.7
488.712	308.95
489.146	308.95
489.581	262.14
490.016	304.27
490.451	341.72
490.885	330.02
491.32	287.89
491.755	287.89
492.189	299.59
492.624	318.31
493.058	297.25
493.492	257.46
493.927	285.55
494.361	348.74
494.795	287.89
495.229	294.91
495.663	285.55
496.097	252.78
496.531	222.35
496.965	304.27
497.399	299.59
497.833	308.95
498.266	334.7
498.7	313.63
499.134	285.55
499.567	315.97
500.001	315.97
500.434	327.67
500.868	280.86
501.301	318.31
501.734	271.5
502.168	388.53
502.601	339.38
503.034	278.52
503.467	315.97
503.9	297.25
504.333	290.23
504.766	283.2
505.199	322.99
505.632	332.36
506.064	337.04
506.497	292.57
506.93	311.29
507.362	351.08
507.795	280.86
508.227	250.44
508.66	353.42
509.092	283.2
509.524	337.04
509.956	400.23
510.389	313.63
510.821	266.82
511.253	264.48
511.685	287.89
512.117	224.69
512.549	304.27
512.981	337.04
513.412	278.52
513.844	248.1
514.276	269.16
514.707	337.04
515.139	278.52
515.571	280.86
516.002	351.08
516.433	294.91
516.865	306.61
517.296	262.14
517.727	287.89
518.159	290.23
518.59	299.59
519.021	285.55
519.452	283.2
519.883	322.99
520.314	362.78
520.744	315.97
521.175	290.23
521.606	334.7
522.037	360.44
522.467	276.18
522.898	229.37
523.328	227.03
523.759	276.18
524.189	322.99
524.62	234.05
525.05	388.53
525.48	315.97
525.91	299.59
526.341	322.99
526.771	297.25
527.201	383.85
527.631	341.72
528.061	301.93
528.49	299.59
528.92	365.12
529.35	315.97
529.78	308.95
530.209	297.25
530.639	297.25
531.068	273.84
531.498	308.95
531.927	334.7
532.357	327.67
532.786	369.8
533.215	386.19
533.644	292.57
534.074	271.5
534.503	292.57
534.932	290.23
535.361	320.65
535.79	311.29
536.218	311.29
536.647	245.76
537.076	264.48
537.505	259.8
537.933	358.1
538.362	362.78
538.79	297.25
539.219	301.93
539.647	285.55
540.076	311.29
540.504	318.31
540.932	360.44
541.36	273.84
541.788	327.67
542.217	269.16
542.645	353.42
543.073	271.5
543.5	278.52
543.928	301.93
544.356	290.23
544.784	280.86
545.211	301.93
545.639	308.95
546.067	330.02
546.494	311.29
546.922	287.89
547.349	292.57
547.776	250.44
548.204	273.84
548.631	255.12
549.058	280.86
549.485	344.06
549.912	308.95
550.339	367.46
550.766	245.76
551.193	348.74
551.62	346.4
552.047	250.44
552.474	292.57
552.9	264.48
553.327	297.25
553.754	311.29
554.18	351.08
554.607	330.02
555.033	283.2
555.459	337.04
555.886	386.19
556.312	294.91
556.738	320.65
557.164	287.89
557.59	259.8
558.016	292.57
558.442	285.55
558.868	259.8
559.294	271.5
559.72	196.6
560.145	297.25
560.571	308.95
560.997	271.5
561.422	334.7
561.848	264.48
562.273	271.5
562.699	292.57
563.124	320.65
563.549	351.08
563.974	297.25
564.4	348.74
564.825	259.8
565.25	245.76
565.675	304.27
566.1	308.95
566.525	259.8
566.95	243.42
567.374	311.29
567.799	327.67
568.224	320.65
568.648	308.95
569.073	325.33
569.497	292.57
569.922	348.74
570.346	320.65
570.771	320.65
571.195	290.23
571.619	330.02
572.043	231.71
572.467	311.29
572.891	250.44
573.315	344.06
573.739	273.84
574.163	308.95
574.587	287.89
575.011	322.99
575.435	313.63
575.858	344.06
576.282	297.25
576.705	308.95
577.129	313.63
577.552	337.04
577.976	299.59
578.399	266.82
578.822	283.2
579.245	308.95
579.669	269.16
580.092	348.74
580.515	299.59
580.938	292.57
581.361	334.7
581.784	355.76
582.206	278.52
582.629	301.93
583.052	311.29
583.474	257.46
583.897	227.03
584.32	276.18
584.742	259.8
585.165	311.29
585.587	262.14
586.009	222.35
586.431	271.5
586.854	332.36
587.276	339.38
587.698	358.1
588.12	262.14
588.542	311.29
588.964	337.04
589.386	292.57
589.807	320.65
590.229	278.52
590.651	325.33
591.073	273.84
591.494	297.25
591.916	325.33
592.337	346.4
592.759	290.23
593.18	311.29
593.601	266.82
594.022	271.5
594.444	283.2
594.865	334.7
595.286	320.65
595.707	346.4
596.128	278.52
596.549	325.33
596.97	346.4
597.39	241.08
597.811	292.57
598.232	280.86
598.652	337.04
599.073	320.65
599.494	285.55
599.914	287.89
600.334	292.57
600.755	320.65
601.175	301.93
601.595	308.95
602.015	322.99
602.436	297.25
602.856	381.51
603.276	292.57
603.696	311.29
604.115	308.95
604.535	299.59
604.955	290.23
605.375	348.74
605.794	269.16
606.214	273.84
606.634	330.02
607.053	315.97
607.473	320.65
607.892	332.36
608.311	292.57
608.731	287.89
609.15	379.17
609.569	339.38
609.988	285.55
610.407	325.33
610.826	327.67
611.245	285.55
611.664	269.16
612.083	266.82
612.501	322.99
612.92	306.61
613.339	351.08
613.757	280.86
614.176	308.95
614.594	280.86
615.013	248.1
615.431	262.14
615.85	301.93
616.268	311.29
616.686	320.65
617.104	322.99
617.522	306.61
617.94	297.25
618.358	339.38
618.776	283.2
619.194	308.95
619.612	290.23
620.03	327.67
620.447	301.93
620.865	292.57
621.282	390.87
621.7	311.29
622.117	283.2
622.535	367.46
622.952	315.97
623.369	313.63
623.787	287.89
624.204	269.16
624.621	273.84
625.038	271.5
625.455	266.82
625.872	224.69
626.289	322.99
626.706	287.89
627.123	259.8
627.539	332.36
627.956	259.8
628.373	276.18
628.789	308.95
629.206	308.95
629.622	271.5
630.038	327.67
630.455	313.63
630.871	301.93
631.287	358.1
631.703	297.25
632.12	344.06
632.536	238.73
632.952	306.61
633.368	301.93
633.783	341.72
634.199	285.55
634.615	243.42
635.031	337.04
635.446	287.89
635.862	346.4
636.277	341.72
636.693	273.84
637.108	339.38
637.524	337.04
637.939	344.06
638.354	285.55
638.77	222.35
639.185	292.57
639.6	241.08
640.015	299.59
640.43	280.86
640.845	327.67
641.259	325.33
641.674	276.18
642.089	320.65
642.504	278.52
642.918	320.65
643.333	337.04
643.747	327.67
644.162	297.25
644.576	280.86
644.991	330.02
645.405	287.89
645.819	222.35
646.233	280.86
646.647	297.25
647.061	287.89
647.475	294.91
647.889	294.91
648.303	278.52
648.717	308.95
649.131	285.55
649.545	318.31
649.958	294.91
650.372	369.8
650.785	287.89
651.199	234.05
651.612	292.57
652.026	341.72
652.439	327.67
652.852	266.82
653.266	306.61
653.679	330.02
654.092	318.31
654.505	255.12
654.918	304.27
655.331	318.31
655.744	301.93
656.156	320.65
656.569	372.15
656.982	299.59
657.394	273.84
657.807	315.97
658.22	301.93
658.632	313.63
659.044	334.7
659.457	376.83
659.869	313.63
660.281	325.33
660.693	276.18
661.106	290.23
661.518	236.39
661.93	266.82
662.342	327.67
662.754	290.23
663.165	362.78
663.577	278.52
663.989	294.91
664.401	245.76
664.812	311.29
665.224	351.08
665.635	313.63
666.047	308.95
666.458	273.84
666.869	273.84
667.281	337.04
667.692	294.91
668.103	283.2
668.514	283.2
668.925	292.57
669.336	283.2
669.747	332.36
670.158	278.52
670.569	241.08
670.979	283.2
671.39	283.2
671.801	280.86
672.211	299.59
672.622	313.63
673.032	353.42
673.443	334.7
673.853	334.7
674.263	311.29
674.674	285.55
675.084	346.4
675.494	294.91
675.904	322.99
676.314	273.84
676.724	248.1
677.134	283.2
677.544	308.95
677.953	313.63
678.363	301.93
678.773	322.99
679.182	334.7
679.592	297.25
680.001	322.99
680.411	306.61
680.82	238.73
681.23	299.59
681.639	285.55
682.048	322.99
682.457	294.91
682.866	271.5
683.275	306.61
683.684	262.14
684.093	341.72
684.502	313.63
684.911	301.93
685.32	327.67
685.728	339.38
686.137	285.55
686.546	234.05
686.954	273.84
687.363	255.12
687.771	306.61
688.179	299.59
688.588	315.97
688.996	283.2
689.404	311.29
689.812	280.86
690.22	278.52
690.628	299.59
691.036	292.57
691.444	325.33
691.852	306.61
692.26	318.31
692.667	306.61
693.075	334.7
693.483	318.31
693.89	280.86
694.298	306.61
694.705	369.8
695.112	313.63
695.52	273.84
695.927	283.2
696.334	313.63
696.741	257.46
697.148	327.67
697.555	315.97
697.962	259.8
698.369	234.05
698.776	304.27
699.183	297.25
699.59	271.5
699.996	327.67
700.403	292.57
700.81	248.1
701.216	224.69
701.623	311.29
702.029	245.76
702.435	264.48
702.842	304.27
703.248	273.84
703.654	306.61
704.06	278.52
704.466	297.25
704.872	313.63
705.278	358.1
705.684	313.63
706.09	280.86
706.496	243.42
706.901	318.31
707.307	292.57
707.712	383.85
708.118	339.38
708.523	292.57
708.929	278.52
709.334	269.16
709.74	297.25
710.145	330.02
710.55	301.93
710.955	332.36
711.36	252.78
711.765	313.63
712.17	358.1
712.575	344.06
712.98	842.59
713.385	269.16
713.789	290.23
714.194	297.25
714.599	299.59
715.003	278.52
715.408	262.14
715.812	297.25
716.217	290.23
716.621	292.57
717.025	337.04
717.429	283.2
717.833	238.73
718.238	287.89
718.642	278.52
719.046	241.08
719.449	278.52
719.853	383.85
720.257	280.86
720.661	191.92
721.065	285.55
721.468	294.91
721.872	306.61
722.275	353.42
722.679	313.63
723.082	332.36
723.485	294.91
723.889	304.27
724.292	322.99
724.695	304.27
725.098	266.82
725.501	337.04
725.904	238.73
726.307	374.49
726.71	238.73
727.113	285.55
727.516	259.8
727.918	299.59
728.321	330.02
728.724	220.01
729.126	248.1
729.529	271.5
729.931	278.52
730.333	278.52
730.736	299.59
731.138	299.59
731.54	245.76
731.942	318.31
732.344	280.86
732.746	255.12
733.148	292.57
733.55	301.93
733.952	292.57
734.354	241.08
734.756	292.57
735.157	297.25
735.559	287.89
735.96	292.57
736.362	341.72
736.763	306.61
737.165	332.36
737.566	346.4
737.967	297.25
738.368	393.21
738.77	243.42
739.171	327.67
739.572	283.2
739.973	276.18
740.374	203.63
740.774	273.84
741.175	273.84
741.576	245.76
741.977	318.31
742.377	224.69
742.778	264.48
743.178	231.71
743.579	264.48
743.979	287.89
744.379	386.19
744.78	311.29
745.18	308.95
745.58	330.02
745.98	304.27
746.38	231.71
746.78	292.57
747.18	306.61
747.58	320.65
747.98	285.55
748.38	308.95
748.779	250.44
749.179	266.82
749.578	264.48
749.978	322.99
750.377	287.89
750.777	346.4
751.176	252.78
751.575	245.76
751.975	313.63
752.374	262.14
752.773	250.44
753.172	278.52
753.571	236.39
753.97	322.99
754.369	273.84
754.768	266.82
755.166	238.73
755.565	320.65
755.964	280.86
756.362	315.97
756.761	276.18
757.159	276.18
757.558	278.52
757.956	320.65
758.354	299.59
758.753	224.69
759.151	262.14
759.549	308.95
759.947	306.61
760.345	315.97
760.743	306.61
761.141	339.38
761.539	315.97
761.936	365.12
762.334	234.05
762.732	215.33
763.129	315.97
763.527	248.1
763.924	320.65
764.322	320.65
764.719	269.16
765.117	318.31
