Data from Al_FLMS009871__633__14-49-13-112.txt Node

Date: Fri Mar 08 14:49:13 CST 2024
User: pe5414po
Spectrometer: FLMS00987
Trigger mode: 0
Integration Time (sec): 1.000000E-1
Scans to average: 1
Electric dark correction enabled: true
Nonlinearity correction enabled: false
Boxcar width: 0
XAxis mode: Wavelengths
Number of Pixels in Spectrum: 2048
>>>>>Begin Spectral Data<<<<<
188.938	-92.74
189.409	-92.74
189.879	-92.74
190.349	-151.26
190.819	-104.45
191.29	-81.04
191.76	-125.51
192.23	-64.66
192.7	-48.27
193.17	-85.72
193.64	-102.11
194.109	-74.02
194.579	-29.55
195.049	3.22
195.519	31.3
195.988	35.99
196.458	148.33
196.927	96.84
197.397	66.41
197.866	117.9
198.336	110.88
198.805	153.01
199.274	178.76
199.744	213.87
200.213	206.84
200.682	171.74
201.151	216.21
201.62	227.91
202.089	251.32
202.558	246.63
203.027	272.38
203.495	251.32
203.964	286.42
204.433	330.89
204.902	323.87
205.37	298.13
205.839	335.57
206.307	286.42
206.776	366
207.244	323.87
207.712	312.17
208.181	316.85
208.649	337.91
209.117	316.85
209.585	244.29
210.053	305.15
210.521	251.32
210.989	279.4
211.457	284.08
211.925	316.85
212.393	356.64
212.861	307.49
213.328	316.85
213.796	277.06
214.264	321.53
214.731	279.4
215.199	373.02
215.666	251.32
216.133	272.38
216.601	267.7
217.068	321.53
217.535	344.94
218.003	265.36
218.47	302.81
218.937	263.02
219.404	272.38
219.871	274.72
220.338	206.84
220.805	277.06
221.271	284.08
221.738	227.91
222.205	220.89
222.671	284.08
223.138	281.74
223.605	258.34
224.071	291.1
224.538	291.1
225.004	277.06
225.47	204.5
225.937	291.1
226.403	265.36
226.869	326.21
227.335	272.38
227.801	321.53
228.267	237.27
228.733	239.61
229.199	227.91
229.665	241.95
230.131	370.68
230.597	305.15
231.062	309.83
231.528	286.42
231.994	260.68
232.459	267.7
232.925	277.06
233.39	241.95
233.856	323.87
234.321	307.49
234.786	314.51
235.252	305.15
235.717	312.17
236.182	277.06
236.647	256
237.112	295.79
237.577	286.42
238.042	314.51
238.507	263.02
238.972	300.47
239.436	267.7
239.901	272.38
240.366	305.15
240.83	190.46
241.295	256
241.76	351.96
242.224	307.49
242.688	300.47
243.153	342.6
243.617	351.96
244.081	286.42
244.545	279.4
245.01	241.95
245.474	333.23
245.938	337.91
246.402	295.79
246.866	274.72
247.33	246.63
247.793	351.96
248.257	274.72
248.721	272.38
249.185	263.02
249.648	239.61
250.112	305.15
250.575	281.74
251.039	284.08
251.502	279.4
251.965	286.42
252.429	281.74
252.892	326.21
253.355	333.23
253.818	335.57
254.281	197.48
254.744	307.49
255.207	241.95
255.67	295.79
256.133	284.08
256.596	270.04
257.059	312.17
257.522	316.85
257.984	333.23
258.447	314.51
258.909	307.49
259.372	319.19
259.834	321.53
260.297	234.93
260.759	277.06
261.221	284.08
261.684	232.59
262.146	337.91
262.608	316.85
263.07	202.16
263.532	267.7
263.994	246.63
264.456	377.7
264.918	288.76
265.38	305.15
265.842	347.28
266.303	234.93
266.765	333.23
267.227	340.26
267.688	366
268.15	298.13
268.611	321.53
269.072	305.15
269.534	300.47
269.995	284.08
270.456	340.26
270.918	291.1
271.379	323.87
271.84	246.63
272.301	272.38
272.762	347.28
273.223	363.66
273.684	234.93
274.144	291.1
274.605	256
275.066	288.76
275.527	312.17
275.987	279.4
276.448	265.36
276.908	305.15
277.369	298.13
277.829	248.97
278.289	307.49
278.75	342.6
279.21	366
279.67	321.53
280.13	370.68
280.59	312.17
281.05	314.51
281.51	284.08
281.97	314.51
282.43	295.79
282.89	300.47
283.35	319.19
283.809	286.42
284.269	295.79
284.729	328.55
285.188	312.17
285.648	279.4
286.107	309.83
286.567	263.02
287.026	368.34
287.485	305.15
287.944	340.26
288.404	344.94
288.863	382.39
289.322	272.38
289.781	337.91
290.24	323.87
290.699	344.94
291.158	358.98
291.616	284.08
292.075	377.7
292.534	361.32
292.992	232.59
293.451	253.66
293.91	286.42
294.368	347.28
294.827	323.87
295.285	330.89
295.743	288.76
296.202	314.51
296.66	335.57
297.118	347.28
297.576	309.83
298.034	288.76
298.492	272.38
298.95	307.49
299.408	279.4
299.866	293.44
300.324	260.68
300.781	368.34
301.239	326.21
301.697	302.81
302.154	319.19
302.612	330.89
303.069	291.1
303.527	326.21
303.984	314.51
304.441	302.81
304.899	347.28
305.356	265.36
305.813	330.89
306.27	277.06
306.727	337.91
307.184	330.89
307.641	319.19
308.098	286.42
308.555	323.87
309.012	274.72
309.468	314.51
309.925	316.85
310.382	342.6
310.838	300.47
311.295	281.74
311.751	356.64
312.208	288.76
312.664	281.74
313.12	298.13
313.577	387.07
314.033	293.44
314.489	307.49
314.945	321.53
315.401	265.36
315.857	361.32
316.313	337.91
316.769	241.95
317.225	239.61
317.681	281.74
318.136	300.47
318.592	237.27
319.048	354.3
319.503	342.6
319.959	298.13
320.414	330.89
320.869	291.1
321.325	274.72
321.78	300.47
322.235	349.62
322.691	314.51
323.146	312.17
323.601	281.74
324.056	335.57
324.511	333.23
324.966	305.15
325.421	267.7
325.875	298.13
326.33	344.94
326.785	337.91
327.24	370.68
327.694	305.15
328.149	274.72
328.603	321.53
329.058	227.91
329.512	309.83
329.966	366
330.421	300.47
330.875	300.47
331.329	309.83
331.783	335.57
332.237	279.4
332.691	284.08
333.145	270.04
333.599	344.94
334.053	354.3
334.507	256
334.96	328.55
335.414	307.49
335.868	316.85
336.321	316.85
336.775	394.09
337.228	316.85
337.682	288.76
338.135	316.85
338.588	321.53
339.042	293.44
339.495	307.49
339.948	298.13
340.401	307.49
340.854	323.87
341.307	361.32
341.76	302.81
342.213	302.81
342.666	344.94
343.119	333.23
343.571	342.6
344.024	347.28
344.477	356.64
344.929	340.26
345.382	305.15
345.834	309.83
346.287	265.36
346.739	349.62
347.191	305.15
347.644	323.87
348.096	330.89
348.548	281.74
349	328.55
349.452	417.49
349.904	272.38
350.356	291.1
350.808	335.57
351.26	307.49
351.711	309.83
352.163	330.89
352.615	344.94
353.066	302.81
353.518	293.44
353.969	358.98
354.421	263.02
354.872	265.36
355.324	347.28
355.775	277.06
356.226	351.96
356.677	302.81
357.128	319.19
357.579	265.36
358.03	361.32
358.481	347.28
358.932	319.19
359.383	321.53
359.834	295.79
360.285	370.68
360.735	316.85
361.186	330.89
361.637	305.15
362.087	309.83
362.538	361.32
362.988	307.49
363.438	323.87
363.889	366
364.339	326.21
364.789	305.15
365.239	270.04
365.689	309.83
366.139	321.53
366.589	344.94
367.039	272.38
367.489	256
367.939	274.72
368.389	342.6
368.839	354.3
369.288	312.17
369.738	281.74
370.187	281.74
370.637	337.91
371.086	312.17
371.536	323.87
371.985	284.08
372.434	293.44
372.884	316.85
373.333	291.1
373.782	309.83
374.231	333.23
374.68	305.15
375.129	321.53
375.578	358.98
376.027	274.72
376.475	305.15
376.924	258.34
377.373	351.96
377.822	281.74
378.27	319.19
378.719	328.55
379.167	342.6
379.616	263.02
380.064	358.98
380.512	344.94
380.961	382.39
381.409	356.64
381.857	354.3
382.305	277.06
382.753	307.49
383.201	335.57
383.649	344.94
384.097	307.49
384.545	347.28
384.992	298.13
385.44	349.62
385.888	321.53
386.335	340.26
386.783	330.89
387.231	321.53
387.678	328.55
388.125	394.09
388.573	328.55
389.02	300.47
389.467	277.06
389.914	307.49
390.362	298.13
390.809	256
391.256	279.4
391.703	277.06
392.15	270.04
392.596	349.62
393.043	277.06
393.49	307.49
393.937	258.34
394.383	284.08
394.83	277.06
395.276	319.19
395.723	326.21
396.169	300.47
396.616	314.51
397.062	314.51
397.508	307.49
397.954	279.4
398.401	279.4
398.847	370.68
399.293	291.1
399.739	321.53
400.185	312.17
400.631	349.62
401.076	323.87
401.522	279.4
401.968	291.1
402.414	234.93
402.859	295.79
403.305	333.23
403.75	302.81
404.196	256
404.641	354.3
405.086	366
405.532	319.19
405.977	328.55
406.422	281.74
406.867	316.85
407.312	321.53
407.757	307.49
408.202	373.02
408.647	363.66
409.092	340.26
409.537	319.19
409.982	358.98
410.426	354.3
410.871	302.81
411.316	337.91
411.76	344.94
412.205	366
412.649	316.85
413.093	375.36
413.538	354.3
413.982	256
414.426	288.76
414.87	344.94
415.314	335.57
415.758	256
416.202	295.79
416.646	265.36
417.09	270.04
417.534	433.88
417.978	314.51
418.421	375.36
418.865	375.36
419.309	321.53
419.752	328.55
420.196	309.83
420.639	307.49
421.083	251.32
421.526	286.42
421.969	307.49
422.412	302.81
422.856	293.44
423.299	274.72
423.742	422.17
424.185	330.89
424.628	351.96
425.071	281.74
425.513	366
425.956	316.85
426.399	328.55
426.842	347.28
427.284	302.81
427.727	330.89
428.169	340.26
428.612	298.13
429.054	293.44
429.497	305.15
429.939	305.15
430.381	347.28
430.823	377.7
431.265	309.83
431.707	380.04
432.149	440.9
432.591	302.81
433.033	272.38
433.475	260.68
433.917	305.15
434.359	312.17
434.8	342.6
435.242	363.66
435.684	344.94
436.125	361.32
436.567	305.15
437.008	347.28
437.449	335.57
437.891	335.57
438.332	337.91
438.773	305.15
439.214	293.44
439.656	344.94
440.097	307.49
440.538	340.26
440.978	291.1
441.419	403.45
441.86	326.21
442.301	410.47
442.742	356.64
443.182	312.17
443.623	293.44
444.063	354.3
444.504	316.85
444.944	335.57
445.385	300.47
445.825	314.51
446.265	373.02
446.706	358.98
447.146	307.49
447.586	326.21
448.026	370.68
448.466	344.94
448.906	347.28
449.346	302.81
449.786	307.49
450.225	333.23
450.665	330.89
451.105	312.17
451.544	403.45
451.984	387.07
452.424	351.96
452.863	337.91
453.302	291.1
453.742	293.44
454.181	309.83
454.62	309.83
455.059	293.44
455.499	307.49
455.938	267.7
456.377	279.4
456.816	326.21
457.254	258.34
457.693	358.98
458.132	351.96
458.571	284.08
459.01	330.89
459.448	305.15
459.887	319.19
460.325	351.96
460.764	347.28
461.202	309.83
461.641	361.32
462.079	368.34
462.517	314.51
462.955	373.02
463.393	368.34
463.832	323.87
464.27	389.41
464.708	342.6
465.145	340.26
465.583	356.64
466.021	375.36
466.459	361.32
466.897	389.41
467.334	263.02
467.772	326.21
468.209	321.53
468.647	342.6
469.084	342.6
469.522	354.3
469.959	368.34
470.396	281.74
470.833	323.87
471.271	314.51
471.708	326.21
472.145	319.19
472.582	307.49
473.019	248.97
473.456	295.79
473.892	288.76
474.329	237.27
474.766	302.81
475.202	347.28
475.639	375.36
476.076	330.89
476.512	319.19
476.949	370.68
477.385	373.02
477.821	274.72
478.258	300.47
478.694	326.21
479.13	328.55
479.566	302.81
480.002	281.74
480.438	316.85
480.874	340.26
481.31	387.07
481.746	291.1
482.181	335.57
482.617	354.3
483.053	337.91
483.488	351.96
483.924	368.34
484.36	302.81
484.795	321.53
485.23	316.85
485.666	351.96
486.101	305.15
486.536	319.19
486.971	253.66
487.407	344.94
487.842	281.74
488.277	258.34
488.712	335.57
489.146	363.66
489.581	293.44
490.016	330.89
490.451	342.6
490.885	335.57
491.32	321.53
491.755	384.73
492.189	309.83
492.624	342.6
493.058	316.85
493.492	319.19
493.927	401.11
494.361	405.79
494.795	291.1
495.229	265.36
495.663	368.34
496.097	293.44
496.531	347.28
496.965	307.49
497.399	323.87
497.833	337.91
498.266	314.51
498.7	330.89
499.134	293.44
499.567	309.83
500.001	382.39
500.434	319.19
500.868	351.96
501.301	300.47
501.734	293.44
502.168	321.53
502.601	302.81
503.034	323.87
503.467	335.57
503.9	337.91
504.333	305.15
504.766	384.73
505.199	342.6
505.632	316.85
506.064	307.49
506.497	384.73
506.93	377.7
507.362	267.7
507.795	298.13
508.227	302.81
508.66	335.57
509.092	356.64
509.524	291.1
509.956	316.85
510.389	328.55
510.821	312.17
511.253	288.76
511.685	302.81
512.117	316.85
512.549	387.07
512.981	300.47
513.412	260.68
513.844	305.15
514.276	321.53
514.707	328.55
515.139	307.49
515.571	330.89
516.002	375.36
516.433	337.91
516.865	363.66
517.296	293.44
517.727	286.42
518.159	335.57
518.59	349.62
519.021	251.32
519.452	286.42
519.883	333.23
520.314	344.94
520.744	286.42
521.175	373.02
521.606	347.28
522.037	300.47
522.467	363.66
522.898	295.79
523.328	246.63
523.759	382.39
524.189	321.53
524.62	232.59
525.05	295.79
525.48	277.06
525.91	330.89
526.341	319.19
526.771	270.04
527.201	422.17
527.631	323.87
528.061	267.7
528.49	363.66
528.92	326.21
529.35	284.08
529.78	286.42
530.209	248.97
530.639	316.85
531.068	274.72
531.498	328.55
531.927	323.87
532.357	291.1
532.786	288.76
533.215	323.87
533.644	340.26
534.074	394.09
534.503	307.49
534.932	312.17
535.361	337.91
535.79	347.28
536.218	326.21
536.647	307.49
537.076	300.47
537.505	344.94
537.933	274.72
538.362	335.57
538.79	293.44
539.219	298.13
539.647	373.02
540.076	309.83
540.504	368.34
540.932	309.83
541.36	316.85
541.788	270.04
542.217	293.44
542.645	342.6
543.073	335.57
543.5	340.26
543.928	326.21
544.356	370.68
544.784	277.06
545.211	312.17
545.639	337.91
546.067	330.89
546.494	351.96
546.922	323.87
547.349	319.19
547.776	209.19
548.204	328.55
548.631	300.47
549.058	351.96
549.485	316.85
549.912	394.09
550.339	293.44
550.766	340.26
551.193	356.64
551.62	354.3
552.047	344.94
552.474	286.42
552.9	305.15
553.327	316.85
553.754	298.13
554.18	330.89
554.607	375.36
555.033	347.28
555.459	274.72
555.886	340.26
556.312	300.47
556.738	354.3
557.164	330.89
557.59	337.91
558.016	389.41
558.442	330.89
558.868	330.89
559.294	323.87
559.72	312.17
560.145	328.55
560.571	305.15
560.997	347.28
561.422	253.66
561.848	300.47
562.273	335.57
562.699	351.96
563.124	344.94
563.549	293.44
563.974	293.44
564.4	377.7
564.825	314.51
565.25	344.94
565.675	333.23
566.1	281.74
566.525	323.87
566.95	342.6
567.374	298.13
567.799	286.42
568.224	298.13
568.648	333.23
569.073	314.51
569.497	307.49
569.922	267.7
570.346	288.76
570.771	314.51
571.195	281.74
571.619	312.17
572.043	337.91
572.467	321.53
572.891	272.38
573.315	284.08
573.739	309.83
574.163	312.17
574.587	291.1
575.011	312.17
575.435	263.02
575.858	382.39
576.282	286.42
576.705	312.17
577.129	380.04
577.552	298.13
577.976	279.4
578.399	314.51
578.822	342.6
579.245	351.96
579.669	279.4
580.092	335.57
580.515	300.47
580.938	356.64
581.361	281.74
581.784	344.94
582.206	344.94
582.629	288.76
583.052	354.3
583.474	288.76
583.897	335.57
584.32	354.3
584.742	344.94
585.165	340.26
585.587	312.17
586.009	288.76
586.431	241.95
586.854	354.3
587.276	291.1
587.698	342.6
588.12	307.49
588.542	288.76
588.964	354.3
589.386	391.75
589.807	319.19
590.229	368.34
590.651	340.26
591.073	284.08
591.494	302.81
591.916	312.17
592.337	305.15
592.759	258.34
593.18	351.96
593.601	361.32
594.022	314.51
594.444	291.1
594.865	356.64
595.286	314.51
595.707	319.19
596.128	309.83
596.549	330.89
596.97	363.66
597.39	295.79
597.811	368.34
598.232	354.3
598.652	370.68
599.073	368.34
599.494	319.19
599.914	337.91
600.334	316.85
600.755	342.6
601.175	295.79
601.595	321.53
602.015	274.72
602.436	293.44
602.856	492.39
603.276	333.23
603.696	291.1
604.115	263.02
604.535	277.06
604.955	380.04
605.375	314.51
605.794	265.36
606.214	349.62
606.634	319.19
607.053	295.79
607.473	370.68
607.892	342.6
608.311	295.79
608.731	321.53
609.15	319.19
609.569	356.64
609.988	366
610.407	375.36
610.826	291.1
611.245	349.62
611.664	265.36
612.083	321.53
612.501	340.26
612.92	344.94
613.339	328.55
613.757	305.15
614.176	281.74
614.594	309.83
615.013	330.89
615.431	312.17
615.85	328.55
616.268	330.89
616.686	396.43
617.104	263.02
617.522	361.32
617.94	330.89
618.358	291.1
618.776	281.74
619.194	316.85
619.612	305.15
620.03	314.51
620.447	260.68
620.865	288.76
621.282	354.3
621.7	380.04
622.117	309.83
622.535	251.32
622.952	377.7
623.369	237.27
623.787	323.87
624.204	368.34
624.621	316.85
625.038	333.23
625.455	295.79
625.872	277.06
626.289	351.96
626.706	312.17
627.123	248.97
627.539	351.96
627.956	375.36
628.373	347.28
628.789	347.28
629.206	328.55
629.622	342.6
630.038	419.83
630.455	307.49
630.871	335.57
631.287	246.63
631.703	333.23
632.12	340.26
632.536	307.49
632.952	363.66
633.368	267.7
633.783	347.28
634.199	314.51
634.615	256
635.031	363.66
635.446	286.42
635.862	312.17
636.277	333.23
636.693	305.15
637.108	298.13
637.524	375.36
637.939	309.83
638.354	314.51
638.77	291.1
639.185	330.89
639.6	377.7
640.015	288.76
640.43	319.19
640.845	260.68
641.259	291.1
641.674	356.64
642.089	363.66
642.504	396.43
642.918	284.08
643.333	316.85
643.747	330.89
644.162	349.62
644.576	351.96
644.991	305.15
645.405	279.4
645.819	314.51
646.233	309.83
646.647	375.36
647.061	337.91
647.475	316.85
647.889	333.23
648.303	316.85
648.717	349.62
649.131	256
649.545	335.57
649.958	356.64
650.372	302.81
650.785	333.23
651.199	361.32
651.612	354.3
652.026	344.94
652.439	333.23
652.852	333.23
653.266	323.87
653.679	344.94
654.092	340.26
654.505	366
654.918	333.23
655.331	356.64
655.744	265.36
656.156	309.83
656.569	284.08
656.982	328.55
657.394	349.62
657.807	347.28
658.22	349.62
658.632	295.79
659.044	298.13
659.457	380.04
659.869	335.57
660.281	300.47
660.693	319.19
661.106	354.3
661.518	314.51
661.93	316.85
662.342	344.94
662.754	298.13
663.165	302.81
663.577	309.83
663.989	335.57
664.401	298.13
664.812	344.94
665.224	281.74
665.635	354.3
666.047	298.13
666.458	344.94
666.869	363.66
667.281	288.76
667.692	340.26
668.103	256
668.514	227.91
668.925	279.4
669.336	349.62
669.747	319.19
670.158	286.42
670.569	263.02
670.979	274.72
671.39	314.51
671.801	354.3
672.211	347.28
672.622	321.53
673.032	286.42
673.443	272.38
673.853	302.81
674.263	340.26
674.674	361.32
675.084	323.87
675.494	321.53
675.904	314.51
676.314	314.51
676.724	309.83
677.134	281.74
677.544	347.28
677.953	356.64
678.363	333.23
678.773	335.57
679.182	344.94
679.592	354.3
680.001	344.94
680.411	305.15
680.82	284.08
681.23	344.94
681.639	349.62
682.048	307.49
682.457	370.68
682.866	305.15
683.275	265.36
683.684	300.47
684.093	302.81
684.502	305.15
684.911	351.96
685.32	314.51
685.728	354.3
686.137	366
686.546	328.55
686.954	295.79
687.363	281.74
687.771	330.89
688.179	330.89
688.588	326.21
688.996	323.87
689.404	316.85
689.812	319.19
690.22	305.15
690.628	302.81
691.036	281.74
691.444	335.57
691.852	330.89
692.26	291.1
692.667	300.47
693.075	349.62
693.483	284.08
693.89	347.28
694.298	321.53
694.705	382.39
695.112	328.55
695.52	366
695.927	344.94
696.334	333.23
696.741	326.21
697.148	321.53
697.555	293.44
697.962	349.62
698.369	347.28
698.776	349.62
699.183	295.79
699.59	356.64
699.996	323.87
700.403	307.49
700.81	398.77
701.216	342.6
701.623	284.08
702.029	361.32
702.435	288.76
702.842	323.87
703.248	380.04
703.654	366
704.06	267.7
704.466	326.21
704.872	333.23
705.278	394.09
705.684	284.08
706.09	291.1
706.496	293.44
706.901	347.28
707.307	382.39
707.712	342.6
708.118	274.72
708.523	286.42
708.929	368.34
709.334	298.13
709.74	300.47
710.145	277.06
710.55	384.73
710.955	333.23
711.36	373.02
711.765	321.53
712.17	342.6
712.575	330.89
712.98	857.51
713.385	344.94
713.789	328.55
714.194	309.83
714.599	356.64
715.003	263.02
715.408	288.76
715.812	298.13
716.217	321.53
716.621	321.53
717.025	288.76
717.429	316.85
717.833	368.34
718.238	300.47
718.642	337.91
719.046	368.34
719.449	302.81
719.853	328.55
720.257	344.94
720.661	260.68
721.065	333.23
721.468	309.83
721.872	293.44
722.275	316.85
722.679	344.94
723.082	384.73
723.485	274.72
723.889	323.87
724.292	321.53
724.695	265.36
725.098	335.57
725.501	337.91
725.904	342.6
726.307	384.73
726.71	295.79
727.113	312.17
727.516	265.36
727.918	342.6
728.321	298.13
728.724	323.87
729.126	347.28
729.529	291.1
729.931	291.1
730.333	321.53
730.736	291.1
731.138	335.57
731.54	340.26
731.942	298.13
732.344	272.38
732.746	316.85
733.148	363.66
733.55	361.32
733.952	363.66
734.354	326.21
734.756	312.17
735.157	312.17
735.559	328.55
735.96	330.89
736.362	326.21
736.763	361.32
737.165	300.47
737.566	312.17
737.967	366
738.368	340.26
738.77	309.83
739.171	335.57
739.572	342.6
739.973	321.53
740.374	323.87
740.774	274.72
741.175	330.89
741.576	309.83
741.977	295.79
742.377	309.83
742.778	351.96
743.178	286.42
743.579	340.26
743.979	366
744.379	321.53
744.78	333.23
745.18	347.28
745.58	356.64
745.98	307.49
746.38	291.1
746.78	272.38
747.18	251.32
747.58	363.66
747.98	312.17
748.38	349.62
748.779	344.94
749.179	316.85
749.578	358.98
749.978	351.96
750.377	356.64
750.777	330.89
751.176	326.21
751.575	309.83
751.975	351.96
752.374	316.85
752.773	291.1
753.172	377.7
753.571	368.34
753.97	361.32
754.369	344.94
754.768	363.66
755.166	342.6
755.565	361.32
755.964	351.96
756.362	368.34
756.761	316.85
757.159	300.47
757.558	323.87
757.956	328.55
758.354	295.79
758.753	316.85
759.151	312.17
759.549	370.68
759.947	326.21
760.345	314.51
760.743	302.81
761.141	351.96
761.539	323.87
761.936	330.89
762.334	319.19
762.732	356.64
763.129	328.55
763.527	253.66
763.924	351.96
764.322	260.68
764.719	326.21
765.117	321.53
765.514	354.3
765.911	337.91
766.308	312.17
766.705	358.98
767.102	337.91
