Data from Al_FLMS009871__631__14-49-12-917.txt Node

Date: Fri Mar 08 14:49:12 CST 2024
User: pe5414po
Spectrometer: FLMS00987
Trigger mode: 0
Integration Time (sec): 1.000000E-1
Scans to average: 1
Electric dark correction enabled: true
Nonlinearity correction enabled: false
Boxcar width: 0
XAxis mode: Wavelengths
Number of Pixels in Spectrum: 2048
>>>>>Begin Spectral Data<<<<<
188.938	-77.68
189.409	-77.68
189.879	-77.68
190.349	-40.23
190.819	-122.15
191.29	-122.15
191.76	-49.59
192.23	-26.18
192.7	-89.38
193.17	-96.4
193.64	-54.27
194.109	-65.97
194.579	20.63
195.049	4.24
195.519	-9.8
195.988	-2.78
196.458	44.03
196.927	58.07
197.397	97.86
197.866	170.42
198.336	121.27
198.805	228.93
199.274	109.57
199.744	233.61
200.213	156.38
200.682	179.78
201.151	186.8
201.62	168.08
202.089	282.77
202.558	224.25
203.027	250
203.495	245.32
203.964	273.4
204.433	268.72
204.902	315.53
205.37	228.93
205.839	320.21
206.307	306.17
206.776	271.06
207.244	317.87
207.712	271.06
208.181	296.81
208.649	317.87
209.117	310.85
209.585	334.26
210.053	367.03
210.521	308.51
210.989	334.26
211.457	226.59
211.925	322.56
212.393	292.13
212.861	301.49
213.328	238.3
213.796	170.42
214.264	261.7
214.731	235.96
215.199	296.81
215.666	275.74
216.133	306.17
216.601	264.04
217.068	287.45
217.535	280.43
218.003	294.47
218.47	322.56
218.937	245.32
219.404	299.15
219.871	226.59
220.338	299.15
220.805	308.51
221.271	282.77
221.738	235.96
222.205	268.72
222.671	278.08
223.138	226.59
223.605	273.4
224.071	235.96
224.538	308.51
225.004	257.02
225.47	240.64
225.937	231.27
226.403	203.19
226.869	250
227.335	299.15
227.801	238.3
228.267	275.74
228.733	280.43
229.199	261.7
229.665	315.53
230.131	303.83
230.597	289.79
231.062	310.85
231.528	273.4
231.994	261.7
232.459	303.83
232.925	315.53
233.39	273.4
233.856	287.45
234.321	334.26
234.786	261.7
235.252	266.38
235.717	268.72
236.182	313.19
236.647	242.98
237.112	254.68
237.577	294.47
238.042	317.87
238.507	280.43
238.972	292.13
239.436	250
239.901	233.61
240.366	306.17
240.83	282.77
241.295	334.26
241.76	238.3
242.224	207.87
242.688	275.74
243.153	306.17
243.617	261.7
244.081	280.43
244.545	301.49
245.01	224.25
245.474	289.79
245.938	385.75
246.402	259.36
246.866	278.08
247.33	315.53
247.793	292.13
248.257	282.77
248.721	317.87
249.185	341.28
249.648	322.56
250.112	282.77
250.575	287.45
251.039	324.9
251.502	322.56
251.965	299.15
252.429	226.59
252.892	299.15
253.355	289.79
253.818	233.61
254.281	306.17
254.744	306.17
255.207	292.13
255.67	329.58
256.133	292.13
256.596	247.66
257.059	247.66
257.522	268.72
257.984	259.36
258.447	296.81
258.909	266.38
259.372	303.83
259.834	331.92
260.297	308.51
260.759	271.06
261.221	261.7
261.684	322.56
262.146	257.02
262.608	240.64
263.07	334.26
263.532	320.21
263.994	299.15
264.456	313.19
264.918	303.83
265.38	308.51
265.842	259.36
266.303	362.34
266.765	275.74
267.227	247.66
267.688	324.9
268.15	289.79
268.611	289.79
269.072	317.87
269.534	261.7
269.995	336.6
270.456	324.9
270.918	278.08
271.379	334.26
271.84	296.81
272.301	287.45
272.762	275.74
273.223	308.51
273.684	313.19
274.144	331.92
274.605	336.6
275.066	257.02
275.527	245.32
275.987	299.15
276.448	271.06
276.908	259.36
277.369	308.51
277.829	282.77
278.289	250
278.75	296.81
279.21	313.19
279.67	301.49
280.13	254.68
280.59	303.83
281.05	313.19
281.51	303.83
281.97	273.4
282.43	273.4
282.89	224.25
283.35	247.66
283.809	280.43
284.269	282.77
284.729	348.3
285.188	264.04
285.648	294.47
286.107	348.3
286.567	287.45
287.026	278.08
287.485	273.4
287.944	308.51
288.404	254.68
288.863	313.19
289.322	303.83
289.781	278.08
290.24	287.45
290.699	264.04
291.158	285.11
291.616	313.19
292.075	369.37
292.534	303.83
292.992	306.17
293.451	303.83
293.91	289.79
294.368	289.79
294.827	341.28
295.285	280.43
295.743	331.92
296.202	264.04
296.66	362.34
297.118	345.96
297.576	282.77
298.034	247.66
298.492	268.72
298.95	331.92
299.408	324.9
299.866	306.17
300.324	299.15
300.781	313.19
301.239	383.41
301.697	280.43
302.154	285.11
302.612	301.49
303.069	336.6
303.527	301.49
303.984	240.64
304.441	266.38
304.899	329.58
305.356	254.68
305.813	306.17
306.27	266.38
306.727	303.83
307.184	362.34
307.641	264.04
308.098	299.15
308.555	331.92
309.012	294.47
309.468	317.87
309.925	329.58
310.382	324.9
310.838	280.43
311.295	322.56
311.751	310.85
312.208	254.68
312.664	299.15
313.12	301.49
313.577	266.38
314.033	334.26
314.489	259.36
314.945	320.21
315.401	306.17
315.857	280.43
316.313	285.11
316.769	266.38
317.225	301.49
317.681	294.47
318.136	296.81
318.592	252.34
319.048	322.56
319.503	273.4
319.959	266.38
320.414	364.68
320.869	301.49
321.325	331.92
321.78	306.17
322.235	299.15
322.691	315.53
323.146	273.4
323.601	341.28
324.056	228.93
324.511	306.17
324.966	266.38
325.421	264.04
325.875	303.83
326.33	266.38
326.785	280.43
327.24	308.51
327.694	235.96
328.149	271.06
328.603	271.06
329.058	338.94
329.512	296.81
329.966	324.9
330.421	296.81
330.875	245.32
331.329	273.4
331.783	369.37
332.237	308.51
332.691	280.43
333.145	390.43
333.599	287.45
334.053	308.51
334.507	324.9
334.96	329.58
335.414	313.19
335.868	317.87
336.321	348.3
336.775	289.79
337.228	296.81
337.682	285.11
338.135	301.49
338.588	292.13
339.042	301.49
339.495	257.02
339.948	313.19
340.401	324.9
340.854	287.45
341.307	315.53
341.76	374.05
342.213	327.24
342.666	280.43
343.119	345.96
343.571	331.92
344.024	282.77
344.477	357.66
344.929	343.62
345.382	334.26
345.834	247.66
346.287	245.32
346.739	287.45
347.191	331.92
347.644	303.83
348.096	327.24
348.548	343.62
349	369.37
349.452	294.47
349.904	275.74
350.356	352.98
350.808	317.87
351.26	355.32
351.711	257.02
352.163	303.83
352.615	285.11
353.066	329.58
353.518	324.9
353.969	317.87
354.421	299.15
354.872	280.43
355.324	334.26
355.775	322.56
356.226	315.53
356.677	301.49
357.128	338.94
357.579	294.47
358.03	303.83
358.481	345.96
358.932	301.49
359.383	324.9
359.834	308.51
360.285	271.06
360.735	296.81
361.186	334.26
361.637	364.68
362.087	334.26
362.538	212.55
362.988	275.74
363.438	327.24
363.889	324.9
364.339	327.24
364.789	360
365.239	294.47
365.689	296.81
366.139	303.83
366.589	268.72
367.039	360
367.489	355.32
367.939	350.64
368.389	289.79
368.839	313.19
369.288	374.05
369.738	245.32
370.187	364.68
370.637	282.77
371.086	285.11
371.536	367.03
371.985	376.39
372.434	357.66
372.884	296.81
373.333	331.92
373.782	292.13
374.231	250
374.68	352.98
375.129	289.79
375.578	285.11
376.027	282.77
376.475	336.6
376.924	289.79
377.373	343.62
377.822	205.53
378.27	287.45
378.719	352.98
379.167	250
379.616	374.05
380.064	306.17
380.512	317.87
380.961	416.18
381.409	345.96
381.857	282.77
382.305	341.28
382.753	315.53
383.201	350.64
383.649	282.77
384.097	357.66
384.545	308.51
384.992	280.43
385.44	317.87
385.888	381.07
386.335	292.13
386.783	343.62
387.231	334.26
387.678	320.21
388.125	257.02
388.573	348.3
389.02	378.73
389.467	313.19
389.914	338.94
390.362	388.09
390.809	324.9
391.256	303.83
391.703	336.6
392.15	338.94
392.596	303.83
393.043	378.73
393.49	322.56
393.937	287.45
394.383	371.71
394.83	299.15
395.276	345.96
395.723	294.47
396.169	317.87
396.616	275.74
397.062	292.13
397.508	320.21
397.954	317.87
398.401	278.08
398.847	303.83
399.293	292.13
399.739	310.85
400.185	292.13
400.631	392.77
401.076	313.19
401.522	324.9
401.968	315.53
402.414	329.58
402.859	315.53
403.305	303.83
403.75	299.15
404.196	345.96
404.641	250
405.086	275.74
405.532	345.96
405.977	254.68
406.422	352.98
406.867	313.19
407.312	299.15
407.757	306.17
408.202	324.9
408.647	341.28
409.092	280.43
409.537	306.17
409.982	350.64
410.426	355.32
410.871	322.56
411.316	268.72
411.76	360
412.205	322.56
412.649	338.94
413.093	317.87
413.538	327.24
413.982	303.83
414.426	308.51
414.87	343.62
415.314	310.85
415.758	343.62
416.202	299.15
416.646	315.53
417.09	383.41
417.534	329.58
417.978	261.7
418.421	334.26
418.865	341.28
419.309	357.66
419.752	273.4
420.196	320.21
420.639	317.87
421.083	317.87
421.526	287.45
421.969	376.39
422.412	362.34
422.856	371.71
423.299	296.81
423.742	331.92
424.185	329.58
424.628	303.83
425.071	303.83
425.513	341.28
425.956	341.28
426.399	296.81
426.842	350.64
427.284	289.79
427.727	331.92
428.169	341.28
428.612	294.47
429.054	280.43
429.497	315.53
429.939	294.47
430.381	327.24
430.823	345.96
431.265	381.07
431.707	299.15
432.149	369.37
432.591	357.66
433.033	296.81
433.475	374.05
433.917	306.17
434.359	336.6
434.8	301.49
435.242	285.11
435.684	367.03
436.125	336.6
436.567	320.21
437.008	343.62
437.449	280.43
437.891	292.13
438.332	381.07
438.773	362.34
439.214	317.87
439.656	301.49
440.097	338.94
440.538	313.19
440.978	308.51
441.419	376.39
441.86	371.71
442.301	268.72
442.742	341.28
443.182	362.34
443.623	324.9
444.063	303.83
444.504	355.32
444.944	364.68
445.385	308.51
445.825	327.24
446.265	285.11
446.706	343.62
447.146	329.58
447.586	310.85
448.026	273.4
448.466	285.11
448.906	327.24
449.346	287.45
449.786	306.17
450.225	259.36
450.665	345.96
451.105	348.3
451.544	336.6
451.984	238.3
452.424	331.92
452.863	329.58
453.302	282.77
453.742	254.68
454.181	294.47
454.62	331.92
455.059	268.72
455.499	264.04
455.938	306.17
456.377	341.28
456.816	345.96
457.254	331.92
457.693	343.62
458.132	350.64
458.571	317.87
459.01	343.62
459.448	308.51
459.887	331.92
460.325	331.92
460.764	343.62
461.202	360
461.641	390.43
462.079	331.92
462.517	355.32
462.955	313.19
463.393	266.38
463.832	331.92
464.27	331.92
464.708	343.62
465.145	350.64
465.583	299.15
466.021	364.68
466.459	299.15
466.897	299.15
467.334	317.87
467.772	278.08
468.209	315.53
468.647	273.4
469.084	381.07
469.522	362.34
469.959	355.32
470.396	331.92
470.833	320.21
471.271	336.6
471.708	289.79
472.145	334.26
472.582	345.96
473.019	301.49
473.456	296.81
473.892	273.4
474.329	308.51
474.766	264.04
475.202	362.34
475.639	378.73
476.076	287.45
476.512	338.94
476.949	320.21
477.385	341.28
477.821	257.02
478.258	299.15
478.694	264.04
479.13	245.32
479.566	336.6
480.002	336.6
480.438	287.45
480.874	301.49
481.31	268.72
481.746	343.62
482.181	357.66
482.617	308.51
483.053	320.21
483.488	327.24
483.924	317.87
484.36	315.53
484.795	343.62
485.23	315.53
485.666	315.53
486.101	278.08
486.536	341.28
486.971	289.79
487.407	322.56
487.842	327.24
488.277	285.11
488.712	397.45
489.146	357.66
489.581	299.15
490.016	315.53
490.451	327.24
490.885	322.56
491.32	320.21
491.755	273.4
492.189	341.28
492.624	306.17
493.058	299.15
493.492	301.49
493.927	324.9
494.361	322.56
494.795	360
495.229	348.3
495.663	310.85
496.097	317.87
496.531	331.92
496.965	345.96
497.399	324.9
497.833	343.62
498.266	338.94
498.7	336.6
499.134	381.07
499.567	327.24
500.001	364.68
500.434	390.43
500.868	296.81
501.301	317.87
501.734	273.4
502.168	287.45
502.601	308.51
503.034	303.83
503.467	320.21
503.9	287.45
504.333	331.92
504.766	352.98
505.199	350.64
505.632	324.9
506.064	266.38
506.497	317.87
506.93	275.74
507.362	374.05
507.795	336.6
508.227	275.74
508.66	329.58
509.092	308.51
509.524	329.58
509.956	338.94
510.389	303.83
510.821	404.47
511.253	343.62
511.685	320.21
512.117	348.3
512.549	294.47
512.981	324.9
513.412	360
513.844	367.03
514.276	306.17
514.707	336.6
515.139	336.6
515.571	364.68
516.002	362.34
516.433	374.05
516.865	306.17
517.296	320.21
517.727	320.21
518.159	336.6
518.59	282.77
519.021	275.74
519.452	329.58
519.883	343.62
520.314	235.96
520.744	306.17
521.175	360
521.606	282.77
522.037	327.24
522.467	381.07
522.898	341.28
523.328	275.74
523.759	320.21
524.189	259.36
524.62	299.15
525.05	313.19
525.48	322.56
525.91	348.3
526.341	303.83
526.771	343.62
527.201	345.96
527.631	303.83
528.061	367.03
528.49	313.19
528.92	299.15
529.35	352.98
529.78	397.45
530.209	362.34
530.639	289.79
531.068	282.77
531.498	341.28
531.927	308.51
532.357	341.28
532.786	334.26
533.215	324.9
533.644	289.79
534.074	296.81
534.503	350.64
534.932	374.05
535.361	345.96
535.79	282.77
536.218	364.68
536.647	299.15
537.076	282.77
537.505	231.27
537.933	371.71
538.362	362.34
538.79	278.08
539.219	329.58
539.647	303.83
540.076	322.56
540.504	313.19
540.932	327.24
541.36	292.13
541.788	285.11
542.217	355.32
542.645	322.56
543.073	296.81
543.5	310.85
543.928	317.87
544.356	348.3
544.784	313.19
545.211	257.02
545.639	310.85
546.067	329.58
546.494	320.21
546.922	313.19
547.349	303.83
547.776	315.53
548.204	329.58
548.631	278.08
549.058	299.15
549.485	327.24
549.912	378.73
550.339	334.26
550.766	322.56
551.193	329.58
551.62	367.03
552.047	369.37
552.474	336.6
552.9	289.79
553.327	306.17
553.754	324.9
554.18	360
554.607	278.08
555.033	338.94
555.459	266.38
555.886	247.66
556.312	397.45
556.738	294.47
557.164	268.72
557.59	313.19
558.016	280.43
558.442	275.74
558.868	252.34
559.294	308.51
559.72	331.92
560.145	259.36
560.571	322.56
560.997	306.17
561.422	338.94
561.848	308.51
562.273	317.87
562.699	392.77
563.124	313.19
563.549	315.53
563.974	367.03
564.4	324.9
564.825	367.03
565.25	261.7
565.675	257.02
566.1	292.13
566.525	308.51
566.95	338.94
567.374	390.43
567.799	327.24
568.224	352.98
568.648	310.85
569.073	348.3
569.497	397.45
569.922	287.45
570.346	299.15
570.771	287.45
571.195	287.45
571.619	360
572.043	345.96
572.467	324.9
572.891	294.47
573.315	289.79
573.739	327.24
574.163	315.53
574.587	327.24
575.011	280.43
575.435	395.11
575.858	320.21
576.282	331.92
576.705	315.53
577.129	273.4
577.552	250
577.976	334.26
578.399	280.43
578.822	327.24
579.245	343.62
579.669	299.15
580.092	308.51
580.515	329.58
580.938	343.62
581.361	313.19
581.784	376.39
582.206	329.58
582.629	338.94
583.052	350.64
583.474	317.87
583.897	245.32
584.32	367.03
584.742	306.17
585.165	289.79
585.587	259.36
586.009	278.08
586.431	310.85
586.854	271.06
587.276	292.13
587.698	299.15
588.12	285.11
588.542	338.94
588.964	292.13
589.386	310.85
589.807	352.98
590.229	360
590.651	306.17
591.073	357.66
591.494	381.07
591.916	247.66
592.337	294.47
592.759	289.79
593.18	338.94
593.601	341.28
594.022	285.11
594.444	336.6
594.865	296.81
595.286	310.85
595.707	308.51
596.128	350.64
596.549	306.17
596.97	308.51
597.39	352.98
597.811	376.39
598.232	364.68
598.652	303.83
599.073	324.9
599.494	313.19
599.914	371.71
600.334	296.81
600.755	271.06
601.175	299.15
601.595	360
602.015	369.37
602.436	322.56
602.856	404.47
603.276	259.36
603.696	299.15
604.115	317.87
604.535	350.64
604.955	329.58
605.375	280.43
605.794	296.81
606.214	338.94
606.634	252.34
607.053	278.08
607.473	301.49
607.892	299.15
608.311	324.9
608.731	296.81
609.15	374.05
609.569	320.21
609.988	306.17
610.407	360
610.826	327.24
611.245	278.08
611.664	306.17
612.083	285.11
612.501	355.32
612.92	278.08
613.339	299.15
613.757	345.96
614.176	336.6
614.594	282.77
615.013	374.05
615.431	310.85
615.85	338.94
616.268	367.03
616.686	320.21
617.104	320.21
617.522	301.49
617.94	306.17
618.358	329.58
618.776	324.9
619.194	320.21
619.612	371.71
620.03	345.96
620.447	338.94
620.865	327.24
621.282	315.53
621.7	303.83
622.117	292.13
622.535	324.9
622.952	292.13
623.369	350.64
623.787	355.32
624.204	357.66
624.621	336.6
625.038	282.77
625.455	308.51
625.872	292.13
626.289	292.13
626.706	329.58
627.123	296.81
627.539	367.03
627.956	362.34
628.373	296.81
628.789	315.53
629.206	303.83
629.622	329.58
630.038	341.28
630.455	294.47
630.871	266.38
631.287	336.6
631.703	385.75
632.12	275.74
632.536	388.09
632.952	331.92
633.368	273.4
633.783	334.26
634.199	336.6
634.615	299.15
635.031	345.96
635.446	338.94
635.862	327.24
636.277	334.26
636.693	310.85
637.108	296.81
637.524	329.58
637.939	334.26
638.354	261.7
638.77	324.9
639.185	420.86
639.6	385.75
640.015	303.83
640.43	315.53
640.845	275.74
641.259	338.94
641.674	287.45
642.089	313.19
642.504	303.83
642.918	355.32
643.333	343.62
643.747	261.7
644.162	294.47
644.576	327.24
644.991	320.21
645.405	322.56
645.819	329.58
646.233	303.83
646.647	306.17
647.061	371.71
647.475	303.83
647.889	287.45
648.303	369.37
648.717	317.87
649.131	308.51
649.545	285.11
649.958	313.19
650.372	369.37
650.785	329.58
651.199	292.13
651.612	285.11
652.026	416.18
652.439	345.96
652.852	343.62
653.266	306.17
653.679	331.92
654.092	308.51
654.505	338.94
654.918	299.15
655.331	285.11
655.744	317.87
656.156	343.62
656.569	338.94
656.982	310.85
657.394	317.87
657.807	278.08
658.22	266.38
658.632	329.58
659.044	343.62
659.457	278.08
659.869	350.64
660.281	388.09
660.693	329.58
661.106	341.28
661.518	299.15
661.93	280.43
662.342	355.32
662.754	334.26
663.165	322.56
663.577	296.81
663.989	259.36
664.401	343.62
664.812	261.7
665.224	285.11
665.635	294.47
666.047	280.43
666.458	341.28
666.869	306.17
667.281	331.92
667.692	299.15
668.103	301.49
668.514	317.87
668.925	313.19
669.336	280.43
669.747	334.26
670.158	292.13
670.569	371.71
670.979	299.15
671.39	381.07
671.801	275.74
672.211	343.62
672.622	322.56
673.032	329.58
673.443	308.51
673.853	331.92
674.263	336.6
674.674	383.41
675.084	320.21
675.494	301.49
675.904	336.6
676.314	362.34
676.724	278.08
677.134	268.72
677.544	324.9
677.953	390.43
678.363	299.15
678.773	313.19
679.182	360
679.592	294.47
680.001	313.19
680.411	268.72
680.82	252.34
681.23	294.47
681.639	271.06
682.048	331.92
682.457	341.28
682.866	301.49
683.275	308.51
683.684	301.49
684.093	313.19
684.502	411.5
684.911	329.58
685.32	315.53
685.728	278.08
686.137	416.18
686.546	338.94
686.954	357.66
687.363	341.28
687.771	280.43
688.179	345.96
688.588	324.9
688.996	254.68
689.404	317.87
689.812	324.9
690.22	310.85
690.628	322.56
691.036	296.81
691.444	348.3
691.852	289.79
692.26	343.62
692.667	303.83
693.075	322.56
693.483	338.94
693.89	329.58
694.298	299.15
694.705	294.47
695.112	294.47
695.52	287.45
695.927	381.07
696.334	301.49
696.741	327.24
697.148	299.15
697.555	289.79
697.962	327.24
698.369	338.94
698.776	357.66
699.183	292.13
699.59	259.36
699.996	329.58
700.403	301.49
700.81	324.9
701.216	348.3
701.623	331.92
702.029	334.26
702.435	315.53
702.842	397.45
703.248	296.81
703.654	238.3
704.06	322.56
704.466	294.47
704.872	308.51
705.278	341.28
705.684	238.3
706.09	331.92
706.496	242.98
706.901	282.77
707.307	289.79
707.712	308.51
708.118	299.15
708.523	324.9
708.929	301.49
709.334	338.94
709.74	329.58
710.145	282.77
710.55	313.19
710.955	329.58
711.36	287.45
711.765	292.13
712.17	367.03
712.575	289.79
712.98	788.32
713.385	383.41
713.789	324.9
714.194	338.94
714.599	348.3
715.003	287.45
715.408	306.17
715.812	275.74
716.217	240.64
716.621	329.58
717.025	336.6
717.429	257.02
717.833	308.51
718.238	336.6
718.642	352.98
719.046	292.13
719.449	360
719.853	310.85
720.257	306.17
720.661	331.92
721.065	301.49
721.468	322.56
721.872	320.21
722.275	280.43
722.679	285.11
723.082	320.21
723.485	336.6
723.889	385.75
724.292	362.34
724.695	313.19
725.098	310.85
725.501	306.17
725.904	343.62
726.307	327.24
726.71	336.6
727.113	282.77
727.516	345.96
727.918	327.24
728.321	315.53
728.724	306.17
729.126	362.34
729.529	348.3
729.931	329.58
730.333	242.98
730.736	313.19
731.138	299.15
731.54	310.85
731.942	329.58
732.344	376.39
732.746	313.19
733.148	334.26
733.55	306.17
733.952	254.68
734.354	254.68
734.756	317.87
735.157	317.87
735.559	313.19
735.96	315.53
736.362	245.32
736.763	310.85
737.165	324.9
737.566	341.28
737.967	313.19
738.368	324.9
738.77	324.9
739.171	313.19
739.572	331.92
739.973	308.51
740.374	289.79
740.774	331.92
741.175	327.24
741.576	331.92
741.977	259.36
742.377	296.81
742.778	369.37
743.178	287.45
743.579	257.02
743.979	374.05
744.379	350.64
744.78	313.19
745.18	317.87
745.58	313.19
745.98	348.3
746.38	341.28
746.78	275.74
747.18	357.66
747.58	327.24
747.98	338.94
748.38	345.96
748.779	294.47
749.179	315.53
749.578	292.13
749.978	348.3
750.377	343.62
750.777	299.15
751.176	313.19
751.575	329.58
751.975	310.85
752.374	336.6
752.773	287.45
753.172	299.15
753.571	292.13
753.97	301.49
754.369	348.3
754.768	331.92
755.166	259.36
755.565	329.58
755.964	320.21
756.362	315.53
756.761	303.83
757.159	233.61
757.558	334.26
757.956	324.9
758.354	299.15
758.753	322.56
759.151	310.85
759.549	317.87
759.947	275.74
760.345	343.62
760.743	289.79
761.141	287.45
761.539	278.08
761.936	280.43
762.334	308.51
762.732	381.07
763.129	355.32
763.527	322.56
763.924	296.81
764.322	338.94
764.719	313.19
765.117	273.4
765.514	303.83
765.911	280.43
766.308	310.85
766.705	289.79
