Data from Al_FLMS009871__639__14-49-13-712.txt Node

Date: Fri Mar 08 14:49:13 CST 2024
User: pe5414po
Spectrometer: FLMS00987
Trigger mode: 0
Integration Time (sec): 1.000000E-1
Scans to average: 1
Electric dark correction enabled: true
Nonlinearity correction enabled: false
Boxcar width: 0
XAxis mode: Wavelengths
Number of Pixels in Spectrum: 2048
>>>>>Begin Spectral Data<<<<<
188.938	-113.08
189.409	-113.08
189.879	-113.08
190.349	-101.37
190.819	-99.03
191.29	-87.33
191.76	-129.46
192.23	-26.48
192.7	-138.82
193.17	-42.86
193.64	-28.82
194.109	-40.52
194.579	-3.07
195.049	34.38
195.519	36.72
195.988	-21.8
196.458	60.12
196.927	64.8
197.397	135.02
197.866	118.64
198.336	69.48
198.805	167.79
199.274	151.4
199.744	139.7
200.213	200.55
200.682	195.87
201.151	240.34
201.62	202.9
202.089	170.13
202.558	181.83
203.027	221.62
203.495	266.09
203.964	233.32
204.433	240.34
204.902	242.68
205.37	359.71
205.839	238
206.307	254.39
206.776	270.77
207.244	282.47
207.712	270.77
208.181	233.32
208.649	287.15
209.117	249.71
209.585	249.71
210.053	287.15
210.521	287.15
210.989	270.77
211.457	209.92
211.925	223.96
212.393	308.22
212.861	280.13
213.328	263.75
213.796	340.99
214.264	230.98
214.731	207.58
215.199	268.43
215.666	202.9
216.133	186.51
216.601	261.41
217.068	305.88
217.535	284.81
218.003	233.32
218.47	245.02
218.937	268.43
219.404	266.09
219.871	256.73
220.338	226.3
220.805	245.02
221.271	209.92
221.738	261.41
222.205	238
222.671	273.11
223.138	249.71
223.605	261.41
224.071	259.07
224.538	284.81
225.004	357.37
225.47	252.05
225.937	216.94
226.403	298.86
226.869	247.37
227.335	282.47
227.801	230.98
228.267	216.94
228.733	249.71
229.199	270.77
229.665	287.15
230.131	303.54
230.597	249.71
231.062	266.09
231.528	235.66
231.994	298.86
232.459	247.37
232.925	256.73
233.39	247.37
233.856	287.15
234.321	230.98
234.786	298.86
235.252	289.5
235.717	312.9
236.182	284.81
236.647	298.86
237.112	230.98
237.577	282.47
238.042	266.09
238.507	266.09
238.972	268.43
239.436	219.28
239.901	343.33
240.366	308.22
240.83	350.35
241.295	289.5
241.76	322.26
242.224	209.92
242.688	282.47
243.153	228.64
243.617	221.62
244.081	252.05
244.545	252.05
245.01	212.26
245.474	191.19
245.938	289.5
246.402	268.43
246.866	338.65
247.33	280.13
247.793	284.81
248.257	230.98
248.721	308.22
249.185	212.26
249.648	263.75
250.112	280.13
250.575	247.37
251.039	301.2
251.502	284.81
251.965	230.98
252.429	226.3
252.892	242.68
253.355	291.84
253.818	270.77
254.281	308.22
254.744	343.33
255.207	235.66
255.67	287.15
256.133	319.92
256.596	273.11
257.059	238
257.522	291.84
257.984	298.86
258.447	268.43
258.909	245.02
259.372	242.68
259.834	315.24
260.297	282.47
260.759	298.86
261.221	282.47
261.684	305.88
262.146	252.05
262.608	254.39
263.07	277.79
263.532	249.71
263.994	252.05
264.456	329.28
264.918	202.9
265.38	261.41
265.842	294.18
266.303	221.62
266.765	226.3
267.227	252.05
267.688	245.02
268.15	223.96
268.611	205.24
269.072	329.28
269.534	291.84
269.995	301.2
270.456	291.84
270.918	254.39
271.379	287.15
271.84	259.07
272.301	310.56
272.762	273.11
273.223	301.2
273.684	322.26
274.144	242.68
274.605	287.15
275.066	282.47
275.527	291.84
275.987	256.73
276.448	263.75
276.908	345.67
277.369	240.34
277.829	315.24
278.289	214.6
278.75	273.11
279.21	301.2
279.67	298.86
280.13	242.68
280.59	338.65
281.05	282.47
281.51	287.15
281.97	305.88
282.43	282.47
282.89	240.34
283.35	268.43
283.809	266.09
284.269	280.13
284.729	305.88
285.188	228.64
285.648	270.77
286.107	270.77
286.567	301.2
287.026	336.31
287.485	373.75
287.944	240.34
288.404	254.39
288.863	249.71
289.322	268.43
289.781	245.02
290.24	261.41
290.699	282.47
291.158	345.67
291.616	275.45
292.075	277.79
292.534	310.56
292.992	282.47
293.451	301.2
293.91	303.54
294.368	266.09
294.827	263.75
295.285	319.92
295.743	235.66
296.202	256.73
296.66	275.45
297.118	282.47
297.576	301.2
298.034	315.24
298.492	289.5
298.95	275.45
299.408	291.84
299.866	310.56
300.324	284.81
300.781	259.07
301.239	317.58
301.697	249.71
302.154	333.97
302.612	308.22
303.069	312.9
303.527	343.33
303.984	247.37
304.441	256.73
304.899	310.56
305.356	284.81
305.813	256.73
306.27	350.35
306.727	266.09
307.184	291.84
307.641	275.45
308.098	261.41
308.555	289.5
309.012	312.9
309.468	249.71
309.925	336.31
310.382	263.75
310.838	268.43
311.295	326.94
311.751	308.22
312.208	319.92
312.664	291.84
313.12	280.13
313.577	282.47
314.033	324.6
314.489	301.2
314.945	305.88
315.401	310.56
315.857	338.65
316.313	256.73
316.769	310.56
317.225	350.35
317.681	282.47
318.136	305.88
318.592	252.05
319.048	207.58
319.503	312.9
319.959	245.02
320.414	275.45
320.869	310.56
321.325	282.47
321.78	289.5
322.235	259.07
322.691	345.67
323.146	254.39
323.601	282.47
324.056	259.07
324.511	261.41
324.966	259.07
325.421	221.62
325.875	207.58
326.33	308.22
326.785	235.66
327.24	312.9
327.694	275.45
328.149	315.24
328.603	287.15
329.058	357.37
329.512	308.22
329.966	261.41
330.421	312.9
330.875	294.18
331.329	216.94
331.783	287.15
332.237	277.79
332.691	355.03
333.145	289.5
333.599	240.34
334.053	275.45
334.507	270.77
334.96	259.07
335.414	263.75
335.868	298.86
336.321	266.09
336.775	305.88
337.228	284.81
337.682	315.24
338.135	315.24
338.588	326.94
339.042	294.18
339.495	322.26
339.948	219.28
340.401	266.09
340.854	221.62
341.307	383.12
341.76	308.22
342.213	261.41
342.666	326.94
343.119	247.37
343.571	319.92
344.024	333.97
344.477	263.75
344.929	263.75
345.382	378.44
345.834	282.47
346.287	270.77
346.739	249.71
347.191	268.43
347.644	326.94
348.096	329.28
348.548	268.43
349	373.75
349.452	270.77
349.904	268.43
350.356	273.11
350.808	336.31
351.26	315.24
351.711	296.52
352.163	284.81
352.615	329.28
353.066	296.52
353.518	317.58
353.969	256.73
354.421	312.9
354.872	291.84
355.324	364.39
355.775	291.84
356.226	326.94
356.677	308.22
357.128	324.6
357.579	319.92
358.03	230.98
358.481	254.39
358.932	282.47
359.383	308.22
359.834	301.2
360.285	326.94
360.735	291.84
361.186	357.37
361.637	296.52
362.087	305.88
362.538	277.79
362.988	310.56
363.438	287.15
363.889	322.26
364.339	261.41
364.789	289.5
365.239	305.88
365.689	340.99
366.139	270.77
366.589	301.2
367.039	240.34
367.489	280.13
367.939	294.18
368.389	352.69
368.839	282.47
369.288	331.62
369.738	394.82
370.187	270.77
370.637	280.13
371.086	291.84
371.536	331.62
371.985	324.6
372.434	249.71
372.884	296.52
373.333	301.2
373.782	317.58
374.231	336.31
374.68	294.18
375.129	383.12
375.578	305.88
376.027	254.39
376.475	305.88
376.924	364.39
377.373	282.47
377.822	284.81
378.27	291.84
378.719	289.5
379.167	301.2
379.616	315.24
380.064	317.58
380.512	296.52
380.961	319.92
381.409	324.6
381.857	331.62
382.305	249.71
382.753	298.86
383.201	362.05
383.649	322.26
384.097	266.09
384.545	266.09
384.992	291.84
385.44	303.54
385.888	275.45
386.335	331.62
386.783	322.26
387.231	376.09
387.678	233.32
388.125	298.86
388.573	317.58
389.02	256.73
389.467	296.52
389.914	310.56
390.362	315.24
390.809	277.79
391.256	256.73
391.703	345.67
392.15	277.79
392.596	294.18
393.043	373.75
393.49	252.05
393.937	362.05
394.383	298.86
394.83	294.18
395.276	291.84
395.723	319.92
396.169	256.73
396.616	338.65
397.062	294.18
397.508	287.15
397.954	315.24
398.401	289.5
398.847	287.15
399.293	312.9
399.739	308.22
400.185	298.86
400.631	301.2
401.076	322.26
401.522	322.26
401.968	301.2
402.414	273.11
402.859	291.84
403.305	359.71
403.75	289.5
404.196	310.56
404.641	287.15
405.086	371.41
405.532	289.5
405.977	319.92
406.422	291.84
406.867	303.54
407.312	336.31
407.757	287.15
408.202	287.15
408.647	254.39
409.092	280.13
409.537	301.2
409.982	312.9
410.426	303.54
410.871	259.07
411.316	343.33
411.76	282.47
412.205	294.18
412.649	247.37
413.093	247.37
413.538	355.03
413.982	263.75
414.426	345.67
414.87	219.28
415.314	308.22
415.758	249.71
416.202	333.97
416.646	305.88
417.09	289.5
417.534	324.6
417.978	298.86
418.421	289.5
418.865	294.18
419.309	296.52
419.752	284.81
420.196	390.14
420.639	352.69
421.083	336.31
421.526	350.35
421.969	280.13
422.412	364.39
422.856	312.9
423.299	333.97
423.742	312.9
424.185	249.71
424.628	296.52
425.071	298.86
425.513	294.18
425.956	308.22
426.399	359.71
426.842	247.37
427.284	291.84
427.727	303.54
428.169	301.2
428.612	373.75
429.054	331.62
429.497	296.52
429.939	242.68
430.381	310.56
430.823	333.97
431.265	298.86
431.707	322.26
432.149	291.84
432.591	310.56
433.033	303.54
433.475	296.52
433.917	298.86
434.359	319.92
434.8	268.43
435.242	317.58
435.684	275.45
436.125	305.88
436.567	291.84
437.008	298.86
437.449	282.47
437.891	294.18
438.332	317.58
438.773	338.65
439.214	277.79
439.656	310.56
440.097	275.45
440.538	301.2
440.978	310.56
441.419	340.99
441.86	268.43
442.301	355.03
442.742	291.84
443.182	352.69
443.623	355.03
444.063	340.99
444.504	329.28
444.944	263.75
445.385	340.99
445.825	376.09
446.265	252.05
446.706	324.6
447.146	315.24
447.586	275.45
448.026	329.28
448.466	366.73
448.906	289.5
449.346	345.67
449.786	219.28
450.225	315.24
450.665	273.11
451.105	301.2
451.544	268.43
451.984	345.67
452.424	340.99
452.863	254.39
453.302	310.56
453.742	294.18
454.181	315.24
454.62	280.13
455.059	329.28
455.499	263.75
455.938	308.22
456.377	355.03
456.816	277.79
457.254	277.79
457.693	305.88
458.132	324.6
458.571	305.88
459.01	280.13
459.448	322.26
459.887	312.9
460.325	326.94
460.764	275.45
461.202	310.56
461.641	383.12
462.079	322.26
462.517	305.88
462.955	317.58
463.393	338.65
463.832	324.6
464.27	280.13
464.708	331.62
465.145	333.97
465.583	310.56
466.021	242.68
466.459	296.52
466.897	322.26
467.334	275.45
467.772	319.92
468.209	348.01
468.647	312.9
469.084	289.5
469.522	308.22
469.959	319.92
470.396	310.56
470.833	312.9
471.271	329.28
471.708	301.2
472.145	296.52
472.582	348.01
473.019	322.26
473.456	282.47
473.892	310.56
474.329	303.54
474.766	329.28
475.202	364.39
475.639	427.59
476.076	263.75
476.512	228.64
476.949	296.52
477.385	305.88
477.821	340.99
478.258	291.84
478.694	364.39
479.13	214.6
479.566	294.18
480.002	270.77
480.438	315.24
480.874	263.75
481.31	319.92
481.746	308.22
482.181	273.11
482.617	294.18
483.053	362.05
483.488	282.47
483.924	291.84
484.36	301.2
484.795	270.77
485.23	345.67
485.666	310.56
486.101	230.98
486.536	319.92
486.971	259.07
487.407	282.47
487.842	287.15
488.277	340.99
488.712	343.33
489.146	387.8
489.581	348.01
490.016	303.54
490.451	275.45
490.885	270.77
491.32	322.26
491.755	263.75
492.189	322.26
492.624	312.9
493.058	329.28
493.492	294.18
493.927	324.6
494.361	252.05
494.795	326.94
495.229	338.65
495.663	350.35
496.097	336.31
496.531	343.33
496.965	287.15
497.399	287.15
497.833	261.41
498.266	333.97
498.7	308.22
499.134	312.9
499.567	308.22
500.001	301.2
500.434	326.94
500.868	394.82
501.301	247.37
501.734	333.97
502.168	310.56
502.601	310.56
503.034	273.11
503.467	345.67
503.9	355.03
504.333	268.43
504.766	333.97
505.199	418.22
505.632	319.92
506.064	249.71
506.497	326.94
506.93	331.62
507.362	312.9
507.795	216.94
508.227	350.35
508.66	324.6
509.092	294.18
509.524	308.22
509.956	287.15
510.389	355.03
510.821	331.62
511.253	331.62
511.685	319.92
512.117	303.54
512.549	268.43
512.981	326.94
513.412	270.77
513.844	268.43
514.276	322.26
514.707	322.26
515.139	287.15
515.571	329.28
516.002	266.09
516.433	369.07
516.865	317.58
517.296	383.12
517.727	338.65
518.159	308.22
518.59	312.9
519.021	315.24
519.452	329.28
519.883	324.6
520.314	333.97
520.744	298.86
521.175	336.31
521.606	263.75
522.037	298.86
522.467	261.41
522.898	296.52
523.328	357.37
523.759	371.41
524.189	315.24
524.62	282.47
525.05	331.62
525.48	338.65
525.91	355.03
526.341	308.22
526.771	259.07
527.201	303.54
527.631	301.2
528.061	296.52
528.49	305.88
528.92	308.22
529.35	280.13
529.78	319.92
530.209	252.05
530.639	359.71
531.068	287.15
531.498	263.75
531.927	301.2
532.357	296.52
532.786	364.39
533.215	312.9
533.644	301.2
534.074	245.02
534.503	298.86
534.932	315.24
535.361	308.22
535.79	221.62
536.218	249.71
536.647	305.88
537.076	298.86
537.505	282.47
537.933	261.41
538.362	345.67
538.79	294.18
539.219	305.88
539.647	329.28
540.076	362.05
540.504	296.52
540.932	326.94
541.36	303.54
541.788	348.01
542.217	345.67
542.645	284.81
543.073	315.24
543.5	345.67
543.928	324.6
544.356	305.88
544.784	289.5
545.211	294.18
545.639	301.2
546.067	378.44
546.494	247.37
546.922	305.88
547.349	312.9
547.776	366.73
548.204	275.45
548.631	266.09
549.058	289.5
549.485	298.86
549.912	301.2
550.339	364.39
550.766	280.13
551.193	277.79
551.62	291.84
552.047	282.47
552.474	362.05
552.9	301.2
553.327	326.94
553.754	329.28
554.18	263.75
554.607	345.67
555.033	296.52
555.459	287.15
555.886	310.56
556.312	287.15
556.738	319.92
557.164	331.62
557.59	289.5
558.016	329.28
558.442	270.77
558.868	305.88
559.294	284.81
559.72	301.2
560.145	263.75
560.571	333.97
560.997	345.67
561.422	289.5
561.848	216.94
562.273	291.84
562.699	252.05
563.124	296.52
563.549	338.65
563.974	348.01
564.4	296.52
564.825	324.6
565.25	326.94
565.675	291.84
566.1	296.52
566.525	312.9
566.95	322.26
567.374	273.11
567.799	371.41
568.224	294.18
568.648	350.35
569.073	317.58
569.497	259.07
569.922	242.68
570.346	355.03
570.771	345.67
571.195	268.43
571.619	345.67
572.043	338.65
572.467	333.97
572.891	273.11
573.315	270.77
573.739	254.39
574.163	268.43
574.587	336.31
575.011	230.98
575.435	301.2
575.858	305.88
576.282	322.26
576.705	333.97
577.129	242.68
577.552	282.47
577.976	322.26
578.399	331.62
578.822	317.58
579.245	240.34
579.669	282.47
580.092	256.73
580.515	303.54
580.938	291.84
581.361	261.41
581.784	245.02
582.206	261.41
582.629	345.67
583.052	305.88
583.474	352.69
583.897	291.84
584.32	352.69
584.742	296.52
585.165	340.99
585.587	261.41
586.009	268.43
586.431	219.28
586.854	294.18
587.276	298.86
587.698	352.69
588.12	308.22
588.542	280.13
588.964	294.18
589.386	333.97
589.807	298.86
590.229	310.56
590.651	277.79
591.073	256.73
591.494	345.67
591.916	291.84
592.337	315.24
592.759	219.28
593.18	336.31
593.601	282.47
594.022	310.56
594.444	266.09
594.865	200.55
595.286	329.28
595.707	319.92
596.128	352.69
596.549	303.54
596.97	270.77
597.39	315.24
597.811	245.02
598.232	261.41
598.652	228.64
599.073	301.2
599.494	312.9
599.914	282.47
600.334	268.43
600.755	242.68
601.175	259.07
601.595	289.5
602.015	315.24
602.436	298.86
602.856	427.59
603.276	340.99
603.696	380.78
604.115	312.9
604.535	301.2
604.955	322.26
605.375	326.94
605.794	312.9
606.214	336.31
606.634	329.28
607.053	312.9
607.473	254.39
607.892	345.67
608.311	338.65
608.731	221.62
609.15	312.9
609.569	277.79
609.988	249.71
610.407	352.69
610.826	322.26
611.245	247.37
611.664	378.44
612.083	322.26
612.501	298.86
612.92	284.81
613.339	270.77
613.757	378.44
614.176	280.13
614.594	305.88
615.013	303.54
615.431	333.97
615.85	355.03
616.268	348.01
616.686	280.13
617.104	289.5
617.522	322.26
617.94	249.71
618.358	221.62
618.776	324.6
619.194	319.92
619.612	317.58
620.03	298.86
620.447	233.32
620.865	355.03
621.282	319.92
621.7	315.24
622.117	263.75
622.535	324.6
622.952	343.33
623.369	296.52
623.787	350.35
624.204	329.28
624.621	266.09
625.038	312.9
625.455	331.62
625.872	303.54
626.289	282.47
626.706	256.73
627.123	312.9
627.539	312.9
627.956	336.31
628.373	305.88
628.789	312.9
629.206	350.35
629.622	345.67
630.038	319.92
630.455	252.05
630.871	266.09
631.287	280.13
631.703	259.07
632.12	291.84
632.536	268.43
632.952	308.22
633.368	324.6
633.783	252.05
634.199	291.84
634.615	322.26
635.031	348.01
635.446	312.9
635.862	291.84
636.277	319.92
636.693	303.54
637.108	305.88
637.524	392.48
637.939	329.28
638.354	277.79
638.77	284.81
639.185	303.54
639.6	371.41
640.015	343.33
640.43	280.13
640.845	266.09
641.259	322.26
641.674	284.81
642.089	284.81
642.504	305.88
642.918	303.54
643.333	270.77
643.747	336.31
644.162	308.22
644.576	331.62
644.991	275.45
645.405	226.3
645.819	329.28
646.233	268.43
646.647	289.5
647.061	331.62
647.475	263.75
647.889	305.88
648.303	284.81
648.717	282.47
649.131	298.86
649.545	249.71
649.958	252.05
650.372	308.22
650.785	324.6
651.199	319.92
651.612	270.77
652.026	282.47
652.439	277.79
652.852	294.18
653.266	315.24
653.679	287.15
654.092	287.15
654.505	326.94
654.918	247.37
655.331	270.77
655.744	336.31
656.156	266.09
656.569	333.97
656.982	331.62
657.394	301.2
657.807	338.65
658.22	331.62
658.632	280.13
659.044	317.58
659.457	394.82
659.869	282.47
660.281	317.58
660.693	301.2
661.106	362.05
661.518	324.6
661.93	305.88
662.342	362.05
662.754	319.92
663.165	289.5
663.577	303.54
663.989	261.41
664.401	294.18
664.812	291.84
665.224	291.84
665.635	266.09
666.047	268.43
666.458	256.73
666.869	343.33
667.281	329.28
667.692	289.5
668.103	317.58
668.514	275.45
668.925	298.86
669.336	338.65
669.747	263.75
670.158	305.88
670.569	284.81
670.979	287.15
671.39	338.65
671.801	268.43
672.211	284.81
672.622	252.05
673.032	317.58
673.443	352.69
673.853	303.54
674.263	326.94
674.674	245.02
675.084	296.52
675.494	340.99
675.904	261.41
676.314	305.88
676.724	305.88
677.134	284.81
677.544	340.99
677.953	329.28
678.363	364.39
678.773	322.26
679.182	331.62
679.592	312.9
680.001	305.88
680.411	287.15
680.82	298.86
681.23	280.13
681.639	317.58
682.048	294.18
682.457	289.5
682.866	333.97
683.275	301.2
683.684	277.79
684.093	345.67
684.502	287.15
684.911	289.5
685.32	282.47
685.728	317.58
686.137	380.78
686.546	270.77
686.954	249.71
687.363	296.52
687.771	273.11
688.179	303.54
688.588	305.88
688.996	317.58
689.404	261.41
689.812	315.24
690.22	312.9
690.628	275.45
691.036	305.88
691.444	357.37
691.852	275.45
692.26	294.18
692.667	312.9
693.075	284.81
693.483	324.6
693.89	275.45
694.298	261.41
694.705	294.18
695.112	294.18
695.52	308.22
695.927	294.18
696.334	291.84
696.741	261.41
697.148	270.77
697.555	282.47
697.962	317.58
698.369	249.71
698.776	338.65
699.183	296.52
699.59	296.52
699.996	301.2
700.403	350.35
700.81	338.65
701.216	298.86
701.623	331.62
702.029	263.75
702.435	298.86
702.842	338.65
703.248	315.24
703.654	308.22
704.06	254.39
704.466	301.2
704.872	310.56
705.278	322.26
705.684	291.84
706.09	230.98
706.496	310.56
706.901	263.75
707.307	228.64
707.712	254.39
708.118	331.62
708.523	357.37
708.929	348.01
709.334	280.13
709.74	343.33
710.145	289.5
710.55	348.01
710.955	310.56
711.36	319.92
711.765	340.99
712.17	305.88
712.575	329.28
712.98	797.39
713.385	315.24
713.789	383.12
714.194	294.18
714.599	301.2
715.003	268.43
715.408	350.35
715.812	263.75
716.217	326.94
716.621	338.65
717.025	312.9
717.429	312.9
717.833	273.11
718.238	315.24
718.642	268.43
719.046	383.12
719.449	308.22
719.853	277.79
720.257	261.41
720.661	331.62
721.065	230.98
721.468	310.56
721.872	256.73
722.275	273.11
722.679	270.77
723.082	294.18
723.485	362.05
723.889	294.18
724.292	329.28
724.695	254.39
725.098	340.99
725.501	312.9
725.904	266.09
726.307	343.33
726.71	273.11
727.113	270.77
727.516	298.86
727.918	280.13
728.321	256.73
728.724	329.28
729.126	273.11
729.529	259.07
729.931	310.56
730.333	298.86
730.736	310.56
731.138	296.52
731.54	289.5
731.942	319.92
732.344	240.34
732.746	305.88
733.148	284.81
733.55	315.24
733.952	245.02
734.354	275.45
734.756	228.64
735.157	280.13
735.559	303.54
735.96	305.88
736.362	303.54
736.763	317.58
737.165	277.79
737.566	289.5
737.967	317.58
738.368	373.75
738.77	310.56
739.171	280.13
739.572	343.33
739.973	287.15
740.374	329.28
740.774	366.73
741.175	263.75
741.576	340.99
741.977	275.45
742.377	291.84
742.778	268.43
743.178	301.2
743.579	289.5
743.979	373.75
744.379	301.2
744.78	233.32
745.18	343.33
745.58	259.07
745.98	291.84
746.38	343.33
746.78	310.56
747.18	256.73
747.58	289.5
747.98	282.47
748.38	359.71
748.779	277.79
749.179	289.5
749.578	352.69
749.978	268.43
750.377	294.18
750.777	294.18
751.176	319.92
751.575	252.05
751.975	275.45
752.374	252.05
752.773	247.37
753.172	254.39
753.571	245.02
753.97	331.62
754.369	259.07
754.768	326.94
755.166	273.11
755.565	315.24
755.964	322.26
756.362	294.18
756.761	245.02
757.159	310.56
757.558	303.54
757.956	336.31
758.354	326.94
758.753	282.47
759.151	324.6
759.549	308.22
759.947	277.79
760.345	277.79
760.743	310.56
761.141	355.03
761.539	277.79
761.936	359.71
762.334	345.67
762.732	291.84
763.129	305.88
763.527	326.94
763.924	275.45
764.322	245.02
764.719	287.15
765.117	350.35
765.514	268.43
