Data from Al_FLMS009871__636__14-49-13-412.txt Node

Date: Fri Mar 08 14:49:13 CST 2024
User: pe5414po
Spectrometer: FLMS00987
Trigger mode: 0
Integration Time (sec): 1.000000E-1
Scans to average: 1
Electric dark correction enabled: true
Nonlinearity correction enabled: false
Boxcar width: 0
XAxis mode: Wavelengths
Number of Pixels in Spectrum: 2048
>>>>>Begin Spectral Data<<<<<
188.938	-102.98
189.409	-102.98
189.879	-102.98
190.349	-98.3
190.819	-110.01
191.29	-140.43
191.76	-81.92
192.23	-77.24
192.7	-77.24
193.17	-95.96
193.64	18.72
194.109	-39.79
194.579	-60.85
195.049	14.04
195.519	46.81
195.988	98.3
196.458	9.36
196.927	63.19
197.397	86.6
197.866	98.3
198.336	138.09
198.805	93.62
199.274	159.16
199.744	227.03
200.213	184.9
200.682	173.2
201.151	187.24
201.62	191.92
202.089	250.44
202.558	276.18
203.027	259.8
203.495	191.92
203.964	269.16
204.433	262.14
204.902	283.2
205.37	313.63
205.839	250.44
206.307	318.31
206.776	341.72
207.244	250.44
207.712	297.25
208.181	276.18
208.649	355.76
209.117	292.57
209.585	341.72
210.053	294.91
210.521	297.25
210.989	285.55
211.457	301.93
211.925	227.03
212.393	330.02
212.861	285.55
213.328	273.84
213.796	358.1
214.264	189.58
214.731	362.78
215.199	278.52
215.666	227.03
216.133	287.89
216.601	273.84
217.068	234.05
217.535	271.5
218.003	297.25
218.47	299.59
218.937	306.61
219.404	285.55
219.871	196.6
220.338	285.55
220.805	266.82
221.271	215.33
221.738	250.44
222.205	220.01
222.671	297.25
223.138	259.8
223.605	262.14
224.071	252.78
224.538	222.35
225.004	266.82
225.47	238.73
225.937	224.69
226.403	215.33
226.869	294.91
227.335	227.03
227.801	297.25
228.267	201.29
228.733	271.5
229.199	259.8
229.665	301.93
230.131	234.05
230.597	273.84
231.062	290.23
231.528	280.86
231.994	292.57
232.459	234.05
232.925	306.61
233.39	280.86
233.856	229.37
234.321	250.44
234.786	290.23
235.252	276.18
235.717	304.27
236.182	269.16
236.647	257.46
237.112	290.23
237.577	264.48
238.042	278.52
238.507	290.23
238.972	367.46
239.436	262.14
239.901	231.71
240.366	252.78
240.83	201.29
241.295	283.2
241.76	262.14
242.224	290.23
242.688	308.95
243.153	278.52
243.617	311.29
244.081	294.91
244.545	299.59
245.01	327.67
245.474	355.76
245.938	330.02
246.402	297.25
246.866	187.24
247.33	304.27
247.793	304.27
248.257	255.12
248.721	271.5
249.185	243.42
249.648	269.16
250.112	269.16
250.575	283.2
251.039	248.1
251.502	285.55
251.965	252.78
252.429	276.18
252.892	339.38
253.355	325.33
253.818	255.12
254.281	257.46
254.744	297.25
255.207	339.38
255.67	285.55
256.133	311.29
256.596	334.7
257.059	318.31
257.522	325.33
257.984	367.46
258.447	245.76
258.909	248.1
259.372	276.18
259.834	266.82
260.297	278.52
260.759	292.57
261.221	283.2
261.684	273.84
262.146	273.84
262.608	271.5
263.07	315.97
263.532	297.25
263.994	353.42
264.456	315.97
264.918	308.95
265.38	299.59
265.842	280.86
266.303	285.55
266.765	285.55
267.227	294.91
267.688	276.18
268.15	238.73
268.611	255.12
269.072	283.2
269.534	297.25
269.995	306.61
270.456	273.84
270.918	334.7
271.379	287.89
271.84	266.82
272.301	318.31
272.762	245.76
273.223	332.36
273.684	276.18
274.144	287.89
274.605	290.23
275.066	212.99
275.527	315.97
275.987	306.61
276.448	332.36
276.908	332.36
277.369	294.91
277.829	308.95
278.289	299.59
278.75	334.7
279.21	344.06
279.67	283.2
280.13	266.82
280.59	280.86
281.05	262.14
281.51	327.67
281.97	222.35
282.43	306.61
282.89	341.72
283.35	262.14
283.809	313.63
284.269	322.99
284.729	351.08
285.188	292.57
285.648	327.67
286.107	344.06
286.567	264.48
287.026	283.2
287.485	273.84
287.944	304.27
288.404	304.27
288.863	217.67
289.322	390.87
289.781	330.02
290.24	320.65
290.699	325.33
291.158	301.93
291.616	285.55
292.075	278.52
292.534	278.52
292.992	294.91
293.451	315.97
293.91	292.57
294.368	355.76
294.827	276.18
295.285	315.97
295.743	257.46
296.202	236.39
296.66	252.78
297.118	245.76
297.576	322.99
298.034	297.25
298.492	241.08
298.95	346.4
299.408	320.65
299.866	372.15
300.324	280.86
300.781	346.4
301.239	290.23
301.697	297.25
302.154	327.67
302.612	285.55
303.069	337.04
303.527	299.59
303.984	257.46
304.441	257.46
304.899	255.12
305.356	294.91
305.813	304.27
306.27	278.52
306.727	353.42
307.184	325.33
307.641	250.44
308.098	325.33
308.555	341.72
309.012	313.63
309.468	322.99
309.925	327.67
310.382	355.76
310.838	227.03
311.295	278.52
311.751	287.89
312.208	243.42
312.664	248.1
313.12	315.97
313.577	346.4
314.033	215.33
314.489	360.44
314.945	339.38
315.401	337.04
315.857	337.04
316.313	304.27
316.769	245.76
317.225	330.02
317.681	262.14
318.136	262.14
318.592	301.93
319.048	320.65
319.503	330.02
319.959	294.91
320.414	388.53
320.869	315.97
321.325	297.25
321.78	315.97
322.235	367.46
322.691	292.57
323.146	318.31
323.601	299.59
324.056	351.08
324.511	339.38
324.966	311.29
325.421	262.14
325.875	332.36
326.33	325.33
326.785	283.2
327.24	330.02
327.694	257.46
328.149	283.2
328.603	271.5
329.058	283.2
329.512	273.84
329.966	278.52
330.421	315.97
330.875	341.72
331.329	301.93
331.783	311.29
332.237	304.27
332.691	257.46
333.145	278.52
333.599	292.57
334.053	334.7
334.507	255.12
334.96	273.84
335.414	276.18
335.868	334.7
336.321	341.72
336.775	264.48
337.228	306.61
337.682	320.65
338.135	299.59
338.588	264.48
339.042	278.52
339.495	346.4
339.948	315.97
340.401	285.55
340.854	287.89
341.307	304.27
341.76	388.53
342.213	346.4
342.666	287.89
343.119	332.36
343.571	334.7
344.024	245.76
344.477	266.82
344.929	355.76
345.382	301.93
345.834	332.36
346.287	334.7
346.739	334.7
347.191	290.23
347.644	315.97
348.096	358.1
348.548	397.89
349	304.27
349.452	337.04
349.904	322.99
350.356	292.57
350.808	334.7
351.26	311.29
351.711	308.95
352.163	344.06
352.615	311.29
353.066	318.31
353.518	353.42
353.969	276.18
354.421	308.95
354.872	278.52
355.324	337.04
355.775	355.76
356.226	334.7
356.677	322.99
357.128	332.36
357.579	346.4
358.03	248.1
358.481	313.63
358.932	348.74
359.383	255.12
359.834	318.31
360.285	344.06
360.735	334.7
361.186	287.89
361.637	376.83
362.087	337.04
362.538	374.49
362.988	346.4
363.438	318.31
363.889	325.33
364.339	327.67
364.789	327.67
365.239	294.91
365.689	299.59
366.139	299.59
366.589	276.18
367.039	304.27
367.489	353.42
367.939	337.04
368.389	290.23
368.839	273.84
369.288	287.89
369.738	304.27
370.187	276.18
370.637	257.46
371.086	306.61
371.536	304.27
371.985	297.25
372.434	325.33
372.884	348.74
373.333	252.78
373.782	353.42
374.231	346.4
374.68	290.23
375.129	311.29
375.578	262.14
376.027	318.31
376.475	280.86
376.924	266.82
377.373	287.89
377.822	332.36
378.27	294.91
378.719	266.82
379.167	306.61
379.616	369.8
380.064	315.97
380.512	292.57
380.961	311.29
381.409	337.04
381.857	292.57
382.305	299.59
382.753	325.33
383.201	297.25
383.649	355.76
384.097	301.93
384.545	252.78
384.992	379.17
385.44	318.31
385.888	346.4
386.335	320.65
386.783	285.55
387.231	353.42
387.678	351.08
388.125	337.04
388.573	386.19
389.02	283.2
389.467	355.76
389.914	330.02
390.362	285.55
390.809	278.52
391.256	287.89
391.703	308.95
392.15	301.93
392.596	325.33
393.043	257.46
393.49	318.31
393.937	304.27
394.383	315.97
394.83	304.27
395.276	339.38
395.723	327.67
396.169	315.97
396.616	360.44
397.062	315.97
397.508	297.25
397.954	304.27
398.401	257.46
398.847	278.52
399.293	308.95
399.739	318.31
400.185	334.7
400.631	306.61
401.076	276.18
401.522	248.1
401.968	304.27
402.414	271.5
402.859	322.99
403.305	292.57
403.75	395.55
404.196	330.02
404.641	369.8
405.086	325.33
405.532	325.33
405.977	320.65
406.422	409.59
406.867	344.06
407.312	299.59
407.757	327.67
408.202	301.93
408.647	280.86
409.092	332.36
409.537	379.17
409.982	346.4
410.426	269.16
410.871	304.27
411.316	283.2
411.76	264.48
412.205	379.17
412.649	262.14
413.093	297.25
413.538	283.2
413.982	269.16
414.426	353.42
414.87	313.63
415.314	285.55
415.758	325.33
416.202	346.4
416.646	318.31
417.09	311.29
417.534	325.33
417.978	313.63
418.421	271.5
418.865	341.72
419.309	287.89
419.752	327.67
420.196	376.83
420.639	299.59
421.083	376.83
421.526	332.36
421.969	337.04
422.412	358.1
422.856	294.91
423.299	315.97
423.742	306.61
424.185	299.59
424.628	353.42
425.071	283.2
425.513	271.5
425.956	285.55
426.399	248.1
426.842	294.91
427.284	278.52
427.727	332.36
428.169	339.38
428.612	320.65
429.054	301.93
429.497	308.95
429.939	325.33
430.381	334.7
430.823	311.29
431.265	325.33
431.707	271.5
432.149	365.12
432.591	327.67
433.033	250.44
433.475	341.72
433.917	322.99
434.359	308.95
434.8	360.44
435.242	337.04
435.684	301.93
436.125	344.06
436.567	379.17
437.008	273.84
437.449	271.5
437.891	297.25
438.332	304.27
438.773	325.33
439.214	339.38
439.656	322.99
440.097	304.27
440.538	292.57
440.978	299.59
441.419	372.15
441.86	292.57
442.301	287.89
442.742	241.08
443.182	285.55
443.623	360.44
444.063	353.42
444.504	290.23
444.944	341.72
445.385	311.29
445.825	348.74
446.265	332.36
446.706	318.31
447.146	306.61
447.586	292.57
448.026	344.06
448.466	297.25
448.906	379.17
449.346	365.12
449.786	330.02
450.225	337.04
450.665	332.36
451.105	292.57
451.544	337.04
451.984	325.33
452.424	290.23
452.863	306.61
453.302	264.48
453.742	327.67
454.181	341.72
454.62	327.67
455.059	304.27
455.499	330.02
455.938	337.04
456.377	292.57
456.816	332.36
457.254	390.87
457.693	344.06
458.132	402.57
458.571	287.89
459.01	344.06
459.448	332.36
459.887	379.17
460.325	416.62
460.764	299.59
461.202	355.76
461.641	301.93
462.079	301.93
462.517	315.97
462.955	435.34
463.393	318.31
463.832	301.93
464.27	273.84
464.708	266.82
465.145	278.52
465.583	346.4
466.021	372.15
466.459	306.61
466.897	325.33
467.334	294.91
467.772	313.63
468.209	308.95
468.647	290.23
469.084	304.27
469.522	348.74
469.959	348.74
470.396	304.27
470.833	322.99
471.271	325.33
471.708	292.57
472.145	353.42
472.582	353.42
473.019	292.57
473.456	248.1
473.892	241.08
474.329	332.36
474.766	332.36
475.202	255.12
475.639	273.84
476.076	346.4
476.512	297.25
476.949	292.57
477.385	339.38
477.821	250.44
478.258	285.55
478.694	299.59
479.13	330.02
479.566	358.1
480.002	346.4
480.438	372.15
480.874	322.99
481.31	315.97
481.746	395.55
482.181	299.59
482.617	299.59
483.053	339.38
483.488	243.42
483.924	259.8
484.36	346.4
484.795	276.18
485.23	241.08
485.666	341.72
486.101	360.44
486.536	280.86
486.971	301.93
487.407	337.04
487.842	334.7
488.277	339.38
488.712	341.72
489.146	297.25
489.581	299.59
490.016	313.63
490.451	259.8
490.885	278.52
491.32	351.08
491.755	360.44
492.189	306.61
492.624	280.86
493.058	290.23
493.492	287.89
493.927	301.93
494.361	332.36
494.795	365.12
495.229	332.36
495.663	299.59
496.097	297.25
496.531	269.16
496.965	379.17
497.399	325.33
497.833	308.95
498.266	360.44
498.7	337.04
499.134	348.74
499.567	290.23
500.001	299.59
500.434	372.15
500.868	346.4
501.301	367.46
501.734	318.31
502.168	341.72
502.601	322.99
503.034	337.04
503.467	320.65
503.9	313.63
504.333	390.87
504.766	362.78
505.199	276.18
505.632	344.06
506.064	311.29
506.497	285.55
506.93	355.76
507.362	344.06
507.795	421.3
508.227	344.06
508.66	311.29
509.092	341.72
509.524	290.23
509.956	304.27
510.389	318.31
510.821	320.65
511.253	325.33
511.685	388.53
512.117	278.52
512.549	346.4
512.981	372.15
513.412	337.04
513.844	250.44
514.276	304.27
514.707	318.31
515.139	308.95
515.571	369.8
516.002	290.23
516.433	353.42
516.865	369.8
517.296	332.36
517.727	315.97
518.159	285.55
518.59	322.99
519.021	390.87
519.452	334.7
519.883	294.91
520.314	283.2
520.744	367.46
521.175	257.46
521.606	360.44
522.037	390.87
522.467	348.74
522.898	362.78
523.328	344.06
523.759	376.83
524.189	327.67
524.62	334.7
525.05	262.14
525.48	346.4
525.91	269.16
526.341	308.95
526.771	266.82
527.201	299.59
527.631	252.78
528.061	327.67
528.49	262.14
528.92	320.65
529.35	355.76
529.78	313.63
530.209	313.63
530.639	374.49
531.068	259.8
531.498	285.55
531.927	353.42
532.357	283.2
532.786	318.31
533.215	280.86
533.644	353.42
534.074	318.31
534.503	264.48
534.932	327.67
535.361	346.4
535.79	280.86
536.218	351.08
536.647	344.06
537.076	262.14
537.505	276.18
537.933	308.95
538.362	292.57
538.79	318.31
539.219	294.91
539.647	334.7
540.076	374.49
540.504	395.55
540.932	299.59
541.36	353.42
541.788	276.18
542.217	351.08
542.645	334.7
543.073	322.99
543.5	280.86
543.928	283.2
544.356	334.7
544.784	327.67
545.211	330.02
545.639	341.72
546.067	344.06
546.494	318.31
546.922	308.95
547.349	306.61
547.776	320.65
548.204	313.63
548.631	313.63
549.058	304.27
549.485	337.04
549.912	344.06
550.339	315.97
550.766	297.25
551.193	344.06
551.62	332.36
552.047	280.86
552.474	308.95
552.9	332.36
553.327	285.55
553.754	255.12
554.18	327.67
554.607	327.67
555.033	301.93
555.459	306.61
555.886	320.65
556.312	351.08
556.738	346.4
557.164	301.93
557.59	341.72
558.016	339.38
558.442	362.78
558.868	341.72
559.294	339.38
559.72	301.93
560.145	269.16
560.571	327.67
560.997	273.84
561.422	315.97
561.848	334.7
562.273	290.23
562.699	257.46
563.124	330.02
563.549	313.63
563.974	285.55
564.4	365.12
564.825	334.7
565.25	348.74
565.675	297.25
566.1	278.52
566.525	280.86
566.95	224.69
567.374	339.38
567.799	332.36
568.224	327.67
568.648	299.59
569.073	322.99
569.497	358.1
569.922	255.12
570.346	308.95
570.771	346.4
571.195	325.33
571.619	348.74
572.043	339.38
572.467	313.63
572.891	332.36
573.315	299.59
573.739	348.74
574.163	311.29
574.587	344.06
575.011	278.52
575.435	290.23
575.858	367.46
576.282	306.61
576.705	313.63
577.129	276.18
577.552	299.59
577.976	283.2
578.399	337.04
578.822	283.2
579.245	330.02
579.669	341.72
580.092	264.48
580.515	285.55
580.938	320.65
581.361	301.93
581.784	283.2
582.206	344.06
582.629	311.29
583.052	278.52
583.474	269.16
583.897	231.71
584.32	304.27
584.742	283.2
585.165	332.36
585.587	346.4
586.009	332.36
586.431	325.33
586.854	353.42
587.276	344.06
587.698	341.72
588.12	311.29
588.542	365.12
588.964	294.91
589.386	280.86
589.807	334.7
590.229	334.7
590.651	327.67
591.073	353.42
591.494	266.82
591.916	280.86
592.337	294.91
592.759	262.14
593.18	294.91
593.601	283.2
594.022	351.08
594.444	292.57
594.865	313.63
595.286	259.8
595.707	339.38
596.128	315.97
596.549	330.02
596.97	339.38
597.39	238.73
597.811	315.97
598.232	271.5
598.652	245.76
599.073	362.78
599.494	330.02
599.914	252.78
600.334	327.67
600.755	311.29
601.175	318.31
601.595	376.83
602.015	266.82
602.436	294.91
602.856	475.13
603.276	276.18
603.696	344.06
604.115	344.06
604.535	273.84
604.955	299.59
605.375	348.74
605.794	332.36
606.214	318.31
606.634	358.1
607.053	332.36
607.473	292.57
607.892	278.52
608.311	327.67
608.731	367.46
609.15	292.57
609.569	325.33
609.988	318.31
610.407	280.86
610.826	330.02
611.245	325.33
611.664	294.91
612.083	332.36
612.501	346.4
612.92	227.03
613.339	355.76
613.757	315.97
614.176	362.78
614.594	397.89
615.013	278.52
615.431	374.49
615.85	308.95
616.268	271.5
616.686	311.29
617.104	285.55
617.522	313.63
617.94	402.57
618.358	360.44
618.776	278.52
619.194	320.65
619.612	311.29
620.03	304.27
620.447	306.61
620.865	313.63
621.282	287.89
621.7	259.8
622.117	344.06
622.535	332.36
622.952	353.42
623.369	248.1
623.787	369.8
624.204	252.78
624.621	269.16
625.038	304.27
625.455	353.42
625.872	367.46
626.289	369.8
626.706	294.91
627.123	311.29
627.539	346.4
627.956	367.46
628.373	358.1
628.789	269.16
629.206	339.38
629.622	313.63
630.038	344.06
630.455	301.93
630.871	318.31
631.287	376.83
631.703	311.29
632.12	327.67
632.536	348.74
632.952	355.76
633.368	287.89
633.783	292.57
634.199	308.95
634.615	325.33
635.031	294.91
635.446	280.86
635.862	311.29
636.277	337.04
636.693	294.91
637.108	315.97
637.524	318.31
637.939	315.97
638.354	308.95
638.77	297.25
639.185	280.86
639.6	374.49
640.015	341.72
640.43	313.63
640.845	280.86
641.259	290.23
641.674	365.12
642.089	292.57
642.504	353.42
642.918	355.76
643.333	355.76
643.747	318.31
644.162	259.8
644.576	374.49
644.991	379.17
645.405	360.44
645.819	369.8
646.233	313.63
646.647	365.12
647.061	348.74
647.475	344.06
647.889	306.61
648.303	306.61
648.717	224.69
649.131	367.46
649.545	304.27
649.958	299.59
650.372	360.44
650.785	276.18
651.199	311.29
651.612	362.78
652.026	383.85
652.439	348.74
652.852	250.44
653.266	306.61
653.679	346.4
654.092	304.27
654.505	358.1
654.918	322.99
655.331	262.14
655.744	341.72
656.156	297.25
656.569	320.65
656.982	344.06
657.394	285.55
657.807	297.25
658.22	285.55
658.632	301.93
659.044	327.67
659.457	325.33
659.869	383.85
660.281	358.1
660.693	273.84
661.106	322.99
661.518	411.93
661.93	308.95
662.342	325.33
662.754	255.12
663.165	358.1
663.577	313.63
663.989	351.08
664.401	313.63
664.812	334.7
665.224	283.2
665.635	339.38
666.047	283.2
666.458	320.65
666.869	360.44
667.281	301.93
667.692	315.97
668.103	362.78
668.514	301.93
668.925	320.65
669.336	273.84
669.747	351.08
670.158	266.82
670.569	301.93
670.979	395.55
671.39	311.29
671.801	320.65
672.211	348.74
672.622	339.38
673.032	287.89
673.443	325.33
673.853	264.48
674.263	334.7
674.674	278.52
675.084	332.36
675.494	252.78
675.904	325.33
676.314	346.4
676.724	276.18
677.134	301.93
677.544	224.69
677.953	341.72
678.363	360.44
678.773	315.97
679.182	372.15
679.592	262.14
680.001	334.7
680.411	287.89
680.82	280.86
681.23	318.31
681.639	365.12
682.048	322.99
682.457	313.63
682.866	318.31
683.275	327.67
683.684	337.04
684.093	315.97
684.502	297.25
684.911	252.78
685.32	285.55
685.728	248.1
686.137	304.27
686.546	280.86
686.954	299.59
687.363	297.25
687.771	287.89
688.179	339.38
688.588	351.08
688.996	337.04
689.404	318.31
689.812	308.95
690.22	325.33
690.628	325.33
691.036	313.63
691.444	304.27
691.852	327.67
692.26	304.27
692.667	313.63
693.075	315.97
693.483	315.97
693.89	308.95
694.298	283.2
694.705	292.57
695.112	304.27
695.52	360.44
695.927	313.63
696.334	283.2
696.741	287.89
697.148	264.48
697.555	292.57
697.962	306.61
698.369	255.12
698.776	304.27
699.183	325.33
699.59	315.97
699.996	322.99
700.403	273.84
700.81	269.16
701.216	374.49
701.623	346.4
702.029	297.25
702.435	320.65
702.842	294.91
703.248	322.99
703.654	322.99
704.06	313.63
704.466	344.06
704.872	325.33
705.278	287.89
705.684	301.93
706.09	344.06
706.496	318.31
706.901	308.95
707.307	318.31
707.712	297.25
708.118	252.78
708.523	332.36
708.929	355.76
709.334	351.08
709.74	327.67
710.145	369.8
710.55	283.2
710.955	318.31
711.36	255.12
711.765	304.27
712.17	348.74
712.575	269.16
712.98	851.95
713.385	395.55
713.789	292.57
714.194	395.55
714.599	266.82
715.003	290.23
715.408	287.89
715.812	330.02
716.217	306.61
716.621	287.89
717.025	355.76
717.429	304.27
717.833	344.06
718.238	322.99
718.642	304.27
719.046	313.63
719.449	372.15
719.853	299.59
720.257	287.89
720.661	325.33
721.065	245.76
721.468	294.91
721.872	397.89
722.275	346.4
722.679	276.18
723.082	301.93
723.485	287.89
723.889	330.02
724.292	304.27
724.695	334.7
725.098	381.51
725.501	337.04
725.904	301.93
726.307	301.93
726.71	337.04
727.113	313.63
727.516	308.95
727.918	330.02
728.321	330.02
728.724	360.44
729.126	273.84
729.529	374.49
729.931	320.65
730.333	311.29
730.736	339.38
731.138	311.29
731.54	243.42
731.942	287.89
732.344	344.06
732.746	241.08
733.148	259.8
733.55	271.5
733.952	322.99
734.354	313.63
734.756	322.99
735.157	322.99
735.559	327.67
735.96	287.89
736.362	339.38
736.763	301.93
737.165	344.06
737.566	360.44
737.967	346.4
738.368	311.29
738.77	344.06
739.171	337.04
739.572	348.74
739.973	346.4
740.374	283.2
740.774	285.55
741.175	313.63
741.576	334.7
741.977	290.23
742.377	334.7
742.778	264.48
743.178	320.65
743.579	322.99
743.979	327.67
744.379	285.55
744.78	292.57
745.18	297.25
745.58	311.29
745.98	318.31
746.38	287.89
746.78	283.2
747.18	285.55
747.58	339.38
747.98	337.04
748.38	308.95
748.779	278.52
749.179	236.39
749.578	381.51
749.978	285.55
750.377	351.08
750.777	276.18
751.176	273.84
751.575	322.99
751.975	358.1
752.374	292.57
752.773	330.02
753.172	306.61
753.571	259.8
753.97	297.25
754.369	362.78
754.768	320.65
755.166	374.49
755.565	327.67
755.964	351.08
756.362	294.91
756.761	358.1
757.159	304.27
757.558	351.08
757.956	330.02
758.354	372.15
758.753	339.38
759.151	344.06
759.549	339.38
759.947	269.16
760.345	308.95
760.743	250.44
761.141	252.78
761.539	287.89
761.936	322.99
762.334	341.72
762.732	341.72
763.129	271.5
763.527	266.82
763.924	334.7
764.322	344.06
764.719	325.33
765.117	257.46
765.514	311.29
