Data from Al_FLMS009871__635__14-49-13-312.txt Node

Date: Fri Mar 08 14:49:13 CST 2024
User: pe5414po
Spectrometer: FLMS00987
Trigger mode: 0
Integration Time (sec): 1.000000E-1
Scans to average: 1
Electric dark correction enabled: true
Nonlinearity correction enabled: false
Boxcar width: 0
XAxis mode: Wavelengths
Number of Pixels in Spectrum: 2048
>>>>>Begin Spectral Data<<<<<
188.938	-96.55
189.409	-96.55
189.879	-96.55
190.349	-124.63
190.819	-141.02
191.29	-87.18
191.76	-129.31
192.23	-119.95
192.7	-91.87
193.17	-31.01
193.64	6.44
194.109	-23.99
194.579	-47.4
195.049	-19.31
195.519	43.89
195.988	71.97
196.458	55.59
196.927	20.48
197.397	95.38
197.866	179.64
198.336	76.65
198.805	193.68
199.274	167.93
199.744	181.98
200.213	130.48
200.682	172.61
201.151	226.45
201.62	254.53
202.089	299
202.558	203.04
203.027	214.74
203.495	336.45
203.964	224.11
204.433	235.81
204.902	282.62
205.37	235.81
205.839	324.75
206.307	329.43
206.776	313.05
207.244	308.37
207.712	317.73
208.181	259.21
208.649	284.96
209.117	280.28
209.585	324.75
210.053	310.71
210.521	291.98
210.989	327.09
211.457	338.79
211.925	306.03
212.393	299
212.861	289.64
213.328	268.58
213.796	313.05
214.264	348.15
214.731	324.75
215.199	277.94
215.666	249.85
216.133	242.83
216.601	247.51
217.068	310.71
217.535	245.17
218.003	231.13
218.47	287.3
218.937	289.64
219.404	266.24
219.871	275.6
220.338	291.98
220.805	240.49
221.271	282.62
221.738	256.87
222.205	252.19
222.671	266.24
223.138	203.04
223.605	210.06
224.071	242.83
224.538	221.77
225.004	303.68
225.47	306.03
225.937	299
226.403	329.43
226.869	306.03
227.335	261.55
227.801	315.39
228.267	231.13
228.733	280.28
229.199	287.3
229.665	259.21
230.131	296.66
230.597	249.85
231.062	240.49
231.528	263.9
231.994	189
232.459	263.9
232.925	310.71
233.39	221.77
233.856	252.19
234.321	299
234.786	313.05
235.252	266.24
235.717	245.17
236.182	301.34
236.647	254.53
237.112	284.96
237.577	275.6
238.042	289.64
238.507	275.6
238.972	238.15
239.436	238.15
239.901	294.32
240.366	291.98
240.83	256.87
241.295	275.6
241.76	289.64
242.224	233.47
242.688	280.28
243.153	331.77
243.617	252.19
244.081	240.49
244.545	287.3
245.01	277.94
245.474	317.73
245.938	334.11
246.402	291.98
246.866	366.88
247.33	245.17
247.793	263.9
248.257	324.75
248.721	275.6
249.185	331.77
249.648	280.28
250.112	322.41
250.575	320.07
251.039	303.68
251.502	256.87
251.965	231.13
252.429	317.73
252.892	289.64
253.355	289.64
253.818	266.24
254.281	320.07
254.744	324.75
255.207	245.17
255.67	254.53
256.133	341.13
256.596	242.83
257.059	203.04
257.522	299
257.984	341.13
258.447	317.73
258.909	338.79
259.372	310.71
259.834	273.26
260.297	303.68
260.759	329.43
261.221	242.83
261.684	322.41
262.146	355.18
262.608	280.28
263.07	345.81
263.532	301.34
263.994	383.26
264.456	324.75
264.918	291.98
265.38	366.88
265.842	266.24
266.303	193.68
266.765	306.03
267.227	252.19
267.688	270.92
268.15	270.92
268.611	254.53
269.072	296.66
269.534	282.62
269.995	277.94
270.456	263.9
270.918	284.96
271.379	287.3
271.84	266.24
272.301	306.03
272.762	275.6
273.223	261.55
273.684	277.94
274.144	341.13
274.605	273.26
275.066	303.68
275.527	249.85
275.987	296.66
276.448	299
276.908	299
277.369	299
277.829	263.9
278.289	320.07
278.75	306.03
279.21	310.71
279.67	343.47
280.13	233.47
280.59	289.64
281.05	273.26
281.51	247.51
281.97	329.43
282.43	334.11
282.89	306.03
283.35	345.81
283.809	284.96
284.269	303.68
284.729	296.66
285.188	315.39
285.648	268.58
286.107	299
286.567	317.73
287.026	310.71
287.485	282.62
287.944	324.75
288.404	306.03
288.863	376.24
289.322	266.24
289.781	224.11
290.24	245.17
290.699	315.39
291.158	345.81
291.616	308.37
292.075	287.3
292.534	345.81
292.992	371.56
293.451	287.3
293.91	343.47
294.368	324.75
294.827	366.88
295.285	296.66
295.743	315.39
296.202	263.9
296.66	273.26
297.118	252.19
297.576	315.39
298.034	254.53
298.492	308.37
298.95	387.94
299.408	296.66
299.866	282.62
300.324	313.05
300.781	343.47
301.239	313.05
301.697	352.84
302.154	303.68
302.612	331.77
303.069	263.9
303.527	284.96
303.984	301.34
304.441	284.96
304.899	280.28
305.356	219.43
305.813	341.13
306.27	294.32
306.727	327.09
307.184	338.79
307.641	261.55
308.098	256.87
308.555	303.68
309.012	315.39
309.468	289.64
309.925	371.56
310.382	313.05
310.838	322.41
311.295	291.98
311.751	324.75
312.208	352.84
312.664	238.15
313.12	261.55
313.577	359.86
314.033	310.71
314.489	301.34
314.945	308.37
315.401	310.71
315.857	378.58
316.313	317.73
316.769	289.64
317.225	282.62
317.681	336.45
318.136	345.81
318.592	394.97
319.048	348.15
319.503	233.47
319.959	306.03
320.414	249.85
320.869	336.45
321.325	289.64
321.78	390.28
322.235	315.39
322.691	263.9
323.146	310.71
323.601	249.85
324.056	282.62
324.511	324.75
324.966	317.73
325.421	313.05
325.875	329.43
326.33	341.13
326.785	334.11
327.24	338.79
327.694	294.32
328.149	228.79
328.603	303.68
329.058	268.58
329.512	313.05
329.966	317.73
330.421	308.37
330.875	341.13
331.329	338.79
331.783	350.5
332.237	357.52
332.691	287.3
333.145	270.92
333.599	331.77
334.053	228.79
334.507	317.73
334.96	320.07
335.414	282.62
335.868	308.37
336.321	317.73
336.775	306.03
337.228	313.05
337.682	341.13
338.135	324.75
338.588	338.79
339.042	362.2
339.495	303.68
339.948	373.9
340.401	320.07
340.854	331.77
341.307	296.66
341.76	308.37
342.213	291.98
342.666	364.54
343.119	261.55
343.571	282.62
344.024	334.11
344.477	303.68
344.929	329.43
345.382	329.43
345.834	294.32
346.287	306.03
346.739	327.09
347.191	327.09
347.644	364.54
348.096	303.68
348.548	282.62
349	287.3
349.452	343.47
349.904	315.39
350.356	336.45
350.808	313.05
351.26	338.79
351.711	268.58
352.163	282.62
352.615	320.07
353.066	341.13
353.518	284.96
353.969	357.52
354.421	289.64
354.872	313.05
355.324	345.81
355.775	350.5
356.226	317.73
356.677	324.75
357.128	317.73
357.579	273.26
358.03	336.45
358.481	324.75
358.932	301.34
359.383	231.13
359.834	317.73
360.285	301.34
360.735	334.11
361.186	308.37
361.637	338.79
362.087	376.24
362.538	359.86
362.988	352.84
363.438	338.79
363.889	331.77
364.339	317.73
364.789	350.5
365.239	334.11
365.689	364.54
366.139	355.18
366.589	338.79
367.039	355.18
367.489	287.3
367.939	273.26
368.389	291.98
368.839	322.41
369.288	273.26
369.738	282.62
370.187	406.67
370.637	303.68
371.086	322.41
371.536	275.6
371.985	299
372.434	280.28
372.884	327.09
373.333	350.5
373.782	341.13
374.231	291.98
374.68	329.43
375.129	296.66
375.578	294.32
376.027	336.45
376.475	383.26
376.924	359.86
377.373	301.34
377.822	303.68
378.27	362.2
378.719	371.56
379.167	369.22
379.616	313.05
380.064	294.32
380.512	310.71
380.961	263.9
381.409	284.96
381.857	270.92
382.305	261.55
382.753	336.45
383.201	336.45
383.649	364.54
384.097	334.11
384.545	338.79
384.992	343.47
385.44	338.79
385.888	287.3
386.335	291.98
386.783	350.5
387.231	296.66
387.678	336.45
388.125	324.75
388.573	364.54
389.02	378.58
389.467	390.28
389.914	315.39
390.362	291.98
390.809	338.79
391.256	294.32
391.703	352.84
392.15	352.84
392.596	270.92
393.043	369.22
393.49	350.5
393.937	301.34
394.383	277.94
394.83	329.43
395.276	327.09
395.723	345.81
396.169	373.9
396.616	404.33
397.062	294.32
397.508	287.3
397.954	371.56
398.401	329.43
398.847	299
399.293	294.32
399.739	348.15
400.185	376.24
400.631	345.81
401.076	418.37
401.522	289.64
401.968	364.54
402.414	317.73
402.859	315.39
403.305	315.39
403.75	287.3
404.196	362.2
404.641	338.79
405.086	390.28
405.532	301.34
405.977	306.03
406.422	343.47
406.867	317.73
407.312	338.79
407.757	327.09
408.202	338.79
408.647	320.07
409.092	296.66
409.537	322.41
409.982	277.94
410.426	336.45
410.871	327.09
411.316	362.2
411.76	266.24
412.205	329.43
412.649	291.98
413.093	310.71
413.538	338.79
413.982	322.41
414.426	289.64
414.87	331.77
415.314	280.28
415.758	355.18
416.202	350.5
416.646	306.03
417.09	233.47
417.534	329.43
417.978	259.21
418.421	322.41
418.865	301.34
419.309	320.07
419.752	355.18
420.196	404.33
420.639	373.9
421.083	359.86
421.526	308.37
421.969	324.75
422.412	336.45
422.856	291.98
423.299	369.22
423.742	376.24
424.185	352.84
424.628	310.71
425.071	355.18
425.513	313.05
425.956	322.41
426.399	329.43
426.842	331.77
427.284	254.53
427.727	331.77
428.169	308.37
428.612	331.77
429.054	289.64
429.497	289.64
429.939	322.41
430.381	352.84
430.823	317.73
431.265	352.84
431.707	310.71
432.149	355.18
432.591	343.47
433.033	268.58
433.475	315.39
433.917	308.37
434.359	329.43
434.8	306.03
435.242	287.3
435.684	282.62
436.125	324.75
436.567	378.58
437.008	291.98
437.449	273.26
437.891	270.92
438.332	348.15
438.773	289.64
439.214	322.41
439.656	313.05
440.097	320.07
440.538	331.77
440.978	324.75
441.419	308.37
441.86	313.05
442.301	397.31
442.742	327.09
443.182	291.98
443.623	348.15
444.063	336.45
444.504	313.05
444.944	357.52
445.385	406.67
445.825	313.05
446.265	268.58
446.706	322.41
447.146	336.45
447.586	345.81
448.026	341.13
448.466	343.47
448.906	317.73
449.346	310.71
449.786	334.11
450.225	284.96
450.665	352.84
451.105	390.28
451.544	341.13
451.984	362.2
452.424	256.87
452.863	338.79
453.302	329.43
453.742	322.41
454.181	329.43
454.62	284.96
455.059	345.81
455.499	303.68
455.938	383.26
456.377	294.32
456.816	355.18
457.254	310.71
457.693	322.41
458.132	320.07
458.571	275.6
459.01	394.97
459.448	322.41
459.887	308.37
460.325	308.37
460.764	303.68
461.202	266.24
461.641	350.5
462.079	324.75
462.517	226.45
462.955	345.81
463.393	350.5
463.832	275.6
464.27	320.07
464.708	373.9
465.145	348.15
465.583	364.54
466.021	364.54
466.459	345.81
466.897	315.39
467.334	331.77
467.772	306.03
468.209	329.43
468.647	310.71
469.084	329.43
469.522	355.18
469.959	343.47
470.396	256.87
470.833	327.09
471.271	308.37
471.708	315.39
472.145	310.71
472.582	308.37
473.019	324.75
473.456	320.07
473.892	399.65
474.329	355.18
474.766	320.07
475.202	306.03
475.639	341.13
476.076	362.2
476.512	282.62
476.949	392.62
477.385	310.71
477.821	270.92
478.258	357.52
478.694	383.26
479.13	287.3
479.566	270.92
480.002	310.71
480.438	341.13
480.874	348.15
481.31	343.47
481.746	287.3
482.181	284.96
482.617	303.68
483.053	341.13
483.488	329.43
483.924	320.07
484.36	303.68
484.795	341.13
485.23	317.73
485.666	392.62
486.101	345.81
486.536	289.64
486.971	252.19
487.407	324.75
487.842	334.11
488.277	334.11
488.712	329.43
489.146	315.39
489.581	352.84
490.016	362.2
490.451	306.03
490.885	299
491.32	380.92
491.755	376.24
492.189	203.04
492.624	296.66
493.058	282.62
493.492	291.98
493.927	284.96
494.361	338.79
494.795	324.75
495.229	336.45
495.663	327.09
496.097	284.96
496.531	359.86
496.965	301.34
497.399	329.43
497.833	254.53
498.266	252.19
498.7	303.68
499.134	359.86
499.567	327.09
500.001	303.68
500.434	320.07
500.868	322.41
501.301	355.18
501.734	357.52
502.168	313.05
502.601	359.86
503.034	373.9
503.467	380.92
503.9	313.05
504.333	327.09
504.766	364.54
505.199	324.75
505.632	296.66
506.064	373.9
506.497	306.03
506.93	357.52
507.362	301.34
507.795	296.66
508.227	366.88
508.66	254.53
509.092	322.41
509.524	275.6
509.956	301.34
510.389	308.37
510.821	327.09
511.253	303.68
511.685	284.96
512.117	401.99
512.549	315.39
512.981	343.47
513.412	303.68
513.844	303.68
514.276	320.07
514.707	371.56
515.139	282.62
515.571	331.77
516.002	387.94
516.433	327.09
516.865	334.11
517.296	303.68
517.727	416.03
518.159	387.94
518.59	362.2
519.021	273.26
519.452	275.6
519.883	327.09
520.314	299
520.744	338.79
521.175	364.54
521.606	350.5
522.037	306.03
522.467	315.39
522.898	252.19
523.328	296.66
523.759	355.18
524.189	231.13
524.62	320.07
525.05	263.9
525.48	315.39
525.91	334.11
526.341	259.21
526.771	397.31
527.201	336.45
527.631	334.11
528.061	296.66
528.49	282.62
528.92	341.13
529.35	310.71
529.78	343.47
530.209	329.43
530.639	284.96
531.068	289.64
531.498	336.45
531.927	282.62
532.357	317.73
532.786	313.05
533.215	310.71
533.644	348.15
534.074	317.73
534.503	287.3
534.932	238.15
535.361	345.81
535.79	261.55
536.218	352.84
536.647	348.15
537.076	284.96
537.505	296.66
537.933	306.03
538.362	268.58
538.79	299
539.219	261.55
539.647	310.71
540.076	329.43
540.504	357.52
540.932	324.75
541.36	348.15
541.788	303.68
542.217	299
542.645	313.05
543.073	334.11
543.5	336.45
543.928	355.18
544.356	320.07
544.784	350.5
545.211	338.79
545.639	343.47
546.067	343.47
546.494	336.45
546.922	313.05
547.349	345.81
547.776	296.66
548.204	320.07
548.631	301.34
549.058	383.26
549.485	287.3
549.912	277.94
550.339	364.54
550.766	322.41
551.193	291.98
551.62	357.52
552.047	254.53
552.474	306.03
552.9	331.77
553.327	355.18
553.754	280.28
554.18	270.92
554.607	287.3
555.033	317.73
555.459	306.03
555.886	306.03
556.312	380.92
556.738	301.34
557.164	245.17
557.59	329.43
558.016	287.3
558.442	357.52
558.868	345.81
559.294	317.73
559.72	275.6
560.145	399.65
560.571	299
560.997	315.39
561.422	320.07
561.848	364.54
562.273	404.33
562.699	277.94
563.124	291.98
563.549	308.37
563.974	310.71
564.4	341.13
564.825	301.34
565.25	284.96
565.675	338.79
566.1	355.18
566.525	364.54
566.95	364.54
567.374	299
567.799	378.58
568.224	343.47
568.648	338.79
569.073	291.98
569.497	301.34
569.922	303.68
570.346	315.39
570.771	299
571.195	284.96
571.619	308.37
572.043	355.18
572.467	324.75
572.891	334.11
573.315	336.45
573.739	320.07
574.163	268.58
574.587	366.88
575.011	338.79
575.435	296.66
575.858	392.62
576.282	277.94
576.705	294.32
577.129	345.81
577.552	366.88
577.976	315.39
578.399	348.15
578.822	327.09
579.245	366.88
579.669	327.09
580.092	287.3
580.515	331.77
580.938	282.62
581.361	350.5
581.784	362.2
582.206	338.79
582.629	331.77
583.052	261.55
583.474	284.96
583.897	418.37
584.32	322.41
584.742	350.5
585.165	212.4
585.587	299
586.009	324.75
586.431	369.22
586.854	317.73
587.276	334.11
587.698	287.3
588.12	296.66
588.542	308.37
588.964	287.3
589.386	263.9
589.807	329.43
590.229	371.56
590.651	296.66
591.073	306.03
591.494	378.58
591.916	294.32
592.337	357.52
592.759	263.9
593.18	277.94
593.601	345.81
594.022	322.41
594.444	313.05
594.865	289.64
595.286	334.11
595.707	306.03
596.128	359.86
596.549	294.32
596.97	277.94
597.39	338.79
597.811	301.34
598.232	359.86
598.652	280.28
599.073	287.3
599.494	266.24
599.914	299
600.334	336.45
600.755	334.11
601.175	352.84
601.595	327.09
602.015	357.52
602.436	277.94
602.856	446.46
603.276	301.34
603.696	352.84
604.115	313.05
604.535	343.47
604.955	306.03
605.375	261.55
605.794	296.66
606.214	275.6
606.634	366.88
607.053	310.71
607.473	296.66
607.892	287.3
608.311	299
608.731	303.68
609.15	294.32
609.569	348.15
609.988	427.73
610.407	320.07
610.826	378.58
611.245	317.73
611.664	378.58
612.083	376.24
612.501	331.77
612.92	294.32
613.339	240.49
613.757	336.45
614.176	266.24
614.594	336.45
615.013	294.32
615.431	315.39
615.85	315.39
616.268	299
616.686	315.39
617.104	327.09
617.522	324.75
617.94	362.2
618.358	315.39
618.776	268.58
619.194	315.39
619.612	320.07
620.03	301.34
620.447	310.71
620.865	320.07
621.282	329.43
621.7	355.18
622.117	369.22
622.535	270.92
622.952	289.64
623.369	341.13
623.787	301.34
624.204	336.45
624.621	352.84
625.038	301.34
625.455	336.45
625.872	303.68
626.289	348.15
626.706	348.15
627.123	247.51
627.539	320.07
627.956	284.96
628.373	322.41
628.789	317.73
629.206	317.73
629.622	317.73
630.038	322.41
630.455	359.86
630.871	277.94
631.287	329.43
631.703	315.39
632.12	331.77
632.536	275.6
632.952	277.94
633.368	322.41
633.783	343.47
634.199	313.05
634.615	303.68
635.031	390.28
635.446	350.5
635.862	334.11
636.277	294.32
636.693	266.24
637.108	348.15
637.524	406.67
637.939	380.92
638.354	336.45
638.77	289.64
639.185	327.09
639.6	299
640.015	348.15
640.43	263.9
640.845	352.84
641.259	343.47
641.674	357.52
642.089	303.68
642.504	303.68
642.918	343.47
643.333	296.66
643.747	303.68
644.162	228.79
644.576	350.5
644.991	334.11
645.405	324.75
645.819	331.77
646.233	364.54
646.647	303.68
647.061	352.84
647.475	437.1
647.889	270.92
648.303	263.9
648.717	266.24
649.131	324.75
649.545	287.3
649.958	320.07
650.372	383.26
650.785	369.22
651.199	352.84
651.612	334.11
652.026	280.28
652.439	259.21
652.852	256.87
653.266	277.94
653.679	240.49
654.092	390.28
654.505	362.2
654.918	359.86
655.331	273.26
655.744	268.58
656.156	268.58
656.569	338.79
656.982	289.64
657.394	364.54
657.807	306.03
658.22	348.15
658.632	252.19
659.044	254.53
659.457	301.34
659.869	334.11
660.281	299
660.693	329.43
661.106	280.28
661.518	303.68
661.93	287.3
662.342	301.34
662.754	275.6
663.165	315.39
663.577	284.96
663.989	287.3
664.401	289.64
664.812	341.13
665.224	324.75
665.635	322.41
666.047	263.9
666.458	357.52
666.869	252.19
667.281	287.3
667.692	266.24
668.103	336.45
668.514	359.86
668.925	394.97
669.336	362.2
669.747	331.77
670.158	273.26
670.569	383.26
670.979	327.09
671.39	343.47
671.801	313.05
672.211	350.5
672.622	320.07
673.032	352.84
673.443	348.15
673.853	294.32
674.263	256.87
674.674	270.92
675.084	320.07
675.494	327.09
675.904	364.54
676.314	345.81
676.724	273.26
677.134	341.13
677.544	268.58
677.953	282.62
678.363	310.71
678.773	359.86
679.182	341.13
679.592	263.9
680.001	308.37
680.411	261.55
680.82	280.28
681.23	355.18
681.639	308.37
682.048	306.03
682.457	385.6
682.866	282.62
683.275	277.94
683.684	352.84
684.093	291.98
684.502	383.26
684.911	322.41
685.32	371.56
685.728	296.66
686.137	308.37
686.546	338.79
686.954	331.77
687.363	338.79
687.771	343.47
688.179	291.98
688.588	359.86
688.996	327.09
689.404	383.26
689.812	296.66
690.22	256.87
690.628	369.22
691.036	320.07
691.444	296.66
691.852	287.3
692.26	341.13
692.667	280.28
693.075	378.58
693.483	366.88
693.89	287.3
694.298	308.37
694.705	282.62
695.112	345.81
695.52	299
695.927	249.85
696.334	287.3
696.741	280.28
697.148	263.9
697.555	338.79
697.962	320.07
698.369	315.39
698.776	334.11
699.183	364.54
699.59	270.92
699.996	345.81
700.403	352.84
700.81	352.84
701.216	338.79
701.623	282.62
702.029	371.56
702.435	245.17
702.842	273.26
703.248	308.37
703.654	284.96
704.06	291.98
704.466	247.51
704.872	336.45
705.278	357.52
705.684	256.87
706.09	345.81
706.496	299
706.901	352.84
707.307	270.92
707.712	308.37
708.118	277.94
708.523	301.34
708.929	338.79
709.334	273.26
709.74	282.62
710.145	296.66
710.55	308.37
710.955	294.32
711.36	322.41
711.765	359.86
712.17	310.71
712.575	273.26
712.98	781.15
713.385	364.54
713.789	364.54
714.194	313.05
714.599	406.67
715.003	303.68
715.408	306.03
715.812	343.47
716.217	350.5
716.621	331.77
717.025	284.96
717.429	296.66
717.833	343.47
718.238	355.18
718.642	284.96
719.046	270.92
719.449	334.11
719.853	263.9
720.257	343.47
720.661	308.37
721.065	291.98
721.468	273.26
721.872	303.68
722.275	315.39
722.679	334.11
723.082	294.32
723.485	280.28
723.889	327.09
724.292	306.03
724.695	409.01
725.098	275.6
725.501	324.75
725.904	287.3
726.307	362.2
726.71	315.39
727.113	280.28
727.516	306.03
727.918	366.88
728.321	320.07
728.724	338.79
729.126	310.71
729.529	348.15
729.931	369.22
730.333	289.64
730.736	317.73
731.138	355.18
731.54	317.73
731.942	322.41
732.344	254.53
732.746	254.53
733.148	296.66
733.55	310.71
733.952	308.37
734.354	313.05
734.756	275.6
735.157	324.75
735.559	256.87
735.96	310.71
736.362	387.94
736.763	308.37
737.165	324.75
737.566	252.19
737.967	341.13
738.368	341.13
738.77	310.71
739.171	315.39
739.572	334.11
739.973	327.09
740.374	303.68
740.774	345.81
741.175	268.58
741.576	324.75
741.977	315.39
742.377	331.77
742.778	362.2
743.178	296.66
743.579	291.98
743.979	254.53
744.379	294.32
744.78	291.98
745.18	399.65
745.58	327.09
745.98	364.54
746.38	270.92
746.78	242.83
747.18	287.3
747.58	221.77
747.98	249.85
748.38	334.11
748.779	343.47
749.179	352.84
749.578	366.88
749.978	282.62
750.377	268.58
750.777	338.79
751.176	287.3
751.575	369.22
751.975	247.51
752.374	366.88
752.773	299
753.172	343.47
753.571	294.32
753.97	289.64
754.369	299
754.768	287.3
755.166	357.52
755.565	331.77
755.964	263.9
756.362	301.34
756.761	348.15
757.159	284.96
757.558	247.51
757.956	275.6
758.354	270.92
758.753	327.09
759.151	303.68
759.549	303.68
759.947	261.55
760.345	231.13
760.743	310.71
761.141	355.18
761.539	327.09
761.936	306.03
762.334	291.98
762.732	303.68
763.129	320.07
763.527	287.3
763.924	315.39
764.322	364.54
764.719	355.18
765.117	341.13
765.514	310.71
765.911	310.71
766.308	310.71
766.705	376.24
