Data from Al_FLMS009871__625__14-49-12-312.txt Node

Date: Fri Mar 08 14:49:12 CST 2024
User: pe5414po
Spectrometer: FLMS00987
Trigger mode: 0
Integration Time (sec): 1.000000E-1
Scans to average: 1
Electric dark correction enabled: true
Nonlinearity correction enabled: false
Boxcar width: 0
XAxis mode: Wavelengths
Number of Pixels in Spectrum: 2048
>>>>>Begin Spectral Data<<<<<
188.938	-67.73
189.409	-67.73
189.879	-67.73
190.349	-25.6
190.819	-135.6
191.29	-109.86
191.76	-88.79
192.23	-63.05
192.7	-88.79
193.17	-86.45
193.64	14.19
194.109	-16.24
194.579	-23.26
195.049	-30.28
195.519	-30.28
195.988	100.79
196.458	93.77
196.927	16.53
197.397	58.66
197.866	86.75
198.336	166.32
198.805	215.48
199.274	166.32
199.744	196.75
200.213	262.29
200.682	171.01
201.151	187.39
201.62	208.45
202.089	243.56
202.558	271.65
203.027	281.01
203.495	304.42
203.964	281.01
204.433	299.73
204.902	266.97
205.37	332.5
205.839	311.44
206.307	360.59
206.776	290.37
207.244	334.84
207.712	386.33
208.181	266.97
208.649	297.39
209.117	304.42
209.585	330.16
210.053	365.27
210.521	306.76
210.989	292.71
211.457	334.84
211.925	257.61
212.393	323.14
212.861	344.21
213.328	304.42
213.796	320.8
214.264	278.67
214.731	278.67
215.199	250.58
215.666	273.99
216.133	332.5
216.601	269.31
217.068	311.44
217.535	245.9
218.003	290.37
218.47	227.18
218.937	278.67
219.404	243.56
219.871	271.65
220.338	281.01
220.805	285.69
221.271	297.39
221.738	290.37
222.205	266.97
222.671	271.65
223.138	231.86
223.605	269.31
224.071	243.56
224.538	231.86
225.004	304.42
225.47	292.71
225.937	208.45
226.403	351.23
226.869	325.48
227.335	269.31
227.801	262.29
228.267	290.37
228.733	278.67
229.199	236.54
229.665	325.48
230.131	295.05
230.597	262.29
231.062	264.63
231.528	281.01
231.994	288.03
232.459	250.58
232.925	346.55
233.39	309.1
233.856	257.61
234.321	278.67
234.786	297.39
235.252	332.5
235.717	276.33
236.182	311.44
236.647	325.48
237.112	311.44
237.577	386.33
238.042	245.9
238.507	262.29
238.972	316.12
239.436	388.68
239.901	234.2
240.366	295.05
240.83	332.5
241.295	292.71
241.76	255.26
242.224	337.18
242.688	273.99
243.153	288.03
243.617	281.01
244.081	266.97
244.545	290.37
245.01	299.73
245.474	334.84
245.938	323.14
246.402	292.71
246.866	341.86
247.33	318.46
247.793	278.67
248.257	339.52
248.721	248.24
249.185	292.71
249.648	327.82
250.112	306.76
250.575	332.5
251.039	316.12
251.502	238.88
251.965	327.82
252.429	273.99
252.892	362.93
253.355	236.54
253.818	269.31
254.281	271.65
254.744	309.1
255.207	288.03
255.67	304.42
256.133	255.26
256.596	276.33
257.059	341.86
257.522	255.26
257.984	273.99
258.447	281.01
258.909	302.08
259.372	358.25
259.834	313.78
260.297	257.61
260.759	355.91
261.221	262.29
261.684	304.42
262.146	283.35
262.608	283.35
263.07	323.14
263.532	304.42
263.994	320.8
264.456	252.92
264.918	304.42
265.38	231.86
265.842	311.44
266.303	313.78
266.765	295.05
267.227	400.38
267.688	288.03
268.15	355.91
268.611	367.61
269.072	334.84
269.534	297.39
269.995	320.8
270.456	365.27
270.918	238.88
271.379	208.45
271.84	334.84
272.301	304.42
272.762	295.05
273.223	288.03
273.684	318.46
274.144	269.31
274.605	292.71
275.066	344.21
275.527	348.89
275.987	304.42
276.448	288.03
276.908	276.33
277.369	273.99
277.829	248.24
278.289	245.9
278.75	283.35
279.21	269.31
279.67	299.73
280.13	353.57
280.59	299.73
281.05	304.42
281.51	278.67
281.97	309.1
282.43	316.12
282.89	309.1
283.35	288.03
283.809	311.44
284.269	295.05
284.729	339.52
285.188	290.37
285.648	292.71
286.107	281.01
286.567	306.76
287.026	299.73
287.485	299.73
287.944	332.5
288.404	290.37
288.863	334.84
289.322	360.59
289.781	285.69
290.24	302.08
290.699	318.46
291.158	273.99
291.616	344.21
292.075	334.84
292.534	276.33
292.992	337.18
293.451	327.82
293.91	255.26
294.368	273.99
294.827	302.08
295.285	341.86
295.743	318.46
296.202	313.78
296.66	355.91
297.118	313.78
297.576	297.39
298.034	276.33
298.492	278.67
298.95	281.01
299.408	316.12
299.866	292.71
300.324	273.99
300.781	292.71
301.239	337.18
301.697	339.52
302.154	318.46
302.612	318.46
303.069	327.82
303.527	412.08
303.984	309.1
304.441	304.42
304.899	323.14
305.356	281.01
305.813	332.5
306.27	355.91
306.727	311.44
307.184	302.08
307.641	332.5
308.098	348.89
308.555	398.04
309.012	299.73
309.468	369.95
309.925	367.61
310.382	304.42
310.838	292.71
311.295	332.5
311.751	316.12
312.208	332.5
312.664	269.31
313.12	304.42
313.577	344.21
314.033	297.39
314.489	283.35
314.945	311.44
315.401	325.48
315.857	259.95
316.313	358.25
316.769	276.33
317.225	318.46
317.681	376.97
318.136	362.93
318.592	271.65
319.048	320.8
319.503	355.91
319.959	337.18
320.414	339.52
320.869	281.01
321.325	290.37
321.78	398.04
322.235	327.82
322.691	351.23
323.146	360.59
323.601	341.86
324.056	325.48
324.511	337.18
324.966	320.8
325.421	344.21
325.875	339.52
326.33	334.84
326.785	360.59
327.24	355.91
327.694	334.84
328.149	332.5
328.603	278.67
329.058	297.39
329.512	393.36
329.966	278.67
330.421	306.76
330.875	334.84
331.329	269.31
331.783	346.55
332.237	428.46
332.691	414.42
333.145	325.48
333.599	320.8
334.053	323.14
334.507	320.8
334.96	365.27
335.414	288.03
335.868	323.14
336.321	330.16
336.775	313.78
337.228	360.59
337.682	316.12
338.135	316.12
338.588	346.55
339.042	316.12
339.495	283.35
339.948	381.65
340.401	400.38
340.854	318.46
341.307	316.12
341.76	299.73
342.213	353.57
342.666	292.71
343.119	374.63
343.571	367.61
344.024	309.1
344.477	311.44
344.929	295.05
345.382	360.59
345.834	346.55
346.287	360.59
346.739	313.78
347.191	334.84
347.644	302.08
348.096	313.78
348.548	348.89
349	316.12
349.452	330.16
349.904	318.46
350.356	344.21
350.808	304.42
351.26	344.21
351.711	299.73
352.163	318.46
352.615	339.52
353.066	334.84
353.518	283.35
353.969	341.86
354.421	304.42
354.872	365.27
355.324	273.99
355.775	295.05
356.226	297.39
356.677	297.39
357.128	281.01
357.579	299.73
358.03	325.48
358.481	273.99
358.932	311.44
359.383	355.91
359.834	266.97
360.285	269.31
360.735	327.82
361.186	337.18
361.637	327.82
362.087	367.61
362.538	330.16
362.988	318.46
363.438	360.59
363.889	365.27
364.339	369.95
364.789	257.61
365.239	355.91
365.689	334.84
366.139	318.46
366.589	358.25
367.039	320.8
367.489	365.27
367.939	269.31
368.389	369.95
368.839	313.78
369.288	299.73
369.738	337.18
370.187	283.35
370.637	297.39
371.086	330.16
371.536	374.63
371.985	257.61
372.434	285.69
372.884	381.65
373.333	290.37
373.782	360.59
374.231	311.44
374.68	344.21
375.129	297.39
375.578	313.78
376.027	292.71
376.475	351.23
376.924	339.52
377.373	362.93
377.822	283.35
378.27	309.1
378.719	339.52
379.167	346.55
379.616	330.16
380.064	309.1
380.512	365.27
380.961	323.14
381.409	351.23
381.857	285.69
382.305	365.27
382.753	337.18
383.201	320.8
383.649	334.84
384.097	386.33
384.545	346.55
384.992	407.4
385.44	337.18
385.888	320.8
386.335	323.14
386.783	299.73
387.231	311.44
387.678	327.82
388.125	360.59
388.573	367.61
389.02	332.5
389.467	304.42
389.914	398.04
390.362	316.12
390.809	309.1
391.256	348.89
391.703	311.44
392.15	320.8
392.596	376.97
393.043	271.65
393.49	346.55
393.937	285.69
394.383	332.5
394.83	276.33
395.276	323.14
395.723	304.42
396.169	325.48
396.616	409.74
397.062	297.39
397.508	255.26
397.954	348.89
398.401	372.29
398.847	311.44
399.293	353.57
399.739	327.82
400.185	351.23
400.631	330.16
401.076	327.82
401.522	367.61
401.968	285.69
402.414	316.12
402.859	360.59
403.305	304.42
403.75	327.82
404.196	367.61
404.641	320.8
405.086	353.57
405.532	400.38
405.977	351.23
406.422	351.23
406.867	313.78
407.312	339.52
407.757	348.89
408.202	297.39
408.647	362.93
409.092	330.16
409.537	318.46
409.982	299.73
410.426	433.15
410.871	278.67
411.316	374.63
411.76	327.82
412.205	346.55
412.649	290.37
413.093	316.12
413.538	393.36
413.982	290.37
414.426	355.91
414.87	355.91
415.314	358.25
415.758	309.1
416.202	341.86
416.646	285.69
417.09	318.46
417.534	346.55
417.978	398.04
418.421	311.44
418.865	362.93
419.309	337.18
419.752	327.82
420.196	297.39
420.639	402.72
421.083	297.39
421.526	313.78
421.969	327.82
422.412	344.21
422.856	374.63
423.299	344.21
423.742	297.39
424.185	309.1
424.628	334.84
425.071	304.42
425.513	334.84
425.956	386.33
426.399	327.82
426.842	306.76
427.284	348.89
427.727	288.03
428.169	285.69
428.612	318.46
429.054	302.08
429.497	398.04
429.939	400.38
430.381	353.57
430.823	337.18
431.265	332.5
431.707	344.21
432.149	334.84
432.591	348.89
433.033	299.73
433.475	306.76
433.917	334.84
434.359	362.93
434.8	407.4
435.242	365.27
435.684	339.52
436.125	376.97
436.567	306.76
437.008	391.02
437.449	337.18
437.891	379.31
438.332	323.14
438.773	292.71
439.214	325.48
439.656	299.73
440.097	348.89
440.538	292.71
440.978	341.86
441.419	259.95
441.86	271.65
442.301	383.99
442.742	318.46
443.182	241.22
443.623	245.9
444.063	327.82
444.504	332.5
444.944	318.46
445.385	348.89
445.825	290.37
446.265	299.73
446.706	292.71
447.146	369.95
447.586	323.14
448.026	369.95
448.466	323.14
448.906	351.23
449.346	367.61
449.786	362.93
450.225	311.44
450.665	273.99
451.105	320.8
451.544	351.23
451.984	348.89
452.424	365.27
452.863	374.63
453.302	332.5
453.742	353.57
454.181	238.88
454.62	379.31
455.059	351.23
455.499	330.16
455.938	353.57
456.377	391.02
456.816	348.89
457.254	339.52
457.693	337.18
458.132	334.84
458.571	278.67
459.01	271.65
459.448	313.78
459.887	318.46
460.325	344.21
460.764	320.8
461.202	309.1
461.641	409.74
462.079	379.31
462.517	348.89
462.955	346.55
463.393	309.1
463.832	358.25
464.27	344.21
464.708	323.14
465.145	365.27
465.583	388.68
466.021	369.95
466.459	316.12
466.897	376.97
467.334	337.18
467.772	330.16
468.209	386.33
468.647	306.76
469.084	351.23
469.522	393.36
469.959	365.27
470.396	355.91
470.833	325.48
471.271	353.57
471.708	327.82
472.145	360.59
472.582	318.46
473.019	348.89
473.456	306.76
473.892	309.1
474.329	320.8
474.766	369.95
475.202	304.42
475.639	316.12
476.076	299.73
476.512	374.63
476.949	348.89
477.385	348.89
477.821	259.95
478.258	327.82
478.694	327.82
479.13	323.14
479.566	346.55
480.002	330.16
480.438	309.1
480.874	309.1
481.31	316.12
481.746	360.59
482.181	299.73
482.617	388.68
483.053	304.42
483.488	297.39
483.924	297.39
484.36	388.68
484.795	348.89
485.23	339.52
485.666	330.16
486.101	386.33
486.536	273.99
486.971	323.14
487.407	299.73
487.842	248.24
488.277	295.05
488.712	341.86
489.146	400.38
489.581	351.23
490.016	348.89
490.451	334.84
490.885	348.89
491.32	358.25
491.755	334.84
492.189	407.4
492.624	316.12
493.058	337.18
493.492	332.5
493.927	372.29
494.361	320.8
494.795	330.16
495.229	355.91
495.663	353.57
496.097	325.48
496.531	355.91
496.965	323.14
497.399	327.82
497.833	325.48
498.266	320.8
498.7	332.5
499.134	372.29
499.567	383.99
500.001	344.21
500.434	327.82
500.868	419.1
501.301	391.02
501.734	337.18
502.168	273.99
502.601	299.73
503.034	362.93
503.467	353.57
503.9	304.42
504.333	309.1
504.766	318.46
505.199	330.16
505.632	320.8
506.064	316.12
506.497	276.33
506.93	318.46
507.362	355.91
507.795	327.82
508.227	386.33
508.66	362.93
509.092	257.61
509.524	313.78
509.956	262.29
510.389	355.91
510.821	362.93
511.253	344.21
511.685	376.97
512.117	309.1
512.549	393.36
512.981	292.71
513.412	348.89
513.844	346.55
514.276	355.91
514.707	365.27
515.139	351.23
515.571	374.63
516.002	346.55
516.433	398.04
516.865	290.37
517.296	348.89
517.727	332.5
518.159	337.18
518.59	376.97
519.021	252.92
519.452	365.27
519.883	302.08
520.314	323.14
520.744	281.01
521.175	341.86
521.606	393.36
522.037	337.18
522.467	353.57
522.898	313.78
523.328	297.39
523.759	313.78
524.189	313.78
524.62	311.44
525.05	325.48
525.48	362.93
525.91	334.84
526.341	288.03
526.771	426.12
527.201	316.12
527.631	325.48
528.061	391.02
528.49	311.44
528.92	316.12
529.35	381.65
529.78	311.44
530.209	362.93
530.639	346.55
531.068	330.16
531.498	344.21
531.927	351.23
532.357	348.89
532.786	271.65
533.215	295.05
533.644	316.12
534.074	358.25
534.503	295.05
534.932	276.33
535.361	348.89
535.79	353.57
536.218	313.78
536.647	344.21
537.076	306.76
537.505	341.86
537.933	348.89
538.362	353.57
538.79	306.76
539.219	297.39
539.647	288.03
540.076	337.18
540.504	344.21
540.932	316.12
541.36	292.71
541.788	306.76
542.217	299.73
542.645	316.12
543.073	358.25
543.5	313.78
543.928	353.57
544.356	341.86
544.784	306.76
545.211	323.14
545.639	325.48
546.067	339.52
546.494	297.39
546.922	381.65
547.349	386.33
547.776	306.76
548.204	285.69
548.631	311.44
549.058	288.03
549.485	271.65
549.912	306.76
550.339	316.12
550.766	341.86
551.193	391.02
551.62	309.1
552.047	358.25
552.474	292.71
552.9	330.16
553.327	353.57
553.754	374.63
554.18	295.05
554.607	351.23
555.033	323.14
555.459	311.44
555.886	332.5
556.312	334.84
556.738	269.31
557.164	325.48
557.59	304.42
558.016	344.21
558.442	297.39
558.868	292.71
559.294	348.89
559.72	353.57
560.145	330.16
560.571	362.93
560.997	327.82
561.422	271.65
561.848	292.71
562.273	304.42
562.699	245.9
563.124	332.5
563.549	299.73
563.974	313.78
564.4	376.97
564.825	309.1
565.25	353.57
565.675	416.76
566.1	283.35
566.525	323.14
566.95	416.76
567.374	306.76
567.799	372.29
568.224	299.73
568.648	330.16
569.073	372.29
569.497	325.48
569.922	339.52
570.346	337.18
570.771	351.23
571.195	330.16
571.619	330.16
572.043	332.5
572.467	337.18
572.891	348.89
573.315	318.46
573.739	318.46
574.163	334.84
574.587	388.68
575.011	281.01
575.435	341.86
575.858	341.86
576.282	334.84
576.705	330.16
577.129	351.23
577.552	320.8
577.976	339.52
578.399	288.03
578.822	337.18
579.245	391.02
579.669	299.73
580.092	332.5
580.515	325.48
580.938	379.31
581.361	306.76
581.784	295.05
582.206	297.39
582.629	227.18
583.052	297.39
583.474	311.44
583.897	358.25
584.32	334.84
584.742	369.95
585.165	400.38
585.587	309.1
586.009	346.55
586.431	353.57
586.854	330.16
587.276	325.48
587.698	276.33
588.12	332.5
588.542	320.8
588.964	393.36
589.386	367.61
589.807	400.38
590.229	330.16
590.651	313.78
591.073	323.14
591.494	295.05
591.916	367.61
592.337	285.69
592.759	302.08
593.18	325.48
593.601	391.02
594.022	327.82
594.444	311.44
594.865	318.46
595.286	302.08
595.707	297.39
596.128	360.59
596.549	290.37
596.97	304.42
597.39	299.73
597.811	339.52
598.232	395.7
598.652	337.18
599.073	358.25
599.494	313.78
599.914	290.37
600.334	295.05
600.755	290.37
601.175	337.18
601.595	362.93
602.015	281.01
602.436	395.7
602.856	463.57
603.276	360.59
603.696	348.89
604.115	309.1
604.535	360.59
604.955	339.52
605.375	273.99
605.794	266.97
606.214	398.04
606.634	339.52
607.053	360.59
607.473	327.82
607.892	334.84
608.311	334.84
608.731	290.37
609.15	381.65
609.569	383.99
609.988	348.89
610.407	325.48
610.826	379.31
611.245	334.84
611.664	388.68
612.083	379.31
612.501	320.8
612.92	259.95
613.339	367.61
613.757	381.65
614.176	362.93
614.594	360.59
615.013	372.29
615.431	271.65
615.85	372.29
616.268	344.21
616.686	330.16
617.104	320.8
617.522	369.95
617.94	297.39
618.358	334.84
618.776	337.18
619.194	295.05
619.612	288.03
620.03	255.26
620.447	292.71
620.865	360.59
621.282	297.39
621.7	292.71
622.117	304.42
622.535	290.37
622.952	339.52
623.369	372.29
623.787	337.18
624.204	316.12
624.621	327.82
625.038	285.69
625.455	372.29
625.872	313.78
626.289	320.8
626.706	257.61
627.123	348.89
627.539	311.44
627.956	311.44
628.373	341.86
628.789	269.31
629.206	313.78
629.622	309.1
630.038	266.97
630.455	348.89
630.871	297.39
631.287	297.39
631.703	299.73
632.12	325.48
632.536	369.95
632.952	344.21
633.368	330.16
633.783	383.99
634.199	273.99
634.615	316.12
635.031	386.33
635.446	374.63
635.862	369.95
636.277	355.91
636.693	344.21
637.108	365.27
637.524	365.27
637.939	311.44
638.354	309.1
638.77	339.52
639.185	323.14
639.6	290.37
640.015	290.37
640.43	257.61
640.845	351.23
641.259	353.57
641.674	332.5
642.089	299.73
642.504	330.16
642.918	302.08
643.333	339.52
643.747	358.25
644.162	332.5
644.576	332.5
644.991	295.05
645.405	304.42
645.819	374.63
646.233	330.16
646.647	344.21
647.061	330.16
647.475	325.48
647.889	407.4
648.303	337.18
648.717	325.48
649.131	323.14
649.545	362.93
649.958	348.89
650.372	262.29
650.785	297.39
651.199	302.08
651.612	339.52
652.026	337.18
652.439	341.86
652.852	362.93
653.266	365.27
653.679	299.73
654.092	355.91
654.505	409.74
654.918	348.89
655.331	327.82
655.744	323.14
656.156	323.14
656.569	311.44
656.982	295.05
657.394	285.69
657.807	288.03
658.22	391.02
658.632	337.18
659.044	395.7
659.457	376.97
659.869	344.21
660.281	353.57
660.693	285.69
661.106	440.17
661.518	318.46
661.93	302.08
662.342	306.76
662.754	273.99
663.165	271.65
663.577	318.46
663.989	360.59
664.401	297.39
664.812	304.42
665.224	327.82
665.635	341.86
666.047	353.57
666.458	288.03
666.869	386.33
667.281	360.59
667.692	255.26
668.103	311.44
668.514	283.35
668.925	299.73
669.336	348.89
669.747	365.27
670.158	281.01
670.569	337.18
670.979	309.1
671.39	309.1
671.801	323.14
672.211	360.59
672.622	299.73
673.032	374.63
673.443	346.55
673.853	367.61
674.263	330.16
674.674	360.59
675.084	323.14
675.494	327.82
675.904	374.63
676.314	369.95
676.724	367.61
677.134	381.65
677.544	327.82
677.953	388.68
678.363	353.57
678.773	369.95
679.182	372.29
679.592	341.86
680.001	344.21
680.411	269.31
680.82	330.16
681.23	339.52
681.639	391.02
682.048	311.44
682.457	292.71
682.866	332.5
683.275	266.97
683.684	292.71
684.093	374.63
684.502	379.31
684.911	311.44
685.32	306.76
685.728	304.42
686.137	337.18
686.546	292.71
686.954	290.37
687.363	316.12
687.771	302.08
688.179	341.86
688.588	369.95
688.996	276.33
689.404	344.21
689.812	262.29
690.22	330.16
690.628	316.12
691.036	325.48
691.444	306.76
691.852	360.59
692.26	374.63
692.667	297.39
693.075	330.16
693.483	325.48
693.89	334.84
694.298	346.55
694.705	334.84
695.112	313.78
695.52	311.44
695.927	376.97
696.334	252.92
696.741	334.84
697.148	302.08
697.555	276.33
697.962	299.73
698.369	388.68
698.776	405.06
699.183	299.73
699.59	288.03
699.996	346.55
700.403	330.16
700.81	257.61
701.216	299.73
701.623	372.29
702.029	271.65
702.435	299.73
702.842	362.93
703.248	360.59
703.654	325.48
704.06	379.31
704.466	295.05
704.872	283.35
705.278	414.42
705.684	358.25
706.09	362.93
706.496	358.25
706.901	243.56
707.307	337.18
707.712	290.37
708.118	306.76
708.523	379.31
708.929	313.78
709.334	295.05
709.74	285.69
710.145	288.03
710.55	302.08
710.955	386.33
711.36	409.74
711.765	316.12
712.17	339.52
712.575	299.73
712.98	875.51
713.385	353.57
713.789	320.8
714.194	346.55
714.599	327.82
715.003	386.33
715.408	269.31
715.812	341.86
716.217	318.46
716.621	276.33
717.025	299.73
717.429	330.16
717.833	292.71
718.238	379.31
718.642	325.48
719.046	341.86
719.449	402.72
719.853	346.55
720.257	344.21
720.661	339.52
721.065	353.57
721.468	346.55
721.872	276.33
722.275	376.97
722.679	332.5
723.082	330.16
723.485	281.01
723.889	334.84
724.292	374.63
724.695	320.8
725.098	388.68
725.501	332.5
725.904	376.97
726.307	332.5
726.71	309.1
727.113	330.16
727.516	339.52
727.918	346.55
728.321	330.16
728.724	355.91
729.126	379.31
729.529	323.14
729.931	337.18
730.333	365.27
730.736	271.65
731.138	320.8
731.54	320.8
731.942	374.63
732.344	323.14
732.746	295.05
733.148	304.42
733.55	369.95
733.952	304.42
734.354	292.71
734.756	381.65
735.157	344.21
735.559	320.8
735.96	400.38
736.362	383.99
736.763	297.39
737.165	288.03
737.566	369.95
737.967	311.44
738.368	374.63
738.77	362.93
739.171	302.08
739.572	255.26
739.973	266.97
740.374	285.69
740.774	334.84
741.175	337.18
741.576	309.1
741.977	376.97
742.377	334.84
742.778	269.31
743.178	309.1
743.579	304.42
743.979	332.5
744.379	325.48
744.78	288.03
745.18	318.46
745.58	358.25
745.98	306.76
746.38	339.52
746.78	330.16
747.18	374.63
747.58	332.5
747.98	325.48
748.38	341.86
748.779	323.14
749.179	374.63
749.578	339.52
749.978	320.8
750.377	358.25
750.777	330.16
751.176	290.37
751.575	365.27
751.975	351.23
752.374	323.14
752.773	313.78
753.172	402.72
753.571	295.05
753.97	367.61
754.369	330.16
754.768	269.31
755.166	351.23
755.565	325.48
755.964	412.08
756.362	290.37
756.761	264.63
757.159	311.44
757.558	334.84
757.956	309.1
758.354	318.46
758.753	318.46
759.151	332.5
759.549	316.12
759.947	285.69
760.345	304.42
760.743	318.46
761.141	358.25
761.539	348.89
761.936	292.71
762.334	278.67
762.732	281.01
763.129	360.59
763.527	313.78
763.924	281.01
764.322	311.44
