Data from Al_FLMS009871__1266__16-47-53-569.txt Node

Date: Fri Mar 08 16:47:53 CST 2024
User: pe5414po
Spectrometer: FLMS00987
Trigger mode: 0
Integration Time (sec): 1.000000E-1
Scans to average: 1
Electric dark correction enabled: true
Nonlinearity correction enabled: false
Boxcar width: 0
XAxis mode: Wavelengths
Number of Pixels in Spectrum: 2048
>>>>>Begin Spectral Data<<<<<
188.938	-83.24
189.409	-83.24
189.879	-83.24
190.349	-83.24
190.819	-80.89
191.29	-141.75
191.76	-111.32
192.23	-66.85
192.7	-76.21
193.17	-50.47
193.64	-38.77
194.109	-24.72
194.579	12.73
195.049	17.41
195.519	10.39
195.988	17.41
196.458	15.07
196.927	136.78
197.397	68.9
197.866	115.71
198.336	115.71
198.805	132.09
199.274	188.27
199.744	164.86
200.213	211.67
200.682	136.78
201.151	199.97
201.62	199.97
202.089	221.03
202.558	253.8
203.027	258.48
203.495	281.89
203.964	295.93
204.433	225.72
204.902	284.23
205.37	258.48
205.839	335.72
206.307	309.97
206.776	288.91
207.244	338.06
207.712	328.7
208.181	302.95
208.649	256.14
209.117	270.19
209.585	288.91
210.053	228.06
210.521	291.25
210.989	281.89
211.457	246.78
211.925	359.13
212.393	239.76
212.861	298.27
213.328	284.23
213.796	291.25
214.264	281.89
214.731	319.34
215.199	335.72
215.666	258.48
216.133	340.4
216.601	242.1
217.068	251.46
217.535	274.87
218.003	221.03
218.47	263.16
218.937	270.19
219.404	274.87
219.871	272.53
220.338	239.76
220.805	209.33
221.271	302.95
221.738	239.76
222.205	298.27
222.671	178.9
223.138	253.8
223.605	267.85
224.071	300.61
224.538	293.59
225.004	260.82
225.47	237.42
225.937	272.53
226.403	279.55
226.869	267.85
227.335	223.37
227.801	239.76
228.267	270.19
228.733	284.23
229.199	216.35
229.665	274.87
230.131	277.21
230.597	232.74
231.062	239.76
231.528	317
231.994	267.85
232.459	281.89
232.925	279.55
233.39	263.16
233.856	204.65
234.321	277.21
234.786	288.91
235.252	242.1
235.717	176.56
236.182	279.55
236.647	277.21
237.112	293.59
237.577	331.04
238.042	317
238.507	279.55
238.972	328.7
239.436	281.89
239.901	309.97
240.366	284.23
240.83	265.5
241.295	293.59
241.76	298.27
242.224	279.55
242.688	281.89
243.153	295.93
243.617	272.53
244.081	284.23
244.545	298.27
245.01	284.23
245.474	211.67
245.938	288.91
246.402	286.57
246.866	270.19
247.33	272.53
247.793	263.16
248.257	317
248.721	300.61
249.185	288.91
249.648	237.42
250.112	274.87
250.575	251.46
251.039	260.82
251.502	298.27
251.965	281.89
252.429	263.16
252.892	232.74
253.355	270.19
253.818	293.59
254.281	317
254.744	260.82
255.207	288.91
255.67	302.95
256.133	267.85
256.596	274.87
257.059	326.36
257.522	256.14
257.984	291.25
258.447	286.57
258.909	286.57
259.372	284.23
259.834	291.25
260.297	260.82
260.759	314.66
261.221	328.7
261.684	253.8
262.146	284.23
262.608	321.68
263.07	305.29
263.532	265.5
263.994	307.63
264.456	305.29
264.918	324.02
265.38	253.8
265.842	291.25
266.303	307.63
266.765	291.25
267.227	338.06
267.688	256.14
268.15	298.27
268.611	260.82
269.072	321.68
269.534	260.82
269.995	338.06
270.456	335.72
270.918	312.32
271.379	333.38
271.84	312.32
272.301	331.04
272.762	270.19
273.223	309.97
273.684	305.29
274.144	300.61
274.605	295.93
275.066	321.68
275.527	265.5
275.987	253.8
276.448	288.91
276.908	352.1
277.369	333.38
277.829	291.25
278.289	237.42
278.75	349.76
279.21	305.29
279.67	314.66
280.13	302.95
280.59	300.61
281.05	300.61
281.51	300.61
281.97	300.61
282.43	286.57
282.89	307.63
283.35	307.63
283.809	265.5
284.269	321.68
284.729	328.7
285.188	312.32
285.648	335.72
286.107	300.61
286.567	300.61
287.026	274.87
287.485	216.35
287.944	274.87
288.404	293.59
288.863	340.4
289.322	235.08
289.781	340.4
290.24	230.4
290.699	244.44
291.158	347.42
291.616	279.55
292.075	324.02
292.534	328.7
292.992	331.04
293.451	246.78
293.91	274.87
294.368	309.97
294.827	349.76
295.285	342.74
295.743	291.25
296.202	295.93
296.66	419.98
297.118	319.34
297.576	239.76
298.034	279.55
298.492	249.12
298.95	363.81
299.408	307.63
299.866	333.38
300.324	284.23
300.781	277.21
301.239	298.27
301.697	307.63
302.154	300.61
302.612	277.21
303.069	300.61
303.527	340.4
303.984	317
304.441	345.08
304.899	314.66
305.356	302.95
305.813	258.48
306.27	256.14
306.727	260.82
307.184	324.02
307.641	324.02
308.098	314.66
308.555	328.7
309.012	335.72
309.468	267.85
309.925	314.66
310.382	291.25
310.838	354.44
311.295	288.91
311.751	300.61
312.208	338.06
312.664	251.46
313.12	312.32
313.577	298.27
314.033	335.72
314.489	387.21
314.945	331.04
315.401	309.97
315.857	298.27
316.313	293.59
316.769	263.16
317.225	295.93
317.681	312.32
318.136	317
318.592	272.53
319.048	288.91
319.503	342.74
319.959	356.79
320.414	302.95
320.869	298.27
321.325	223.37
321.78	305.29
322.235	265.5
322.691	333.38
323.146	317
323.601	312.32
324.056	324.02
324.511	370.83
324.966	347.42
325.421	377.85
325.875	300.61
326.33	333.38
326.785	333.38
327.24	326.36
327.694	314.66
328.149	312.32
328.603	356.79
329.058	356.79
329.512	260.82
329.966	277.21
330.421	272.53
330.875	354.44
331.329	321.68
331.783	331.04
332.237	347.42
332.691	335.72
333.145	279.55
333.599	342.74
334.053	286.57
334.507	298.27
334.96	363.81
335.414	293.59
335.868	300.61
336.321	338.06
336.775	321.68
337.228	284.23
337.682	380.19
338.135	293.59
338.588	302.95
339.042	347.42
339.495	309.97
339.948	291.25
340.401	324.02
340.854	314.66
341.307	284.23
341.76	326.36
342.213	340.4
342.666	281.89
343.119	338.06
343.571	309.97
344.024	251.46
344.477	352.1
344.929	354.44
345.382	274.87
345.834	274.87
346.287	302.95
346.739	277.21
347.191	279.55
347.644	291.25
348.096	352.1
348.548	370.83
349	319.34
349.452	382.53
349.904	373.17
350.356	263.16
350.808	263.16
351.26	391.89
351.711	326.36
352.163	312.32
352.615	345.08
353.066	256.14
353.518	307.63
353.969	349.76
354.421	291.25
354.872	377.85
355.324	281.89
355.775	284.23
356.226	281.89
356.677	321.68
357.128	319.34
357.579	335.72
358.03	305.29
358.481	242.1
358.932	258.48
359.383	270.19
359.834	354.44
360.285	277.21
360.735	274.87
361.186	324.02
361.637	387.21
362.087	298.27
362.538	314.66
362.988	319.34
363.438	291.25
363.889	347.42
364.339	335.72
364.789	338.06
365.239	288.91
365.689	345.08
366.139	307.63
366.589	307.63
367.039	279.55
367.489	284.23
367.939	302.95
368.389	340.4
368.839	279.55
369.288	363.81
369.738	277.21
370.187	314.66
370.637	300.61
371.086	288.91
371.536	368.49
371.985	319.34
372.434	249.12
372.884	270.19
373.333	368.49
373.782	272.53
374.231	293.59
374.68	352.1
375.129	340.4
375.578	305.29
376.027	284.23
376.475	249.12
376.924	352.1
377.373	272.53
377.822	272.53
378.27	384.87
378.719	328.7
379.167	281.89
379.616	321.68
380.064	345.08
380.512	359.13
380.961	345.08
381.409	359.13
381.857	277.21
382.305	317
382.753	328.7
383.201	298.27
383.649	356.79
384.097	328.7
384.545	331.04
384.992	298.27
385.44	331.04
385.888	349.76
386.335	368.49
386.783	314.66
387.231	317
387.678	347.42
388.125	319.34
388.573	324.02
389.02	314.66
389.467	298.27
389.914	340.4
390.362	363.81
390.809	235.08
391.256	328.7
391.703	340.4
392.15	277.21
392.596	326.36
393.043	326.36
393.49	331.04
393.937	361.47
394.383	338.06
394.83	359.13
395.276	373.17
395.723	342.74
396.169	347.42
396.616	349.76
397.062	300.61
397.508	410.62
397.954	319.34
398.401	288.91
398.847	347.42
399.293	302.95
399.739	265.5
400.185	307.63
400.631	312.32
401.076	335.72
401.522	328.7
401.968	281.89
402.414	293.59
402.859	291.25
403.305	274.87
403.75	326.36
404.196	349.76
404.641	342.74
405.086	317
405.532	235.08
405.977	279.55
406.422	244.44
406.867	216.35
407.312	228.06
407.757	354.44
408.202	349.76
408.647	321.68
409.092	288.91
409.537	319.34
409.982	359.13
410.426	361.47
410.871	338.06
411.316	312.32
411.76	260.82
412.205	319.34
412.649	305.29
413.093	317
413.538	281.89
413.982	288.91
414.426	265.5
414.87	324.02
415.314	307.63
415.758	363.81
416.202	321.68
416.646	286.57
417.09	300.61
417.534	331.04
417.978	373.17
418.421	333.38
418.865	295.93
419.309	335.72
419.752	380.19
420.196	307.63
420.639	333.38
421.083	305.29
421.526	335.72
421.969	333.38
422.412	340.4
422.856	324.02
423.299	295.93
423.742	288.91
424.185	366.15
424.628	394.23
425.071	295.93
425.513	281.89
425.956	349.76
426.399	326.36
426.842	274.87
427.284	314.66
427.727	317
428.169	300.61
428.612	293.59
429.054	352.1
429.497	258.48
429.939	307.63
430.381	335.72
430.823	277.21
431.265	277.21
431.707	277.21
432.149	321.68
432.591	391.89
433.033	286.57
433.475	328.7
433.917	328.7
434.359	356.79
434.8	260.82
435.242	342.74
435.684	270.19
436.125	345.08
436.567	410.62
437.008	302.95
437.449	324.02
437.891	363.81
438.332	274.87
438.773	335.72
439.214	300.61
439.656	328.7
440.097	335.72
440.538	333.38
440.978	298.27
441.419	326.36
441.86	312.32
442.301	326.36
442.742	398.92
443.182	363.81
443.623	331.04
444.063	328.7
444.504	331.04
444.944	356.79
445.385	312.32
445.825	286.57
446.265	288.91
446.706	338.06
447.146	270.19
447.586	314.66
448.026	333.38
448.466	354.44
448.906	256.14
449.346	307.63
449.786	230.4
450.225	300.61
450.665	312.32
451.105	305.29
451.544	387.21
451.984	314.66
452.424	251.46
452.863	366.15
453.302	347.42
453.742	319.34
454.181	328.7
454.62	335.72
455.059	317
455.499	256.14
455.938	274.87
456.377	326.36
456.816	251.46
457.254	307.63
457.693	328.7
458.132	258.48
458.571	331.04
459.01	363.81
459.448	270.19
459.887	373.17
460.325	328.7
460.764	305.29
461.202	232.74
461.641	340.4
462.079	279.55
462.517	317
462.955	309.97
463.393	312.32
463.832	267.85
464.27	302.95
464.708	284.23
465.145	326.36
465.583	300.61
466.021	361.47
466.459	347.42
466.897	338.06
467.334	340.4
467.772	288.91
468.209	347.42
468.647	312.32
469.084	382.53
469.522	328.7
469.959	331.04
470.396	354.44
470.833	305.29
471.271	279.55
471.708	251.46
472.145	258.48
472.582	345.08
473.019	300.61
473.456	335.72
473.892	317
474.329	277.21
474.766	354.44
475.202	354.44
475.639	237.42
476.076	331.04
476.512	333.38
476.949	349.76
477.385	218.69
477.821	267.85
478.258	342.74
478.694	277.21
479.13	324.02
479.566	277.21
480.002	295.93
480.438	291.25
480.874	319.34
481.31	342.74
481.746	305.29
482.181	286.57
482.617	293.59
483.053	260.82
483.488	333.38
483.924	356.79
484.36	324.02
484.795	295.93
485.23	237.42
485.666	347.42
486.101	326.36
486.536	342.74
486.971	314.66
487.407	324.02
487.842	359.13
488.277	331.04
488.712	352.1
489.146	333.38
489.581	286.57
490.016	272.53
490.451	328.7
490.885	333.38
491.32	366.15
491.755	338.06
492.189	293.59
492.624	354.44
493.058	352.1
493.492	354.44
493.927	232.74
494.361	324.02
494.795	317
495.229	394.23
495.663	307.63
496.097	302.95
496.531	272.53
496.965	326.36
497.399	302.95
497.833	349.76
498.266	286.57
498.7	265.5
499.134	293.59
499.567	375.51
500.001	300.61
500.434	324.02
500.868	258.48
501.301	295.93
501.734	331.04
502.168	312.32
502.601	225.72
503.034	281.89
503.467	305.29
503.9	342.74
504.333	295.93
504.766	321.68
505.199	326.36
505.632	328.7
506.064	267.85
506.497	342.74
506.93	277.21
507.362	335.72
507.795	288.91
508.227	295.93
508.66	352.1
509.092	319.34
509.524	335.72
509.956	396.57
510.389	272.53
510.821	366.15
511.253	368.49
511.685	321.68
512.117	244.44
512.549	326.36
512.981	302.95
513.412	319.34
513.844	328.7
514.276	274.87
514.707	391.89
515.139	338.06
515.571	284.23
516.002	345.08
516.433	338.06
516.865	326.36
517.296	260.82
517.727	305.29
518.159	317
518.59	340.4
519.021	391.89
519.452	331.04
519.883	295.93
520.314	359.13
520.744	380.19
521.175	317
521.606	314.66
522.037	338.06
522.467	314.66
522.898	277.21
523.328	321.68
523.759	333.38
524.189	265.5
524.62	258.48
525.05	333.38
525.48	314.66
525.91	342.74
526.341	309.97
526.771	333.38
527.201	281.89
527.631	314.66
528.061	384.87
528.49	345.08
528.92	375.51
529.35	302.95
529.78	291.25
530.209	368.49
530.639	307.63
531.068	265.5
531.498	309.97
531.927	270.19
532.357	286.57
532.786	251.46
533.215	324.02
533.644	312.32
534.074	377.85
534.503	305.29
534.932	293.59
535.361	295.93
535.79	375.51
536.218	398.92
536.647	309.97
537.076	328.7
537.505	319.34
537.933	340.4
538.362	366.15
538.79	335.72
539.219	312.32
539.647	354.44
540.076	338.06
540.504	345.08
540.932	335.72
541.36	305.29
541.788	321.68
542.217	265.5
542.645	317
543.073	321.68
543.5	281.89
543.928	324.02
544.356	305.29
544.784	331.04
545.211	272.53
545.639	265.5
546.067	291.25
546.494	333.38
546.922	338.06
547.349	317
547.776	286.57
548.204	302.95
548.631	324.02
549.058	377.85
549.485	284.23
549.912	272.53
550.339	333.38
550.766	281.89
551.193	291.25
551.62	347.42
552.047	391.89
552.474	333.38
552.9	317
553.327	307.63
553.754	302.95
554.18	345.08
554.607	309.97
555.033	321.68
555.459	298.27
555.886	300.61
556.312	335.72
556.738	331.04
557.164	249.12
557.59	317
558.016	326.36
558.442	312.32
558.868	305.29
559.294	328.7
559.72	340.4
560.145	298.27
560.571	342.74
560.997	263.16
561.422	415.3
561.848	319.34
562.273	284.23
562.699	295.93
563.124	349.76
563.549	324.02
563.974	293.59
564.4	352.1
564.825	267.85
565.25	258.48
565.675	291.25
566.1	319.34
566.525	338.06
566.95	324.02
567.374	291.25
567.799	228.06
568.224	279.55
568.648	284.23
569.073	342.74
569.497	326.36
569.922	281.89
570.346	326.36
570.771	300.61
571.195	328.7
571.619	345.08
572.043	284.23
572.467	288.91
572.891	321.68
573.315	302.95
573.739	302.95
574.163	342.74
574.587	293.59
575.011	300.61
575.435	328.7
575.858	300.61
576.282	319.34
576.705	295.93
577.129	335.72
577.552	326.36
577.976	288.91
578.399	331.04
578.822	352.1
579.245	307.63
579.669	279.55
580.092	349.76
580.515	342.74
580.938	380.19
581.361	345.08
581.784	228.06
582.206	403.6
582.629	305.29
583.052	244.44
583.474	312.32
583.897	286.57
584.32	345.08
584.742	309.97
585.165	260.82
585.587	333.38
586.009	338.06
586.431	302.95
586.854	302.95
587.276	298.27
587.698	291.25
588.12	307.63
588.542	295.93
588.964	253.8
589.386	321.68
589.807	232.74
590.229	260.82
590.651	309.97
591.073	293.59
591.494	300.61
591.916	288.91
592.337	326.36
592.759	298.27
593.18	286.57
593.601	387.21
594.022	279.55
594.444	307.63
594.865	298.27
595.286	342.74
595.707	328.7
596.128	349.76
596.549	312.32
596.97	382.53
597.39	338.06
597.811	345.08
598.232	324.02
598.652	244.44
599.073	288.91
599.494	274.87
599.914	270.19
600.334	328.7
600.755	293.59
601.175	331.04
601.595	366.15
602.015	293.59
602.436	298.27
602.856	422.32
603.276	324.02
603.696	335.72
604.115	328.7
604.535	260.82
604.955	265.5
605.375	356.79
605.794	293.59
606.214	312.32
606.634	270.19
607.053	263.16
607.473	232.74
607.892	267.85
608.311	295.93
608.731	368.49
609.15	293.59
609.569	331.04
609.988	295.93
610.407	366.15
610.826	267.85
611.245	295.93
611.664	347.42
612.083	258.48
612.501	228.06
612.92	305.29
613.339	305.29
613.757	298.27
614.176	319.34
614.594	295.93
615.013	309.97
615.431	286.57
615.85	302.95
616.268	279.55
616.686	328.7
617.104	298.27
617.522	309.97
617.94	291.25
618.358	293.59
618.776	340.4
619.194	368.49
619.612	307.63
620.03	349.76
620.447	342.74
620.865	258.48
621.282	286.57
621.7	293.59
622.117	319.34
622.535	305.29
622.952	319.34
623.369	366.15
623.787	333.38
624.204	274.87
624.621	347.42
625.038	246.78
625.455	368.49
625.872	356.79
626.289	347.42
626.706	340.4
627.123	305.29
627.539	281.89
627.956	270.19
628.373	307.63
628.789	253.8
629.206	305.29
629.622	349.76
630.038	335.72
630.455	256.14
630.871	359.13
631.287	366.15
631.703	314.66
632.12	260.82
632.536	314.66
632.952	305.29
633.368	298.27
633.783	352.1
634.199	246.78
634.615	324.02
635.031	342.74
635.446	298.27
635.862	314.66
636.277	300.61
636.693	295.93
637.108	338.06
637.524	326.36
637.939	295.93
638.354	335.72
638.77	338.06
639.185	321.68
639.6	256.14
640.015	305.29
640.43	228.06
640.845	321.68
641.259	328.7
641.674	338.06
642.089	324.02
642.504	258.48
642.918	295.93
643.333	312.32
643.747	363.81
644.162	408.28
644.576	338.06
644.991	370.83
645.405	328.7
645.819	260.82
646.233	338.06
646.647	349.76
647.061	314.66
647.475	331.04
647.889	302.95
648.303	349.76
648.717	338.06
649.131	347.42
649.545	314.66
649.958	352.1
650.372	347.42
650.785	326.36
651.199	312.32
651.612	309.97
652.026	384.87
652.439	396.57
652.852	335.72
653.266	305.29
653.679	298.27
654.092	401.26
654.505	291.25
654.918	359.13
655.331	300.61
655.744	345.08
656.156	279.55
656.569	279.55
656.982	389.55
657.394	284.23
657.807	335.72
658.22	298.27
658.632	359.13
659.044	328.7
659.457	305.29
659.869	354.44
660.281	284.23
660.693	305.29
661.106	246.78
661.518	342.74
661.93	284.23
662.342	319.34
662.754	281.89
663.165	277.21
663.577	272.53
663.989	319.34
664.401	359.13
664.812	293.59
665.224	291.25
665.635	274.87
666.047	307.63
666.458	300.61
666.869	267.85
667.281	279.55
667.692	370.83
668.103	284.23
668.514	317
668.925	291.25
669.336	317
669.747	295.93
670.158	356.79
670.569	312.32
670.979	321.68
671.39	326.36
671.801	319.34
672.211	293.59
672.622	258.48
673.032	295.93
673.443	293.59
673.853	335.72
674.263	286.57
674.674	324.02
675.084	338.06
675.494	267.85
675.904	293.59
676.314	314.66
676.724	375.51
677.134	312.32
677.544	267.85
677.953	300.61
678.363	281.89
678.773	317
679.182	286.57
679.592	375.51
680.001	312.32
680.411	321.68
680.82	345.08
681.23	342.74
681.639	223.37
682.048	328.7
682.457	342.74
682.866	335.72
683.275	305.29
683.684	359.13
684.093	349.76
684.502	314.66
684.911	321.68
685.32	291.25
685.728	356.79
686.137	286.57
686.546	352.1
686.954	277.21
687.363	298.27
687.771	326.36
688.179	272.53
688.588	267.85
688.996	309.97
689.404	349.76
689.812	293.59
690.22	349.76
690.628	328.7
691.036	331.04
691.444	249.12
691.852	267.85
692.26	263.16
692.667	284.23
693.075	347.42
693.483	361.47
693.89	305.29
694.298	298.27
694.705	328.7
695.112	321.68
695.52	347.42
695.927	319.34
696.334	363.81
696.741	260.82
697.148	253.8
697.555	242.1
697.962	349.76
698.369	307.63
698.776	340.4
699.183	326.36
699.59	298.27
699.996	333.38
700.403	302.95
700.81	300.61
701.216	373.17
701.623	349.76
702.029	319.34
702.435	375.51
702.842	284.23
703.248	368.49
703.654	309.97
704.06	312.32
704.466	256.14
704.872	342.74
705.278	328.7
705.684	302.95
706.09	333.38
706.496	286.57
706.901	300.61
707.307	274.87
707.712	300.61
708.118	244.44
708.523	305.29
708.929	321.68
709.334	338.06
709.74	302.95
710.145	345.08
710.55	333.38
710.955	370.83
711.36	368.49
711.765	295.93
712.17	260.82
712.575	249.12
712.98	904.47
713.385	295.93
713.789	338.06
714.194	298.27
714.599	295.93
715.003	361.47
715.408	319.34
715.812	391.89
716.217	246.78
716.621	272.53
717.025	305.29
717.429	284.23
717.833	298.27
718.238	258.48
718.642	340.4
719.046	356.79
719.449	347.42
719.853	340.4
720.257	263.16
720.661	286.57
721.065	317
721.468	302.95
721.872	333.38
722.275	288.91
722.679	263.16
723.082	335.72
723.485	333.38
723.889	366.15
724.292	321.68
724.695	279.55
725.098	293.59
725.501	352.1
725.904	288.91
726.307	324.02
726.71	396.57
727.113	295.93
727.516	361.47
727.918	302.95
728.321	281.89
728.724	267.85
729.126	286.57
729.529	272.53
729.931	328.7
730.333	279.55
730.736	333.38
731.138	361.47
731.54	307.63
731.942	335.72
732.344	298.27
732.746	314.66
733.148	319.34
733.55	335.72
733.952	335.72
734.354	312.32
734.756	305.29
735.157	321.68
735.559	312.32
735.96	298.27
736.362	398.92
736.763	314.66
737.165	291.25
737.566	305.29
737.967	331.04
738.368	286.57
738.77	338.06
739.171	298.27
739.572	347.42
739.973	263.16
740.374	333.38
740.774	279.55
741.175	363.81
741.576	354.44
741.977	321.68
742.377	286.57
742.778	288.91
743.178	298.27
743.579	363.81
743.979	328.7
744.379	277.21
744.78	232.74
745.18	293.59
745.58	321.68
745.98	265.5
746.38	324.02
746.78	302.95
747.18	347.42
747.58	300.61
747.98	319.34
748.38	356.79
748.779	286.57
749.179	317
749.578	284.23
749.978	302.95
750.377	298.27
750.777	384.87
751.176	298.27
751.575	333.38
751.975	319.34
752.374	354.44
752.773	321.68
753.172	317
753.571	342.74
753.97	326.36
754.369	246.78
754.768	253.8
755.166	302.95
755.565	314.66
755.964	345.08
756.362	356.79
756.761	307.63
757.159	267.85
757.558	319.34
757.956	284.23
758.354	354.44
758.753	302.95
759.151	277.21
759.549	317
759.947	281.89
760.345	307.63
760.743	324.02
761.141	352.1
761.539	312.32
761.936	256.14
762.334	335.72
762.732	309.97
763.129	263.16
763.527	356.79
763.924	347.42
764.322	302.95
764.719	302.95
765.117	317
765.514	307.63
765.911	279.55
766.308	277.21
766.705	328.7
