Data from Al_FLMS009871__1267__16-47-53-669.txt Node

Date: Fri Mar 08 16:47:53 CST 2024
User: pe5414po
Spectrometer: FLMS00987
Trigger mode: 0
Integration Time (sec): 1.000000E-1
Scans to average: 1
Electric dark correction enabled: true
Nonlinearity correction enabled: false
Boxcar width: 0
XAxis mode: Wavelengths
Number of Pixels in Spectrum: 2048
>>>>>Begin Spectral Data<<<<<
188.938	-37.89
189.409	-37.89
189.879	-37.89
190.349	-89.38
190.819	-115.13
191.29	-110.44
191.76	-124.49
192.23	-82.36
192.7	-51.93
193.17	-82.36
193.64	-108.1
194.109	-30.87
194.579	-51.93
195.049	18.29
195.519	8.92
195.988	37.01
196.458	95.52
196.927	60.42
197.397	123.61
197.866	156.38
198.336	142.33
198.805	168.08
199.274	191.49
199.744	168.08
200.213	161.06
200.682	186.8
201.151	235.96
201.62	205.53
202.089	175.1
202.558	214.89
203.027	254.68
203.495	233.61
203.964	264.04
204.433	268.72
204.902	264.04
205.37	280.43
205.839	273.4
206.307	280.43
206.776	203.19
207.244	261.7
207.712	278.08
208.181	261.7
208.649	301.49
209.117	334.26
209.585	240.64
210.053	278.08
210.521	250
210.989	214.89
211.457	296.81
211.925	278.08
212.393	273.4
212.861	306.17
213.328	268.72
213.796	301.49
214.264	268.72
214.731	280.43
215.199	306.17
215.666	231.27
216.133	252.34
216.601	278.08
217.068	282.77
217.535	324.9
218.003	235.96
218.47	264.04
218.937	287.45
219.404	257.02
219.871	235.96
220.338	271.06
220.805	247.66
221.271	198.51
221.738	285.11
222.205	219.57
222.671	287.45
223.138	266.38
223.605	238.3
224.071	275.74
224.538	219.57
225.004	254.68
225.47	261.7
225.937	238.3
226.403	247.66
226.869	294.47
227.335	252.34
227.801	264.04
228.267	252.34
228.733	257.02
229.199	285.11
229.665	245.32
230.131	228.93
230.597	226.59
231.062	257.02
231.528	285.11
231.994	261.7
232.459	247.66
232.925	168.08
233.39	294.47
233.856	228.93
234.321	259.36
234.786	266.38
235.252	264.04
235.717	233.61
236.182	238.3
236.647	254.68
237.112	271.06
237.577	271.06
238.042	264.04
238.507	280.43
238.972	280.43
239.436	292.13
239.901	250
240.366	266.38
240.83	264.04
241.295	282.77
241.76	238.3
242.224	240.64
242.688	294.47
243.153	336.6
243.617	252.34
244.081	238.3
244.545	235.96
245.01	275.74
245.474	292.13
245.938	273.4
246.402	294.47
246.866	322.56
247.33	360
247.793	271.06
248.257	266.38
248.721	303.83
249.185	303.83
249.648	275.74
250.112	226.59
250.575	271.06
251.039	266.38
251.502	261.7
251.965	247.66
252.429	280.43
252.892	282.77
253.355	252.34
253.818	264.04
254.281	331.92
254.744	315.53
255.207	345.96
255.67	273.4
256.133	257.02
256.596	303.83
257.059	292.13
257.522	310.85
257.984	289.79
258.447	266.38
258.909	285.11
259.372	280.43
259.834	285.11
260.297	367.03
260.759	224.25
261.221	294.47
261.684	268.72
262.146	280.43
262.608	289.79
263.07	352.98
263.532	280.43
263.994	362.34
264.456	282.77
264.918	273.4
265.38	278.08
265.842	282.77
266.303	268.72
266.765	252.34
267.227	275.74
267.688	301.49
268.15	252.34
268.611	329.58
269.072	273.4
269.534	266.38
269.995	285.11
270.456	338.94
270.918	285.11
271.379	285.11
271.84	289.79
272.301	257.02
272.762	261.7
273.223	303.83
273.684	275.74
274.144	301.49
274.605	355.32
275.066	324.9
275.527	266.38
275.987	294.47
276.448	327.24
276.908	367.03
277.369	348.3
277.829	242.98
278.289	266.38
278.75	264.04
279.21	228.93
279.67	317.87
280.13	282.77
280.59	406.81
281.05	257.02
281.51	285.11
281.97	343.62
282.43	360
282.89	289.79
283.35	308.51
283.809	313.19
284.269	296.81
284.729	271.06
285.188	240.64
285.648	329.58
286.107	336.6
286.567	376.39
287.026	292.13
287.485	320.21
287.944	266.38
288.404	273.4
288.863	360
289.322	289.79
289.781	242.98
290.24	257.02
290.699	322.56
291.158	327.24
291.616	338.94
292.075	306.17
292.534	275.74
292.992	374.05
293.451	282.77
293.91	275.74
294.368	273.4
294.827	247.66
295.285	268.72
295.743	327.24
296.202	331.92
296.66	308.51
297.118	238.3
297.576	296.81
298.034	245.32
298.492	294.47
298.95	282.77
299.408	299.15
299.866	240.64
300.324	266.38
300.781	317.87
301.239	331.92
301.697	189.14
302.154	250
302.612	308.51
303.069	306.17
303.527	327.24
303.984	331.92
304.441	306.17
304.899	310.85
305.356	324.9
305.813	296.81
306.27	266.38
306.727	301.49
307.184	317.87
307.641	343.62
308.098	259.36
308.555	257.02
309.012	317.87
309.468	268.72
309.925	296.81
310.382	254.68
310.838	313.19
311.295	306.17
311.751	310.85
312.208	310.85
312.664	336.6
313.12	345.96
313.577	348.3
314.033	317.87
314.489	341.28
314.945	296.81
315.401	231.27
315.857	266.38
316.313	301.49
316.769	299.15
317.225	301.49
317.681	268.72
318.136	364.68
318.592	242.98
319.048	292.13
319.503	313.19
319.959	334.26
320.414	296.81
320.869	306.17
321.325	247.66
321.78	257.02
322.235	273.4
322.691	292.13
323.146	306.17
323.601	303.83
324.056	341.28
324.511	327.24
324.966	336.6
325.421	385.75
325.875	303.83
326.33	299.15
326.785	273.4
327.24	348.3
327.694	355.32
328.149	360
328.603	306.17
329.058	214.89
329.512	355.32
329.966	282.77
330.421	327.24
330.875	306.17
331.329	278.08
331.783	306.17
332.237	374.05
332.691	273.4
333.145	343.62
333.599	310.85
334.053	301.49
334.507	282.77
334.96	317.87
335.414	320.21
335.868	299.15
336.321	350.64
336.775	322.56
337.228	282.77
337.682	350.64
338.135	320.21
338.588	289.79
339.042	322.56
339.495	271.06
339.948	345.96
340.401	313.19
340.854	310.85
341.307	271.06
341.76	338.94
342.213	320.21
342.666	317.87
343.119	294.47
343.571	221.91
344.024	313.19
344.477	317.87
344.929	278.08
345.382	294.47
345.834	287.45
346.287	308.51
346.739	338.94
347.191	240.64
347.644	294.47
348.096	254.68
348.548	287.45
349	341.28
349.452	296.81
349.904	331.92
350.356	285.11
350.808	268.72
351.26	360
351.711	282.77
352.163	313.19
352.615	294.47
353.066	310.85
353.518	308.51
353.969	280.43
354.421	317.87
354.872	341.28
355.324	322.56
355.775	235.96
356.226	320.21
356.677	348.3
357.128	257.02
357.579	261.7
358.03	397.45
358.481	350.64
358.932	294.47
359.383	271.06
359.834	250
360.285	388.09
360.735	313.19
361.186	341.28
361.637	310.85
362.087	306.17
362.538	303.83
362.988	313.19
363.438	364.68
363.889	299.15
364.339	324.9
364.789	308.51
365.239	317.87
365.689	371.71
366.139	310.85
366.589	329.58
367.039	320.21
367.489	296.81
367.939	292.13
368.389	322.56
368.839	317.87
369.288	336.6
369.738	296.81
370.187	350.64
370.637	280.43
371.086	315.53
371.536	357.66
371.985	315.53
372.434	341.28
372.884	310.85
373.333	254.68
373.782	299.15
374.231	324.9
374.68	331.92
375.129	313.19
375.578	322.56
376.027	334.26
376.475	343.62
376.924	289.79
377.373	289.79
377.822	360
378.27	282.77
378.719	320.21
379.167	268.72
379.616	287.45
380.064	271.06
380.512	303.83
380.961	294.47
381.409	282.77
381.857	338.94
382.305	278.08
382.753	266.38
383.201	271.06
383.649	345.96
384.097	317.87
384.545	376.39
384.992	336.6
385.44	343.62
385.888	315.53
386.335	296.81
386.783	242.98
387.231	329.58
387.678	296.81
388.125	296.81
388.573	287.45
389.02	324.9
389.467	327.24
389.914	259.36
390.362	268.72
390.809	306.17
391.256	306.17
391.703	310.85
392.15	343.62
392.596	329.58
393.043	306.17
393.49	264.04
393.937	345.96
394.383	306.17
394.83	350.64
395.276	282.77
395.723	280.43
396.169	320.21
396.616	329.58
397.062	308.51
397.508	331.92
397.954	254.68
398.401	271.06
398.847	285.11
399.293	245.32
399.739	331.92
400.185	341.28
400.631	357.66
401.076	285.11
401.522	364.68
401.968	331.92
402.414	289.79
402.859	308.51
403.305	252.34
403.75	324.9
404.196	313.19
404.641	338.94
405.086	324.9
405.532	310.85
405.977	320.21
406.422	275.74
406.867	303.83
407.312	273.4
407.757	322.56
408.202	294.47
408.647	350.64
409.092	303.83
409.537	252.34
409.982	247.66
410.426	313.19
410.871	341.28
411.316	299.15
411.76	329.58
412.205	261.7
412.649	303.83
413.093	317.87
413.538	282.77
413.982	271.06
414.426	268.72
414.87	266.38
415.314	338.94
415.758	275.74
416.202	352.98
416.646	273.4
417.09	303.83
417.534	303.83
417.978	331.92
418.421	310.85
418.865	341.28
419.309	271.06
419.752	313.19
420.196	266.38
420.639	308.51
421.083	317.87
421.526	338.94
421.969	374.05
422.412	242.98
422.856	250
423.299	306.17
423.742	299.15
424.185	367.03
424.628	292.13
425.071	324.9
425.513	343.62
425.956	296.81
426.399	388.09
426.842	331.92
427.284	315.53
427.727	338.94
428.169	329.58
428.612	341.28
429.054	224.25
429.497	282.77
429.939	303.83
430.381	369.37
430.823	345.96
431.265	367.03
431.707	388.09
432.149	331.92
432.591	336.6
433.033	320.21
433.475	266.38
433.917	280.43
434.359	327.24
434.8	292.13
435.242	280.43
435.684	271.06
436.125	324.9
436.567	278.08
437.008	350.64
437.449	292.13
437.891	320.21
438.332	324.9
438.773	278.08
439.214	266.38
439.656	294.47
440.097	355.32
440.538	306.17
440.978	273.4
441.419	322.56
441.86	336.6
442.301	352.98
442.742	310.85
443.182	331.92
443.623	322.56
444.063	352.98
444.504	338.94
444.944	331.92
445.385	313.19
445.825	289.79
446.265	338.94
446.706	308.51
447.146	308.51
447.586	355.32
448.026	362.34
448.466	308.51
448.906	348.3
449.346	315.53
449.786	348.3
450.225	287.45
450.665	310.85
451.105	308.51
451.544	367.03
451.984	364.68
452.424	385.75
452.863	317.87
453.302	324.9
453.742	299.15
454.181	357.66
454.62	247.66
455.059	315.53
455.499	306.17
455.938	320.21
456.377	383.41
456.816	266.38
457.254	315.53
457.693	348.3
458.132	313.19
458.571	287.45
459.01	331.92
459.448	334.26
459.887	299.15
460.325	317.87
460.764	352.98
461.202	345.96
461.641	296.81
462.079	334.26
462.517	324.9
462.955	320.21
463.393	296.81
463.832	324.9
464.27	381.07
464.708	338.94
465.145	374.05
465.583	348.3
466.021	273.4
466.459	315.53
466.897	289.79
467.334	334.26
467.772	331.92
468.209	360
468.647	282.77
469.084	268.72
469.522	292.13
469.959	299.15
470.396	322.56
470.833	303.83
471.271	357.66
471.708	303.83
472.145	320.21
472.582	271.06
473.019	388.09
473.456	303.83
473.892	271.06
474.329	392.77
474.766	273.4
475.202	299.15
475.639	341.28
476.076	301.49
476.512	324.9
476.949	280.43
477.385	278.08
477.821	317.87
478.258	308.51
478.694	296.81
479.13	329.58
479.566	352.98
480.002	296.81
480.438	338.94
480.874	343.62
481.31	303.83
481.746	292.13
482.181	250
482.617	322.56
483.053	310.85
483.488	285.11
483.924	280.43
484.36	235.96
484.795	331.92
485.23	345.96
485.666	303.83
486.101	338.94
486.536	345.96
486.971	271.06
487.407	357.66
487.842	266.38
488.277	360
488.712	362.34
489.146	320.21
489.581	303.83
490.016	388.09
490.451	285.11
490.885	306.17
491.32	294.47
491.755	350.64
492.189	378.73
492.624	369.37
493.058	315.53
493.492	280.43
493.927	378.73
494.361	294.47
494.795	369.37
495.229	310.85
495.663	301.49
496.097	350.64
496.531	299.15
496.965	322.56
497.399	317.87
497.833	345.96
498.266	280.43
498.7	301.49
499.134	341.28
499.567	371.71
500.001	301.49
500.434	334.26
500.868	341.28
501.301	294.47
501.734	343.62
502.168	313.19
502.601	315.53
503.034	327.24
503.467	322.56
503.9	324.9
504.333	242.98
504.766	338.94
505.199	292.13
505.632	247.66
506.064	324.9
506.497	320.21
506.93	289.79
507.362	331.92
507.795	374.05
508.227	306.17
508.66	252.34
509.092	338.94
509.524	275.74
509.956	381.07
510.389	296.81
510.821	338.94
511.253	350.64
511.685	341.28
512.117	315.53
512.549	273.4
512.981	275.74
513.412	257.02
513.844	294.47
514.276	292.13
514.707	336.6
515.139	345.96
515.571	289.79
516.002	313.19
516.433	271.06
516.865	324.9
517.296	287.45
517.727	282.77
518.159	261.7
518.59	343.62
519.021	334.26
519.452	385.75
519.883	308.51
520.314	235.96
520.744	315.53
521.175	240.64
521.606	308.51
522.037	254.68
522.467	378.73
522.898	324.9
523.328	282.77
523.759	338.94
524.189	345.96
524.62	261.7
525.05	287.45
525.48	336.6
525.91	285.11
526.341	282.77
526.771	343.62
527.201	362.34
527.631	310.85
528.061	285.11
528.49	289.79
528.92	240.64
529.35	338.94
529.78	364.68
530.209	420.86
530.639	329.58
531.068	306.17
531.498	336.6
531.927	343.62
532.357	310.85
532.786	322.56
533.215	367.03
533.644	329.58
534.074	334.26
534.503	336.6
534.932	247.66
535.361	327.24
535.79	355.32
536.218	264.04
536.647	306.17
537.076	303.83
537.505	324.9
537.933	348.3
538.362	317.87
538.79	282.77
539.219	369.37
539.647	301.49
540.076	275.74
540.504	320.21
540.932	341.28
541.36	242.98
541.788	271.06
542.217	345.96
542.645	299.15
543.073	388.09
543.5	278.08
543.928	268.72
544.356	329.58
544.784	301.49
545.211	313.19
545.639	320.21
546.067	310.85
546.494	355.32
546.922	374.05
547.349	364.68
547.776	317.87
548.204	364.68
548.631	282.77
549.058	268.72
549.485	385.75
549.912	320.21
550.339	329.58
550.766	355.32
551.193	352.98
551.62	317.87
552.047	341.28
552.474	327.24
552.9	310.85
553.327	376.39
553.754	282.77
554.18	289.79
554.607	324.9
555.033	285.11
555.459	369.37
555.886	327.24
556.312	324.9
556.738	324.9
557.164	294.47
557.59	303.83
558.016	315.53
558.442	338.94
558.868	306.17
559.294	331.92
559.72	327.24
560.145	278.08
560.571	308.51
560.997	371.71
561.422	345.96
561.848	357.66
562.273	381.07
562.699	357.66
563.124	315.53
563.549	315.53
563.974	355.32
564.4	376.39
564.825	317.87
565.25	338.94
565.675	306.17
566.1	287.45
566.525	317.87
566.95	315.53
567.374	313.19
567.799	282.77
568.224	306.17
568.648	315.53
569.073	343.62
569.497	303.83
569.922	317.87
570.346	301.49
570.771	357.66
571.195	315.53
571.619	322.56
572.043	259.36
572.467	327.24
572.891	275.74
573.315	343.62
573.739	271.06
574.163	338.94
574.587	268.72
575.011	299.15
575.435	301.49
575.858	287.45
576.282	257.02
576.705	334.26
577.129	221.91
577.552	341.28
577.976	315.53
578.399	345.96
578.822	306.17
579.245	338.94
579.669	336.6
580.092	367.03
580.515	329.58
580.938	245.32
581.361	289.79
581.784	357.66
582.206	369.37
582.629	238.3
583.052	294.47
583.474	310.85
583.897	341.28
584.32	341.28
584.742	313.19
585.165	247.66
585.587	327.24
586.009	336.6
586.431	285.11
586.854	294.47
587.276	322.56
587.698	235.96
588.12	343.62
588.542	345.96
588.964	275.74
589.386	327.24
589.807	257.02
590.229	296.81
590.651	315.53
591.073	350.64
591.494	329.58
591.916	289.79
592.337	348.3
592.759	348.3
593.18	341.28
593.601	294.47
594.022	338.94
594.444	275.74
594.865	336.6
595.286	345.96
595.707	360
596.128	327.24
596.549	317.87
596.97	235.96
597.39	296.81
597.811	383.41
598.232	329.58
598.652	395.11
599.073	364.68
599.494	399.79
599.914	338.94
600.334	303.83
600.755	317.87
601.175	301.49
601.595	338.94
602.015	275.74
602.436	271.06
602.856	432.56
603.276	313.19
603.696	313.19
604.115	383.41
604.535	324.9
604.955	313.19
605.375	369.37
605.794	378.73
606.214	357.66
606.634	273.4
607.053	313.19
607.473	285.11
607.892	280.43
608.311	313.19
608.731	252.34
609.15	285.11
609.569	308.51
609.988	338.94
610.407	294.47
610.826	329.58
611.245	317.87
611.664	296.81
612.083	322.56
612.501	331.92
612.92	374.05
613.339	306.17
613.757	324.9
614.176	313.19
614.594	308.51
615.013	315.53
615.431	282.77
615.85	301.49
616.268	303.83
616.686	264.04
617.104	278.08
617.522	285.11
617.94	280.43
618.358	317.87
618.776	336.6
619.194	334.26
619.612	303.83
620.03	315.53
620.447	278.08
620.865	324.9
621.282	292.13
621.7	308.51
622.117	254.68
622.535	287.45
622.952	287.45
623.369	317.87
623.787	310.85
624.204	294.47
624.621	310.85
625.038	343.62
625.455	343.62
625.872	322.56
626.289	364.68
626.706	341.28
627.123	324.9
627.539	348.3
627.956	299.15
628.373	348.3
628.789	280.43
629.206	273.4
629.622	341.28
630.038	296.81
630.455	308.51
630.871	329.58
631.287	289.79
631.703	317.87
632.12	367.03
632.536	306.17
632.952	355.32
633.368	390.43
633.783	334.26
634.199	374.05
634.615	334.26
635.031	320.21
635.446	273.4
635.862	296.81
636.277	352.98
636.693	296.81
637.108	336.6
637.524	299.15
637.939	334.26
638.354	296.81
638.77	320.21
639.185	282.77
639.6	268.72
640.015	310.85
640.43	245.32
640.845	350.64
641.259	303.83
641.674	357.66
642.089	275.74
642.504	355.32
642.918	313.19
643.333	313.19
643.747	369.37
644.162	336.6
644.576	287.45
644.991	294.47
645.405	336.6
645.819	355.32
646.233	348.3
646.647	320.21
647.061	313.19
647.475	310.85
647.889	306.17
648.303	214.89
648.717	285.11
649.131	257.02
649.545	350.64
649.958	315.53
650.372	292.13
650.785	341.28
651.199	257.02
651.612	289.79
652.026	282.77
652.439	266.38
652.852	317.87
653.266	233.61
653.679	352.98
654.092	303.83
654.505	266.38
654.918	320.21
655.331	320.21
655.744	278.08
656.156	317.87
656.569	303.83
656.982	261.7
657.394	327.24
657.807	282.77
658.22	362.34
658.632	289.79
659.044	259.36
659.457	338.94
659.869	313.19
660.281	352.98
660.693	315.53
661.106	264.04
661.518	322.56
661.93	360
662.342	324.9
662.754	278.08
663.165	374.05
663.577	308.51
663.989	289.79
664.401	301.49
664.812	352.98
665.224	296.81
665.635	329.58
666.047	301.49
666.458	294.47
666.869	367.03
667.281	329.58
667.692	294.47
668.103	355.32
668.514	336.6
668.925	336.6
669.336	303.83
669.747	327.24
670.158	320.21
670.569	343.62
670.979	352.98
671.39	308.51
671.801	315.53
672.211	364.68
672.622	310.85
673.032	329.58
673.443	352.98
673.853	329.58
674.263	348.3
674.674	331.92
675.084	317.87
675.494	231.27
675.904	331.92
676.314	341.28
676.724	294.47
677.134	324.9
677.544	352.98
677.953	289.79
678.363	336.6
678.773	331.92
679.182	287.45
679.592	371.71
680.001	310.85
680.411	315.53
680.82	331.92
681.23	264.04
681.639	306.17
682.048	289.79
682.457	329.58
682.866	275.74
683.275	313.19
683.684	409.15
684.093	324.9
684.502	327.24
684.911	247.66
685.32	420.86
685.728	343.62
686.137	343.62
686.546	381.07
686.954	374.05
687.363	329.58
687.771	278.08
688.179	264.04
688.588	320.21
688.996	395.11
689.404	322.56
689.812	343.62
690.22	331.92
690.628	285.11
691.036	299.15
691.444	331.92
691.852	343.62
692.26	345.96
692.667	327.24
693.075	315.53
693.483	345.96
693.89	334.26
694.298	273.4
694.705	282.77
695.112	324.9
695.52	320.21
695.927	320.21
696.334	411.5
696.741	350.64
697.148	362.34
697.555	331.92
697.962	345.96
698.369	329.58
698.776	261.7
699.183	320.21
699.59	313.19
699.996	264.04
700.403	322.56
700.81	306.17
701.216	313.19
701.623	280.43
702.029	285.11
702.435	294.47
702.842	413.84
703.248	308.51
703.654	278.08
704.06	210.21
704.466	266.38
704.872	303.83
705.278	329.58
705.684	301.49
706.09	289.79
706.496	317.87
706.901	336.6
707.307	261.7
707.712	327.24
708.118	362.34
708.523	320.21
708.929	324.9
709.334	329.58
709.74	287.45
710.145	292.13
710.55	271.06
710.955	287.45
711.36	322.56
711.765	324.9
712.17	252.34
712.575	287.45
712.98	947.48
713.385	308.51
713.789	371.71
714.194	376.39
714.599	338.94
715.003	299.15
715.408	390.43
715.812	371.71
716.217	303.83
716.621	341.28
717.025	301.49
717.429	390.43
717.833	301.49
718.238	261.7
718.642	336.6
719.046	336.6
719.449	296.81
719.853	294.47
720.257	338.94
720.661	245.32
721.065	292.13
721.468	250
721.872	336.6
722.275	331.92
722.679	285.11
723.082	303.83
723.485	306.17
723.889	254.68
724.292	308.51
724.695	327.24
725.098	289.79
725.501	268.72
725.904	299.15
726.307	399.79
726.71	338.94
727.113	268.72
727.516	254.68
727.918	306.17
728.321	292.13
728.724	336.6
729.126	287.45
729.529	327.24
729.931	301.49
730.333	299.15
730.736	240.64
731.138	320.21
731.54	343.62
731.942	355.32
732.344	362.34
732.746	310.85
733.148	355.32
733.55	301.49
733.952	268.72
734.354	273.4
734.756	313.19
735.157	338.94
735.559	336.6
735.96	301.49
736.362	364.68
736.763	299.15
737.165	317.87
737.566	343.62
737.967	285.11
738.368	259.36
738.77	287.45
739.171	292.13
739.572	385.75
739.973	285.11
740.374	264.04
740.774	264.04
741.175	336.6
741.576	299.15
741.977	266.38
742.377	280.43
742.778	317.87
743.178	306.17
743.579	292.13
743.979	308.51
744.379	315.53
744.78	329.58
745.18	306.17
745.58	322.56
745.98	296.81
746.38	348.3
746.78	299.15
747.18	338.94
747.58	303.83
747.98	329.58
748.38	345.96
748.779	362.34
749.179	303.83
749.578	294.47
749.978	364.68
750.377	287.45
750.777	301.49
751.176	350.64
751.575	331.92
751.975	362.34
752.374	278.08
752.773	294.47
753.172	360
753.571	350.64
753.97	310.85
754.369	343.62
754.768	317.87
755.166	271.06
755.565	430.22
755.964	336.6
756.362	292.13
756.761	343.62
757.159	371.71
757.558	268.72
757.956	320.21
758.354	280.43
758.753	385.75
759.151	296.81
759.549	273.4
759.947	383.41
760.345	287.45
760.743	355.32
761.141	324.9
761.539	350.64
761.936	334.26
762.334	296.81
762.732	320.21
763.129	296.81
763.527	242.98
763.924	334.26
764.322	207.87
764.719	313.19
765.117	296.81
765.514	245.32
765.911	273.4
766.308	317.87
