Data from Al_FLMS009871__1270__16-47-53-969.txt Node

Date: Fri Mar 08 16:47:53 CST 2024
User: pe5414po
Spectrometer: FLMS00987
Trigger mode: 0
Integration Time (sec): 1.000000E-1
Scans to average: 1
Electric dark correction enabled: true
Nonlinearity correction enabled: false
Boxcar width: 0
XAxis mode: Wavelengths
Number of Pixels in Spectrum: 2048
>>>>>Begin Spectral Data<<<<<
188.938	-19.16
189.409	-19.16
189.879	-19.16
190.349	-84.7
190.819	-58.95
191.29	-58.95
191.76	-122.15
192.23	-101.08
192.7	-105.76
193.17	-94.06
193.64	-47.25
194.109	-21.5
194.579	-21.5
195.049	8.92
195.519	-35.55
195.988	34.67
196.458	51.05
196.927	111.91
197.397	95.52
197.866	147.01
198.336	158.72
198.805	163.4
199.274	137.65
199.744	235.96
200.213	168.08
200.682	189.14
201.151	261.7
201.62	200.85
202.089	179.78
202.558	287.45
203.027	264.04
203.495	282.77
203.964	271.06
204.433	235.96
204.902	322.56
205.37	264.04
205.839	334.26
206.307	292.13
206.776	324.9
207.244	261.7
207.712	278.08
208.181	327.24
208.649	348.3
209.117	285.11
209.585	320.21
210.053	242.98
210.521	306.17
210.989	268.72
211.457	252.34
211.925	390.43
212.393	245.32
212.861	285.11
213.328	303.83
213.796	348.3
214.264	303.83
214.731	301.49
215.199	313.19
215.666	252.34
216.133	296.81
216.601	275.74
217.068	324.9
217.535	303.83
218.003	315.53
218.47	266.38
218.937	242.98
219.404	271.06
219.871	280.43
220.338	233.61
220.805	214.89
221.271	296.81
221.738	264.04
222.205	273.4
222.671	240.64
223.138	268.72
223.605	261.7
224.071	329.58
224.538	338.94
225.004	247.66
225.47	331.92
225.937	287.45
226.403	250
226.869	273.4
227.335	341.28
227.801	308.51
228.267	252.34
228.733	308.51
229.199	250
229.665	257.02
230.131	250
230.597	292.13
231.062	245.32
231.528	238.3
231.994	252.34
232.459	271.06
232.925	320.21
233.39	250
233.856	271.06
234.321	343.62
234.786	296.81
235.252	287.45
235.717	257.02
236.182	343.62
236.647	271.06
237.112	331.92
237.577	299.15
238.042	294.47
238.507	299.15
238.972	296.81
239.436	238.3
239.901	306.17
240.366	266.38
240.83	306.17
241.295	228.93
241.76	374.05
242.224	252.34
242.688	261.7
243.153	331.92
243.617	266.38
244.081	273.4
244.545	278.08
245.01	245.32
245.474	275.74
245.938	336.6
246.402	320.21
246.866	238.3
247.33	264.04
247.793	322.56
248.257	250
248.721	287.45
249.185	303.83
249.648	245.32
250.112	257.02
250.575	299.15
251.039	308.51
251.502	289.79
251.965	287.45
252.429	341.28
252.892	296.81
253.355	343.62
253.818	306.17
254.281	233.61
254.744	336.6
255.207	322.56
255.67	294.47
256.133	313.19
256.596	310.85
257.059	273.4
257.522	299.15
257.984	294.47
258.447	289.79
258.909	315.53
259.372	310.85
259.834	240.64
260.297	224.25
260.759	240.64
261.221	336.6
261.684	268.72
262.146	294.47
262.608	278.08
263.07	313.19
263.532	310.85
263.994	364.68
264.456	303.83
264.918	275.74
265.38	317.87
265.842	324.9
266.303	296.81
266.765	360
267.227	275.74
267.688	250
268.15	331.92
268.611	317.87
269.072	341.28
269.534	378.73
269.995	331.92
270.456	303.83
270.918	362.34
271.379	275.74
271.84	285.11
272.301	308.51
272.762	294.47
273.223	364.68
273.684	266.38
274.144	331.92
274.605	338.94
275.066	313.19
275.527	329.58
275.987	308.51
276.448	345.96
276.908	287.45
277.369	252.34
277.829	338.94
278.289	292.13
278.75	362.34
279.21	392.77
279.67	301.49
280.13	278.08
280.59	282.77
281.05	383.41
281.51	320.21
281.97	282.77
282.43	313.19
282.89	273.4
283.35	296.81
283.809	221.91
284.269	338.94
284.729	364.68
285.188	301.49
285.648	303.83
286.107	345.96
286.567	287.45
287.026	296.81
287.485	320.21
287.944	345.96
288.404	315.53
288.863	275.74
289.322	299.15
289.781	310.85
290.24	367.03
290.699	364.68
291.158	289.79
291.616	352.98
292.075	254.68
292.534	324.9
292.992	357.66
293.451	259.36
293.91	336.6
294.368	338.94
294.827	294.47
295.285	306.17
295.743	303.83
296.202	292.13
296.66	352.98
297.118	299.15
297.576	392.77
298.034	275.74
298.492	301.49
298.95	294.47
299.408	329.58
299.866	278.08
300.324	322.56
300.781	357.66
301.239	271.06
301.697	315.53
302.154	299.15
302.612	294.47
303.069	362.34
303.527	352.98
303.984	341.28
304.441	301.49
304.899	327.24
305.356	322.56
305.813	313.19
306.27	303.83
306.727	338.94
307.184	315.53
307.641	317.87
308.098	345.96
308.555	317.87
309.012	315.53
309.468	257.02
309.925	306.17
310.382	320.21
310.838	292.13
311.295	331.92
311.751	364.68
312.208	327.24
312.664	334.26
313.12	245.32
313.577	313.19
314.033	338.94
314.489	306.17
314.945	341.28
315.401	329.58
315.857	350.64
316.313	371.71
316.769	341.28
317.225	374.05
317.681	362.34
318.136	242.98
318.592	275.74
319.048	275.74
319.503	306.17
319.959	388.09
320.414	287.45
320.869	303.83
321.325	364.68
321.78	289.79
322.235	299.15
322.691	308.51
323.146	355.32
323.601	278.08
324.056	362.34
324.511	343.62
324.966	329.58
325.421	329.58
325.875	308.51
326.33	355.32
326.785	303.83
327.24	306.17
327.694	320.21
328.149	324.9
328.603	352.98
329.058	299.15
329.512	341.28
329.966	310.85
330.421	355.32
330.875	299.15
331.329	315.53
331.783	238.3
332.237	362.34
332.691	395.11
333.145	320.21
333.599	303.83
334.053	322.56
334.507	238.3
334.96	268.72
335.414	287.45
335.868	369.37
336.321	345.96
336.775	341.28
337.228	313.19
337.682	383.41
338.135	242.98
338.588	310.85
339.042	317.87
339.495	271.06
339.948	324.9
340.401	292.13
340.854	324.9
341.307	362.34
341.76	315.53
342.213	350.64
342.666	343.62
343.119	350.64
343.571	299.15
344.024	350.64
344.477	350.64
344.929	289.79
345.382	280.43
345.834	273.4
346.287	275.74
346.739	336.6
347.191	338.94
347.644	320.21
348.096	259.36
348.548	341.28
349	254.68
349.452	310.85
349.904	324.9
350.356	308.51
350.808	434.9
351.26	310.85
351.711	296.81
352.163	224.25
352.615	310.85
353.066	289.79
353.518	334.26
353.969	289.79
354.421	320.21
354.872	376.39
355.324	306.17
355.775	360
356.226	352.98
356.677	338.94
357.128	301.49
357.579	331.92
358.03	285.11
358.481	322.56
358.932	273.4
359.383	381.07
359.834	336.6
360.285	327.24
360.735	294.47
361.186	371.71
361.637	266.38
362.087	343.62
362.538	320.21
362.988	294.47
363.438	322.56
363.889	364.68
364.339	355.32
364.789	324.9
365.239	257.02
365.689	322.56
366.139	343.62
366.589	296.81
367.039	275.74
367.489	345.96
367.939	331.92
368.389	322.56
368.839	303.83
369.288	317.87
369.738	315.53
370.187	317.87
370.637	317.87
371.086	360
371.536	296.81
371.985	345.96
372.434	306.17
372.884	320.21
373.333	336.6
373.782	299.15
374.231	259.36
374.68	317.87
375.129	324.9
375.578	287.45
376.027	264.04
376.475	271.06
376.924	273.4
377.373	285.11
377.822	289.79
378.27	348.3
378.719	315.53
379.167	259.36
379.616	383.41
380.064	362.34
380.512	385.75
380.961	345.96
381.409	360
381.857	320.21
382.305	317.87
382.753	324.9
383.201	292.13
383.649	303.83
384.097	334.26
384.545	320.21
384.992	369.37
385.44	310.85
385.888	271.06
386.335	275.74
386.783	343.62
387.231	313.19
387.678	357.66
388.125	367.03
388.573	355.32
389.02	322.56
389.467	364.68
389.914	320.21
390.362	371.71
390.809	282.77
391.256	392.77
391.703	282.77
392.15	282.77
392.596	317.87
393.043	301.49
393.49	315.53
393.937	348.3
394.383	376.39
394.83	329.58
395.276	371.71
395.723	336.6
396.169	301.49
396.616	324.9
397.062	315.53
397.508	275.74
397.954	306.17
398.401	278.08
398.847	360
399.293	336.6
399.739	280.43
400.185	308.51
400.631	317.87
401.076	308.51
401.522	334.26
401.968	348.3
402.414	348.3
402.859	301.49
403.305	324.9
403.75	355.32
404.196	395.11
404.641	334.26
405.086	324.9
405.532	299.15
405.977	329.58
406.422	385.75
406.867	350.64
407.312	313.19
407.757	338.94
408.202	301.49
408.647	348.3
409.092	313.19
409.537	331.92
409.982	352.98
410.426	329.58
410.871	367.03
411.316	350.64
411.76	383.41
412.205	336.6
412.649	334.26
413.093	250
413.538	308.51
413.982	329.58
414.426	320.21
414.87	294.47
415.314	327.24
415.758	381.07
416.202	334.26
416.646	334.26
417.09	322.56
417.534	273.4
417.978	285.11
418.421	322.56
418.865	331.92
419.309	341.28
419.752	352.98
420.196	322.56
420.639	294.47
421.083	355.32
421.526	345.96
421.969	345.96
422.412	327.24
422.856	350.64
423.299	320.21
423.742	352.98
424.185	296.81
424.628	334.26
425.071	317.87
425.513	315.53
425.956	308.51
426.399	275.74
426.842	336.6
427.284	296.81
427.727	336.6
428.169	329.58
428.612	294.47
429.054	273.4
429.497	299.15
429.939	338.94
430.381	301.49
430.823	322.56
431.265	371.71
431.707	306.17
432.149	292.13
432.591	324.9
433.033	280.43
433.475	360
433.917	374.05
434.359	315.53
434.8	313.19
435.242	329.58
435.684	378.73
436.125	334.26
436.567	313.19
437.008	378.73
437.449	352.98
437.891	252.34
438.332	345.96
438.773	336.6
439.214	355.32
439.656	350.64
440.097	376.39
440.538	315.53
440.978	306.17
441.419	362.34
441.86	360
442.301	357.66
442.742	331.92
443.182	285.11
443.623	350.64
444.063	322.56
444.504	338.94
444.944	299.15
445.385	299.15
445.825	336.6
446.265	331.92
446.706	348.3
447.146	310.85
447.586	324.9
448.026	315.53
448.466	341.28
448.906	329.58
449.346	278.08
449.786	317.87
450.225	378.73
450.665	308.51
451.105	287.45
451.544	374.05
451.984	306.17
452.424	336.6
452.863	329.58
453.302	294.47
453.742	395.11
454.181	322.56
454.62	324.9
455.059	250
455.499	271.06
455.938	287.45
456.377	289.79
456.816	308.51
457.254	336.6
457.693	343.62
458.132	369.37
458.571	315.53
459.01	310.85
459.448	409.15
459.887	294.47
460.325	303.83
460.764	369.37
461.202	352.98
461.641	369.37
462.079	285.11
462.517	336.6
462.955	327.24
463.393	411.5
463.832	341.28
464.27	383.41
464.708	343.62
465.145	278.08
465.583	310.85
466.021	350.64
466.459	348.3
466.897	369.37
467.334	416.18
467.772	334.26
468.209	322.56
468.647	296.81
469.084	374.05
469.522	308.51
469.959	369.37
470.396	383.41
470.833	327.24
471.271	301.49
471.708	301.49
472.145	313.19
472.582	362.34
473.019	306.17
473.456	362.34
473.892	348.3
474.329	313.19
474.766	336.6
475.202	355.32
475.639	402.13
476.076	371.71
476.512	303.83
476.949	348.3
477.385	296.81
477.821	292.13
478.258	308.51
478.694	331.92
479.13	315.53
479.566	317.87
480.002	329.58
480.438	357.66
480.874	378.73
481.31	336.6
481.746	381.07
482.181	278.08
482.617	315.53
483.053	280.43
483.488	315.53
483.924	289.79
484.36	303.83
484.795	317.87
485.23	296.81
485.666	322.56
486.101	296.81
486.536	261.7
486.971	292.13
487.407	313.19
487.842	317.87
488.277	289.79
488.712	362.34
489.146	348.3
489.581	388.09
490.016	324.9
490.451	352.98
490.885	299.15
491.32	362.34
491.755	280.43
492.189	303.83
492.624	331.92
493.058	320.21
493.492	313.19
493.927	343.62
494.361	360
494.795	322.56
495.229	376.39
495.663	313.19
496.097	360
496.531	406.81
496.965	402.13
497.399	329.58
497.833	364.68
498.266	345.96
498.7	299.15
499.134	324.9
499.567	301.49
500.001	343.62
500.434	324.9
500.868	292.13
501.301	313.19
501.734	343.62
502.168	317.87
502.601	308.51
503.034	357.66
503.467	383.41
503.9	285.11
504.333	338.94
504.766	390.43
505.199	348.3
505.632	329.58
506.064	313.19
506.497	362.34
506.93	331.92
507.362	381.07
507.795	357.66
508.227	317.87
508.66	303.83
509.092	299.15
509.524	350.64
509.956	367.03
510.389	282.77
510.821	364.68
511.253	282.77
511.685	345.96
512.117	343.62
512.549	324.9
512.981	320.21
513.412	324.9
513.844	329.58
514.276	341.28
514.707	360
515.139	367.03
515.571	364.68
516.002	362.34
516.433	350.64
516.865	355.32
517.296	334.26
517.727	315.53
518.159	317.87
518.59	336.6
519.021	278.08
519.452	303.83
519.883	336.6
520.314	362.34
520.744	367.03
521.175	336.6
521.606	388.09
522.037	278.08
522.467	317.87
522.898	338.94
523.328	278.08
523.759	378.73
524.189	355.32
524.62	320.21
525.05	315.53
525.48	327.24
525.91	303.83
526.341	367.03
526.771	348.3
527.201	355.32
527.631	385.75
528.061	406.81
528.49	254.68
528.92	371.71
529.35	320.21
529.78	338.94
530.209	360
530.639	301.49
531.068	355.32
531.498	287.45
531.927	310.85
532.357	341.28
532.786	329.58
533.215	352.98
533.644	327.24
534.074	362.34
534.503	383.41
534.932	310.85
535.361	331.92
535.79	315.53
536.218	355.32
536.647	287.45
537.076	310.85
537.505	294.47
537.933	374.05
538.362	334.26
538.79	341.28
539.219	292.13
539.647	299.15
540.076	310.85
540.504	308.51
540.932	317.87
541.36	329.58
541.788	352.98
542.217	334.26
542.645	390.43
543.073	390.43
543.5	259.36
543.928	322.56
544.356	392.77
544.784	317.87
545.211	303.83
545.639	299.15
546.067	336.6
546.494	371.71
546.922	259.36
547.349	360
547.776	296.81
548.204	273.4
548.631	336.6
549.058	303.83
549.485	313.19
549.912	280.43
550.339	329.58
550.766	385.75
551.193	313.19
551.62	369.37
552.047	381.07
552.474	329.58
552.9	385.75
553.327	392.77
553.754	331.92
554.18	360
554.607	367.03
555.033	376.39
555.459	292.13
555.886	271.06
556.312	350.64
556.738	381.07
557.164	292.13
557.59	343.62
558.016	343.62
558.442	271.06
558.868	331.92
559.294	385.75
559.72	331.92
560.145	322.56
560.571	334.26
560.997	341.28
561.422	315.53
561.848	341.28
562.273	303.83
562.699	350.64
563.124	378.73
563.549	378.73
563.974	448.94
564.4	313.19
564.825	397.45
565.25	336.6
565.675	341.28
566.1	343.62
566.525	345.96
566.95	289.79
567.374	310.85
567.799	261.7
568.224	402.13
568.648	352.98
569.073	334.26
569.497	329.58
569.922	362.34
570.346	376.39
570.771	280.43
571.195	327.24
571.619	385.75
572.043	336.6
572.467	348.3
572.891	282.77
573.315	352.98
573.739	329.58
574.163	310.85
574.587	282.77
575.011	320.21
575.435	392.77
575.858	320.21
576.282	362.34
576.705	343.62
577.129	376.39
577.552	357.66
577.976	296.81
578.399	341.28
578.822	317.87
579.245	338.94
579.669	315.53
580.092	280.43
580.515	331.92
580.938	320.21
581.361	310.85
581.784	308.51
582.206	282.77
582.629	360
583.052	338.94
583.474	292.13
583.897	334.26
584.32	301.49
584.742	261.7
585.165	254.68
585.587	324.9
586.009	275.74
586.431	385.75
586.854	343.62
587.276	320.21
587.698	341.28
588.12	280.43
588.542	381.07
588.964	299.15
589.386	301.49
589.807	360
590.229	334.26
590.651	355.32
591.073	343.62
591.494	348.3
591.916	322.56
592.337	364.68
592.759	348.3
593.18	336.6
593.601	348.3
594.022	355.32
594.444	315.53
594.865	334.26
595.286	324.9
595.707	338.94
596.128	310.85
596.549	285.11
596.97	303.83
597.39	313.19
597.811	352.98
598.232	334.26
598.652	345.96
599.073	317.87
599.494	378.73
599.914	374.05
600.334	374.05
600.755	343.62
601.175	334.26
601.595	303.83
602.015	320.21
602.436	296.81
602.856	448.94
603.276	327.24
603.696	322.56
604.115	362.34
604.535	360
604.955	343.62
605.375	343.62
605.794	336.6
606.214	266.38
606.634	360
607.053	374.05
607.473	411.5
607.892	390.43
608.311	303.83
608.731	317.87
609.15	310.85
609.569	254.68
609.988	289.79
610.407	313.19
610.826	324.9
611.245	278.08
611.664	310.85
612.083	324.9
612.501	327.24
612.92	345.96
613.339	397.45
613.757	334.26
614.176	327.24
614.594	301.49
615.013	343.62
615.431	345.96
615.85	364.68
616.268	338.94
616.686	371.71
617.104	280.43
617.522	296.81
617.94	310.85
618.358	278.08
618.776	313.19
619.194	282.77
619.612	313.19
620.03	362.34
620.447	285.11
620.865	266.38
621.282	301.49
621.7	360
622.117	374.05
622.535	374.05
622.952	322.56
623.369	357.66
623.787	331.92
624.204	348.3
624.621	395.11
625.038	327.24
625.455	324.9
625.872	388.09
626.289	376.39
626.706	381.07
627.123	334.26
627.539	378.73
627.956	271.06
628.373	301.49
628.789	317.87
629.206	299.15
629.622	369.37
630.038	320.21
630.455	362.34
630.871	292.13
631.287	306.17
631.703	317.87
632.12	376.39
632.536	345.96
632.952	409.15
633.368	331.92
633.783	367.03
634.199	362.34
634.615	324.9
635.031	275.74
635.446	271.06
635.862	338.94
636.277	280.43
636.693	331.92
637.108	313.19
637.524	371.71
637.939	352.98
638.354	329.58
638.77	303.83
639.185	327.24
639.6	313.19
640.015	275.74
640.43	343.62
640.845	313.19
641.259	320.21
641.674	360
642.089	360
642.504	313.19
642.918	299.15
643.333	348.3
643.747	336.6
644.162	313.19
644.576	303.83
644.991	324.9
645.405	352.98
645.819	352.98
646.233	294.47
646.647	294.47
647.061	345.96
647.475	378.73
647.889	280.43
648.303	313.19
648.717	341.28
649.131	357.66
649.545	322.56
649.958	301.49
650.372	360
650.785	299.15
651.199	348.3
651.612	322.56
652.026	268.72
652.439	350.64
652.852	231.27
653.266	287.45
653.679	285.11
654.092	294.47
654.505	317.87
654.918	345.96
655.331	308.51
655.744	289.79
656.156	360
656.569	329.58
656.982	315.53
657.394	334.26
657.807	357.66
658.22	308.51
658.632	320.21
659.044	313.19
659.457	247.66
659.869	343.62
660.281	348.3
660.693	348.3
661.106	369.37
661.518	331.92
661.93	299.15
662.342	320.21
662.754	385.75
663.165	327.24
663.577	350.64
663.989	296.81
664.401	315.53
664.812	292.13
665.224	315.53
665.635	317.87
666.047	294.47
666.458	345.96
666.869	273.4
667.281	313.19
667.692	371.71
668.103	360
668.514	381.07
668.925	343.62
669.336	266.38
669.747	378.73
670.158	355.32
670.569	322.56
670.979	299.15
671.39	378.73
671.801	285.11
672.211	367.03
672.622	331.92
673.032	371.71
673.443	285.11
673.853	425.54
674.263	338.94
674.674	341.28
675.084	341.28
675.494	369.37
675.904	327.24
676.314	404.47
676.724	378.73
677.134	294.47
677.544	289.79
677.953	292.13
678.363	310.85
678.773	374.05
679.182	331.92
679.592	376.39
680.001	324.9
680.411	287.45
680.82	217.23
681.23	336.6
681.639	338.94
682.048	364.68
682.457	313.19
682.866	338.94
683.275	390.43
683.684	292.13
684.093	357.66
684.502	341.28
684.911	306.17
685.32	331.92
685.728	320.21
686.137	371.71
686.546	299.15
686.954	266.38
687.363	303.83
687.771	348.3
688.179	285.11
688.588	329.58
688.996	322.56
689.404	317.87
689.812	282.77
690.22	360
690.628	324.9
691.036	364.68
691.444	315.53
691.852	338.94
692.26	266.38
692.667	331.92
693.075	367.03
693.483	364.68
693.89	306.17
694.298	331.92
694.705	322.56
695.112	348.3
695.52	352.98
695.927	322.56
696.334	355.32
696.741	299.15
697.148	329.58
697.555	313.19
697.962	275.74
698.369	315.53
698.776	338.94
699.183	292.13
699.59	341.28
699.996	327.24
700.403	299.15
700.81	278.08
701.216	343.62
701.623	289.79
702.029	282.77
702.435	315.53
702.842	299.15
703.248	378.73
703.654	371.71
704.06	334.26
704.466	317.87
704.872	282.77
705.278	355.32
705.684	322.56
706.09	313.19
706.496	343.62
706.901	334.26
707.307	334.26
707.712	369.37
708.118	322.56
708.523	317.87
708.929	317.87
709.334	327.24
709.74	364.68
710.145	266.38
710.55	329.58
710.955	390.43
711.36	292.13
711.765	348.3
712.17	322.56
712.575	348.3
712.98	912.37
713.385	371.71
713.789	268.72
714.194	388.09
714.599	334.26
715.003	266.38
715.408	285.11
715.812	364.68
716.217	327.24
716.621	299.15
717.025	345.96
717.429	331.92
717.833	296.81
718.238	371.71
718.642	329.58
719.046	371.71
719.449	308.51
719.853	341.28
720.257	322.56
720.661	320.21
721.065	345.96
721.468	320.21
721.872	238.3
722.275	242.98
722.679	296.81
723.082	329.58
723.485	395.11
723.889	364.68
724.292	348.3
724.695	397.45
725.098	381.07
725.501	250
725.904	348.3
726.307	390.43
726.71	331.92
727.113	350.64
727.516	303.83
727.918	320.21
728.321	369.37
728.724	341.28
729.126	289.79
729.529	336.6
729.931	343.62
730.333	360
730.736	303.83
731.138	310.85
731.54	306.17
731.942	322.56
732.344	336.6
732.746	378.73
733.148	310.85
733.55	322.56
733.952	322.56
734.354	324.9
734.756	303.83
735.157	348.3
735.559	345.96
735.96	331.92
736.362	336.6
736.763	360
737.165	292.13
737.566	310.85
737.967	327.24
738.368	371.71
738.77	317.87
739.171	362.34
739.572	371.71
739.973	315.53
740.374	308.51
740.774	329.58
741.175	327.24
741.576	317.87
741.977	322.56
742.377	334.26
742.778	273.4
743.178	278.08
743.579	301.49
743.979	303.83
744.379	341.28
744.78	292.13
745.18	345.96
745.58	306.17
745.98	294.47
746.38	317.87
746.78	343.62
747.18	287.45
747.58	364.68
747.98	341.28
748.38	310.85
748.779	350.64
749.179	238.3
749.578	371.71
749.978	322.56
750.377	357.66
750.777	341.28
751.176	266.38
751.575	374.05
751.975	374.05
752.374	287.45
752.773	303.83
753.172	289.79
753.571	310.85
753.97	334.26
754.369	364.68
754.768	331.92
755.166	273.4
755.565	338.94
755.964	383.41
756.362	329.58
756.761	280.43
757.159	306.17
757.558	250
757.956	301.49
758.354	371.71
758.753	320.21
759.151	322.56
759.549	355.32
759.947	367.03
760.345	336.6
760.743	315.53
761.141	364.68
761.539	381.07
761.936	329.58
762.334	352.98
762.732	308.51
763.129	292.13
763.527	360
763.924	324.9
764.322	271.06
764.719	250
765.117	310.85
765.514	411.5
765.911	341.28
766.308	250
766.705	345.96
767.102	338.94
767.499	334.26
767.896	378.73
