Data from Al_FLMS009871__1279__16-47-54-869.txt Node

Date: Fri Mar 08 16:47:54 CST 2024
User: pe5414po
Spectrometer: FLMS00987
Trigger mode: 0
Integration Time (sec): 1.000000E-1
Scans to average: 1
Electric dark correction enabled: true
Nonlinearity correction enabled: false
Boxcar width: 0
XAxis mode: Wavelengths
Number of Pixels in Spectrum: 2048
>>>>>Begin Spectral Data<<<<<
188.938	-124.19
189.409	-124.19
189.879	-124.19
190.349	-70.36
190.819	-39.94
191.29	-91.43
191.76	-89.09
192.23	-56.32
192.7	-72.7
193.17	-11.85
193.64	18.58
194.109	-11.85
194.579	-56.32
195.049	18.58
195.519	-53.98
195.988	51.35
196.458	6.88
196.927	46.66
197.397	84.11
197.866	112.2
198.336	105.18
198.805	170.71
199.274	215.18
199.744	173.05
200.213	205.82
200.682	201.14
201.151	205.82
201.62	163.69
202.089	231.57
202.558	271.36
203.027	250.29
203.495	322.85
203.964	306.46
204.433	217.52
204.902	308.8
205.37	259.65
205.839	292.42
206.307	292.42
206.776	290.08
207.244	313.49
207.712	301.78
208.181	290.08
208.649	313.49
209.117	266.67
209.585	325.19
210.053	308.8
210.521	313.49
210.989	301.78
211.457	311.14
211.925	311.14
212.393	332.21
212.861	269.02
213.328	294.76
213.796	266.67
214.264	243.27
214.731	198.8
215.199	245.61
215.666	278.38
216.133	297.1
216.601	247.95
217.068	261.99
217.535	271.36
218.003	269.02
218.47	259.65
218.937	269.02
219.404	205.82
219.871	215.18
220.338	357.96
220.805	222.2
221.271	254.97
221.738	219.86
222.205	261.99
222.671	271.36
223.138	292.42
223.605	233.91
224.071	250.29
224.538	271.36
225.004	318.17
225.47	299.44
225.937	224.55
226.403	320.51
226.869	261.99
227.335	280.72
227.801	290.08
228.267	173.05
228.733	243.27
229.199	290.08
229.665	243.27
230.131	280.72
230.597	245.61
231.062	261.99
231.528	294.76
231.994	318.17
232.459	290.08
232.925	219.86
233.39	280.72
233.856	334.55
234.321	224.55
234.786	313.49
235.252	278.38
235.717	336.89
236.182	287.74
236.647	294.76
237.112	278.38
237.577	315.83
238.042	285.4
238.507	301.78
238.972	259.65
239.436	315.83
239.901	283.06
240.366	278.38
240.83	276.04
241.295	306.46
241.76	264.33
242.224	266.67
242.688	250.29
243.153	334.55
243.617	212.84
244.081	224.55
244.545	236.25
245.01	217.52
245.474	297.1
245.938	353.27
246.402	285.4
246.866	247.95
247.33	252.63
247.793	269.02
248.257	287.74
248.721	320.51
249.185	325.19
249.648	285.4
250.112	353.27
250.575	250.29
251.039	266.67
251.502	254.97
251.965	292.42
252.429	287.74
252.892	240.93
253.355	348.59
253.818	294.76
254.281	243.27
254.744	311.14
255.207	283.06
255.67	299.44
256.133	254.97
256.596	271.36
257.059	247.95
257.522	271.36
257.984	257.31
258.447	332.21
258.909	285.4
259.372	222.2
259.834	341.57
260.297	245.61
260.759	287.74
261.221	278.38
261.684	301.78
262.146	301.78
262.608	294.76
263.07	320.51
263.532	269.02
263.994	294.76
264.456	308.8
264.918	203.48
265.38	290.08
265.842	212.84
266.303	287.74
266.765	332.21
267.227	311.14
267.688	285.4
268.15	320.51
268.611	343.91
269.072	329.87
269.534	294.76
269.995	278.38
270.456	318.17
270.918	240.93
271.379	285.4
271.84	240.93
272.301	339.23
272.762	266.67
273.223	287.74
273.684	376.68
274.144	287.74
274.605	304.12
275.066	259.65
275.527	245.61
275.987	261.99
276.448	250.29
276.908	329.87
277.369	254.97
277.829	322.85
278.289	280.72
278.75	283.06
279.21	233.91
279.67	355.62
280.13	325.19
280.59	285.4
281.05	238.59
281.51	313.49
281.97	290.08
282.43	329.87
282.89	334.55
283.35	269.02
283.809	315.83
284.269	341.57
284.729	285.4
285.188	301.78
285.648	264.33
286.107	264.33
286.567	259.65
287.026	306.46
287.485	276.04
287.944	247.95
288.404	294.76
288.863	325.19
289.322	283.06
289.781	325.19
290.24	348.59
290.699	320.51
291.158	320.51
291.616	322.85
292.075	320.51
292.534	280.72
292.992	304.12
293.451	299.44
293.91	292.42
294.368	276.04
294.827	322.85
295.285	254.97
295.743	290.08
296.202	280.72
296.66	283.06
297.118	283.06
297.576	318.17
298.034	360.3
298.492	304.12
298.95	322.85
299.408	336.89
299.866	313.49
300.324	273.7
300.781	315.83
301.239	376.68
301.697	280.72
302.154	325.19
302.612	266.67
303.069	297.1
303.527	304.12
303.984	266.67
304.441	306.46
304.899	264.33
305.356	278.38
305.813	311.14
306.27	301.78
306.727	306.46
307.184	304.12
307.641	315.83
308.098	308.8
308.555	280.72
309.012	329.87
309.468	236.25
309.925	287.74
310.382	327.53
310.838	233.91
311.295	318.17
311.751	294.76
312.208	287.74
312.664	243.27
313.12	299.44
313.577	341.57
314.033	315.83
314.489	278.38
314.945	280.72
315.401	332.21
315.857	283.06
316.313	297.1
316.769	381.36
317.225	402.43
317.681	292.42
318.136	261.99
318.592	301.78
319.048	292.42
319.503	276.04
319.959	336.89
320.414	341.57
320.869	304.12
321.325	364.98
321.78	339.23
322.235	299.44
322.691	306.46
323.146	283.06
323.601	266.67
324.056	364.98
324.511	327.53
324.966	367.32
325.421	332.21
325.875	348.59
326.33	280.72
326.785	341.57
327.24	322.85
327.694	339.23
328.149	243.27
328.603	247.95
329.058	325.19
329.512	367.32
329.966	322.85
330.421	299.44
330.875	325.19
331.329	269.02
331.783	290.08
332.237	311.14
332.691	327.53
333.145	259.65
333.599	348.59
334.053	290.08
334.507	322.85
334.96	233.91
335.414	283.06
335.868	350.93
336.321	285.4
336.775	297.1
337.228	355.62
337.682	294.76
338.135	311.14
338.588	278.38
339.042	395.4
339.495	294.76
339.948	362.64
340.401	318.17
340.854	311.14
341.307	322.85
341.76	334.55
342.213	348.59
342.666	327.53
343.119	280.72
343.571	250.29
344.024	353.27
344.477	276.04
344.929	341.57
345.382	266.67
345.834	325.19
346.287	283.06
346.739	329.87
347.191	329.87
347.644	269.02
348.096	283.06
348.548	280.72
349	336.89
349.452	318.17
349.904	278.38
350.356	304.12
350.808	299.44
351.26	313.49
351.711	308.8
352.163	269.02
352.615	311.14
353.066	308.8
353.518	292.42
353.969	290.08
354.421	273.7
354.872	285.4
355.324	294.76
355.775	313.49
356.226	252.63
356.677	393.06
357.128	339.23
357.579	367.32
358.03	334.55
358.481	313.49
358.932	271.36
359.383	369.66
359.834	364.98
360.285	283.06
360.735	240.93
361.186	294.76
361.637	292.42
362.087	271.36
362.538	308.8
362.988	325.19
363.438	301.78
363.889	276.04
364.339	304.12
364.789	355.62
365.239	320.51
365.689	355.62
366.139	254.97
366.589	348.59
367.039	346.25
367.489	322.85
367.939	308.8
368.389	327.53
368.839	276.04
369.288	219.86
369.738	348.59
370.187	369.66
370.637	332.21
371.086	292.42
371.536	287.74
371.985	271.36
372.434	292.42
372.884	283.06
373.333	285.4
373.782	357.96
374.231	332.21
374.68	350.93
375.129	243.27
375.578	254.97
376.027	257.31
376.475	297.1
376.924	343.91
377.373	355.62
377.822	294.76
378.27	315.83
378.719	325.19
379.167	292.42
379.616	332.21
380.064	381.36
380.512	297.1
380.961	334.55
381.409	360.3
381.857	264.33
382.305	269.02
382.753	386.04
383.201	329.87
383.649	325.19
384.097	364.98
384.545	325.19
384.992	313.49
385.44	318.17
385.888	259.65
386.335	364.98
386.783	292.42
387.231	301.78
387.678	276.04
388.125	362.64
388.573	346.25
389.02	280.72
389.467	341.57
389.914	343.91
390.362	311.14
390.809	285.4
391.256	285.4
391.703	320.51
392.15	297.1
392.596	355.62
393.043	362.64
393.49	287.74
393.937	285.4
394.383	301.78
394.83	238.59
395.276	297.1
395.723	418.81
396.169	376.68
396.616	304.12
397.062	292.42
397.508	348.59
397.954	339.23
398.401	304.12
398.847	254.97
399.293	313.49
399.739	308.8
400.185	397.74
400.631	297.1
401.076	294.76
401.522	297.1
401.968	285.4
402.414	320.51
402.859	395.4
403.305	306.46
403.75	339.23
404.196	329.87
404.641	313.49
405.086	332.21
405.532	348.59
405.977	280.72
406.422	350.93
406.867	311.14
407.312	343.91
407.757	252.63
408.202	327.53
408.647	250.29
409.092	318.17
409.537	301.78
409.982	308.8
410.426	379.02
410.871	395.4
411.316	322.85
411.76	304.12
412.205	318.17
412.649	329.87
413.093	369.66
413.538	287.74
413.982	269.02
414.426	341.57
414.87	383.7
415.314	269.02
415.758	283.06
416.202	315.83
416.646	278.38
417.09	233.91
417.534	292.42
417.978	304.12
418.421	343.91
418.865	325.19
419.309	350.93
419.752	308.8
420.196	301.78
420.639	306.46
421.083	348.59
421.526	278.38
421.969	285.4
422.412	308.8
422.856	287.74
423.299	290.08
423.742	339.23
424.185	297.1
424.628	290.08
425.071	325.19
425.513	261.99
425.956	271.36
426.399	315.83
426.842	350.93
427.284	311.14
427.727	304.12
428.169	290.08
428.612	320.51
429.054	269.02
429.497	402.43
429.939	311.14
430.381	294.76
430.823	304.12
431.265	367.32
431.707	332.21
432.149	276.04
432.591	334.55
433.033	329.87
433.475	341.57
433.917	259.65
434.359	334.55
434.8	348.59
435.242	327.53
435.684	250.29
436.125	381.36
436.567	273.7
437.008	257.31
437.449	360.3
437.891	339.23
438.332	306.46
438.773	304.12
439.214	325.19
439.656	372
440.097	304.12
440.538	329.87
440.978	343.91
441.419	278.38
441.86	287.74
442.301	367.32
442.742	299.44
443.182	269.02
443.623	343.91
444.063	292.42
444.504	336.89
444.944	299.44
445.385	390.72
445.825	339.23
446.265	341.57
446.706	350.93
447.146	341.57
447.586	278.38
448.026	285.4
448.466	334.55
448.906	301.78
449.346	362.64
449.786	315.83
450.225	320.51
450.665	287.74
451.105	360.3
451.544	348.59
451.984	348.59
452.424	327.53
452.863	297.1
453.302	301.78
453.742	313.49
454.181	336.89
454.62	308.8
455.059	301.78
455.499	285.4
455.938	395.4
456.377	379.02
456.816	355.62
457.254	294.76
457.693	381.36
458.132	341.57
458.571	264.33
459.01	360.3
459.448	325.19
459.887	334.55
460.325	325.19
460.764	285.4
461.202	353.27
461.641	320.51
462.079	264.33
462.517	311.14
462.955	372
463.393	348.59
463.832	318.17
464.27	369.66
464.708	299.44
465.145	283.06
465.583	332.21
466.021	308.8
466.459	386.04
466.897	290.08
467.334	276.04
467.772	348.59
468.209	327.53
468.647	266.67
469.084	313.49
469.522	357.96
469.959	350.93
470.396	379.02
470.833	343.91
471.271	376.68
471.708	308.8
472.145	395.4
472.582	311.14
473.019	315.83
473.456	322.85
473.892	304.12
474.329	294.76
474.766	304.12
475.202	315.83
475.639	287.74
476.076	315.83
476.512	311.14
476.949	357.96
477.385	353.27
477.821	315.83
478.258	315.83
478.694	355.62
479.13	350.93
479.566	334.55
480.002	269.02
480.438	320.51
480.874	308.8
481.31	301.78
481.746	357.96
482.181	372
482.617	308.8
483.053	355.62
483.488	308.8
483.924	341.57
484.36	287.74
484.795	350.93
485.23	341.57
485.666	304.12
486.101	329.87
486.536	320.51
486.971	269.02
487.407	339.23
487.842	329.87
488.277	261.99
488.712	341.57
489.146	315.83
489.581	402.43
490.016	318.17
490.451	299.44
490.885	311.14
491.32	287.74
491.755	318.17
492.189	369.66
492.624	332.21
493.058	346.25
493.492	348.59
493.927	327.53
494.361	329.87
494.795	306.46
495.229	304.12
495.663	318.17
496.097	327.53
496.531	369.66
496.965	315.83
497.399	259.65
497.833	271.36
498.266	336.89
498.7	367.32
499.134	269.02
499.567	320.51
500.001	346.25
500.434	322.85
500.868	355.62
501.301	269.02
501.734	308.8
502.168	369.66
502.601	325.19
503.034	280.72
503.467	301.78
503.9	350.93
504.333	292.42
504.766	367.32
505.199	350.93
505.632	374.34
506.064	381.36
506.497	308.8
506.93	346.25
507.362	301.78
507.795	346.25
508.227	301.78
508.66	290.08
509.092	341.57
509.524	294.76
509.956	322.85
510.389	285.4
510.821	336.89
511.253	320.51
511.685	292.42
512.117	297.1
512.549	240.93
512.981	299.44
513.412	313.49
513.844	313.49
514.276	315.83
514.707	325.19
515.139	369.66
515.571	254.97
516.002	292.42
516.433	297.1
516.865	386.04
517.296	390.72
517.727	322.85
518.159	285.4
518.59	329.87
519.021	318.17
519.452	348.59
519.883	278.38
520.314	320.51
520.744	318.17
521.175	355.62
521.606	364.98
522.037	348.59
522.467	294.76
522.898	341.57
523.328	313.49
523.759	346.25
524.189	322.85
524.62	306.46
525.05	311.14
525.48	339.23
525.91	304.12
526.341	278.38
526.771	254.97
527.201	294.76
527.631	355.62
528.061	329.87
528.49	329.87
528.92	280.72
529.35	301.78
529.78	341.57
530.209	332.21
530.639	336.89
531.068	304.12
531.498	276.04
531.927	292.42
532.357	301.78
532.786	355.62
533.215	301.78
533.644	372
534.074	238.59
534.503	360.3
534.932	327.53
535.361	341.57
535.79	329.87
536.218	278.38
536.647	259.65
537.076	308.8
537.505	278.38
537.933	280.72
538.362	381.36
538.79	362.64
539.219	290.08
539.647	283.06
540.076	285.4
540.504	297.1
540.932	306.46
541.36	332.21
541.788	346.25
542.217	320.51
542.645	334.55
543.073	357.96
543.5	320.51
543.928	299.44
544.356	280.72
544.784	334.55
545.211	327.53
545.639	318.17
546.067	350.93
546.494	257.31
546.922	353.27
547.349	327.53
547.776	308.8
548.204	353.27
548.631	334.55
549.058	311.14
549.485	266.67
549.912	261.99
550.339	404.77
550.766	334.55
551.193	364.98
551.62	273.7
552.047	388.38
552.474	313.49
552.9	334.55
553.327	364.98
553.754	322.85
554.18	311.14
554.607	334.55
555.033	334.55
555.459	332.21
555.886	311.14
556.312	327.53
556.738	320.51
557.164	245.61
557.59	325.19
558.016	346.25
558.442	341.57
558.868	304.12
559.294	318.17
559.72	390.72
560.145	397.74
560.571	306.46
560.997	259.65
561.422	332.21
561.848	245.61
562.273	283.06
562.699	339.23
563.124	315.83
563.549	320.51
563.974	327.53
564.4	341.57
564.825	364.98
565.25	273.7
565.675	299.44
566.1	252.63
566.525	362.64
566.95	327.53
567.374	341.57
567.799	308.8
568.224	332.21
568.648	372
569.073	350.93
569.497	315.83
569.922	355.62
570.346	381.36
570.771	306.46
571.195	301.78
571.619	339.23
572.043	299.44
572.467	311.14
572.891	315.83
573.315	341.57
573.739	379.02
574.163	294.76
574.587	322.85
575.011	264.33
575.435	306.46
575.858	283.06
576.282	306.46
576.705	301.78
577.129	280.72
577.552	245.61
577.976	322.85
578.399	292.42
578.822	285.4
579.245	318.17
579.669	304.12
580.092	315.83
580.515	369.66
580.938	376.68
581.361	318.17
581.784	325.19
582.206	339.23
582.629	301.78
583.052	308.8
583.474	285.4
583.897	343.91
584.32	402.43
584.742	294.76
585.165	346.25
585.587	329.87
586.009	301.78
586.431	322.85
586.854	320.51
587.276	336.89
587.698	313.49
588.12	327.53
588.542	320.51
588.964	355.62
589.386	350.93
589.807	348.59
590.229	318.17
590.651	299.44
591.073	332.21
591.494	334.55
591.916	341.57
592.337	318.17
592.759	308.8
593.18	283.06
593.601	334.55
594.022	315.83
594.444	336.89
594.865	332.21
595.286	290.08
595.707	311.14
596.128	362.64
596.549	313.49
596.97	334.55
597.39	341.57
597.811	294.76
598.232	273.7
598.652	386.04
599.073	381.36
599.494	287.74
599.914	292.42
600.334	290.08
600.755	261.99
601.175	273.7
601.595	273.7
602.015	299.44
602.436	318.17
602.856	458.6
603.276	280.72
603.696	332.21
604.115	360.3
604.535	336.89
604.955	294.76
605.375	219.86
605.794	329.87
606.214	273.7
606.634	313.49
607.053	306.46
607.473	329.87
607.892	327.53
608.311	341.57
608.731	357.96
609.15	259.65
609.569	271.36
609.988	346.25
610.407	259.65
610.826	313.49
611.245	278.38
611.664	322.85
612.083	304.12
612.501	297.1
612.92	283.06
613.339	329.87
613.757	269.02
614.176	325.19
614.594	334.55
615.013	341.57
615.431	336.89
615.85	315.83
616.268	357.96
616.686	353.27
617.104	292.42
617.522	360.3
617.94	259.65
618.358	280.72
618.776	245.61
619.194	322.85
619.612	362.64
620.03	357.96
620.447	327.53
620.865	379.02
621.282	306.46
621.7	297.1
622.117	261.99
622.535	299.44
622.952	334.55
623.369	301.78
623.787	283.06
624.204	313.49
624.621	299.44
625.038	297.1
625.455	364.98
625.872	327.53
626.289	339.23
626.706	271.36
627.123	343.91
627.539	294.76
627.956	290.08
628.373	350.93
628.789	290.08
629.206	287.74
629.622	357.96
630.038	397.74
630.455	357.96
630.871	327.53
631.287	320.51
631.703	364.98
632.12	334.55
632.536	304.12
632.952	313.49
633.368	304.12
633.783	369.66
634.199	367.32
634.615	292.42
635.031	315.83
635.446	283.06
635.862	325.19
636.277	336.89
636.693	336.89
637.108	269.02
637.524	397.74
637.939	329.87
638.354	224.55
638.77	346.25
639.185	339.23
639.6	339.23
640.015	266.67
640.43	299.44
640.845	313.49
641.259	290.08
641.674	261.99
642.089	320.51
642.504	294.76
642.918	325.19
643.333	280.72
643.747	364.98
644.162	341.57
644.576	269.02
644.991	320.51
645.405	261.99
645.819	313.49
646.233	325.19
646.647	292.42
647.061	322.85
647.475	364.98
647.889	357.96
648.303	297.1
648.717	276.04
649.131	367.32
649.545	332.21
649.958	383.7
650.372	311.14
650.785	287.74
651.199	308.8
651.612	357.96
652.026	346.25
652.439	369.66
652.852	292.42
653.266	322.85
653.679	290.08
654.092	341.57
654.505	329.87
654.918	313.49
655.331	311.14
655.744	350.93
656.156	400.09
656.569	336.89
656.982	287.74
657.394	322.85
657.807	311.14
658.22	315.83
658.632	313.49
659.044	320.51
659.457	297.1
659.869	360.3
660.281	269.02
660.693	334.55
661.106	308.8
661.518	339.23
661.93	362.64
662.342	301.78
662.754	301.78
663.165	327.53
663.577	327.53
663.989	339.23
664.401	318.17
664.812	308.8
665.224	379.02
665.635	379.02
666.047	294.76
666.458	276.04
666.869	332.21
667.281	297.1
667.692	325.19
668.103	325.19
668.514	372
668.925	353.27
669.336	348.59
669.747	362.64
670.158	329.87
670.569	329.87
670.979	306.46
671.39	332.21
671.801	334.55
672.211	308.8
672.622	294.76
673.032	362.64
673.443	297.1
673.853	428.17
674.263	261.99
674.674	339.23
675.084	283.06
675.494	343.91
675.904	334.55
676.314	341.57
676.724	294.76
677.134	313.49
677.544	306.46
677.953	325.19
678.363	348.59
678.773	334.55
679.182	283.06
679.592	325.19
680.001	362.64
680.411	318.17
680.82	357.96
681.23	308.8
681.639	269.02
682.048	287.74
682.457	327.53
682.866	313.49
683.275	308.8
683.684	311.14
684.093	320.51
684.502	290.08
684.911	339.23
685.32	355.62
685.728	350.93
686.137	294.76
686.546	304.12
686.954	285.4
687.363	327.53
687.771	315.83
688.179	348.59
688.588	339.23
688.996	297.1
689.404	304.12
689.812	320.51
690.22	308.8
690.628	299.44
691.036	376.68
691.444	278.38
691.852	304.12
692.26	355.62
692.667	313.49
693.075	299.44
693.483	297.1
693.89	334.55
694.298	369.66
694.705	320.51
695.112	280.72
695.52	339.23
695.927	287.74
696.334	283.06
696.741	322.85
697.148	364.98
697.555	341.57
697.962	325.19
698.369	308.8
698.776	297.1
699.183	336.89
699.59	273.7
699.996	315.83
700.403	308.8
700.81	311.14
701.216	332.21
701.623	360.3
702.029	301.78
702.435	290.08
702.842	360.3
703.248	254.97
703.654	301.78
704.06	271.36
704.466	271.36
704.872	339.23
705.278	360.3
705.684	299.44
706.09	290.08
706.496	261.99
706.901	341.57
707.307	297.1
707.712	285.4
708.118	355.62
708.523	276.04
708.929	334.55
709.334	297.1
709.74	269.02
710.145	313.49
710.55	283.06
710.955	325.19
711.36	292.42
711.765	306.46
712.17	325.19
712.575	379.02
712.98	1013.31
713.385	369.66
713.789	287.74
714.194	329.87
714.599	334.55
715.003	341.57
715.408	311.14
715.812	376.68
716.217	327.53
716.621	311.14
717.025	292.42
717.429	341.57
717.833	304.12
718.238	308.8
718.642	313.49
719.046	360.3
719.449	254.97
719.853	297.1
720.257	271.36
720.661	376.68
721.065	334.55
721.468	393.06
721.872	311.14
722.275	294.76
722.679	304.12
723.082	287.74
723.485	304.12
723.889	285.4
724.292	297.1
724.695	226.89
725.098	348.59
725.501	306.46
725.904	315.83
726.307	320.51
726.71	299.44
727.113	322.85
727.516	297.1
727.918	334.55
728.321	294.76
728.724	266.67
729.126	320.51
729.529	343.91
729.931	343.91
730.333	343.91
730.736	362.64
731.138	350.93
731.54	301.78
731.942	348.59
732.344	287.74
732.746	269.02
733.148	343.91
733.55	290.08
733.952	290.08
734.354	315.83
734.756	367.32
735.157	353.27
735.559	233.91
735.96	229.23
736.362	367.32
736.763	346.25
737.165	315.83
737.566	257.31
737.967	301.78
738.368	304.12
738.77	285.4
739.171	301.78
739.572	362.64
739.973	304.12
740.374	357.96
740.774	376.68
741.175	360.3
741.576	348.59
741.977	320.51
742.377	308.8
742.778	327.53
743.178	306.46
743.579	294.76
743.979	205.82
744.379	336.89
744.78	327.53
745.18	273.7
745.58	381.36
745.98	350.93
746.38	252.63
746.78	332.21
747.18	266.67
747.58	353.27
747.98	222.2
748.38	238.59
748.779	287.74
749.179	315.83
749.578	311.14
749.978	306.46
750.377	287.74
750.777	306.46
751.176	329.87
751.575	350.93
751.975	395.4
752.374	301.78
752.773	297.1
753.172	299.44
753.571	301.78
753.97	322.85
754.369	308.8
754.768	283.06
755.166	304.12
755.565	285.4
755.964	325.19
756.362	355.62
756.761	276.04
757.159	287.74
757.558	315.83
757.956	287.74
758.354	346.25
758.753	287.74
759.151	343.91
759.549	320.51
759.947	311.14
760.345	294.76
760.743	329.87
761.141	315.83
761.539	247.95
761.936	350.93
762.334	381.36
762.732	313.49
763.129	315.83
763.527	315.83
763.924	287.74
764.322	320.51
764.719	376.68
765.117	254.97
765.514	297.1
