Data from Al_FLMS009871__1276__16-47-54-569.txt Node

Date: Fri Mar 08 16:47:54 CST 2024
User: pe5414po
Spectrometer: FLMS00987
Trigger mode: 0
Integration Time (sec): 1.000000E-1
Scans to average: 1
Electric dark correction enabled: true
Nonlinearity correction enabled: false
Boxcar width: 0
XAxis mode: Wavelengths
Number of Pixels in Spectrum: 2048
>>>>>Begin Spectral Data<<<<<
188.938	-120.54
189.409	-120.54
189.879	-120.54
190.349	-94.79
190.819	-101.81
191.29	-125.22
191.76	-45.64
192.23	-59.68
192.7	-97.13
193.17	-73.73
193.64	-19.89
194.109	-26.92
194.579	26.92
195.049	-29.26
195.519	29.26
195.988	43.3
196.458	1.17
196.927	47.98
197.397	118.2
197.866	113.52
198.336	97.13
198.805	150.96
199.274	155.65
199.744	190.75
200.213	216.5
200.682	232.88
201.151	235.22
201.62	265.65
202.089	279.69
202.558	211.82
203.027	253.95
203.495	272.67
203.964	265.65
204.433	258.63
204.902	298.42
205.37	328.85
205.839	347.57
206.307	246.93
206.776	270.33
207.244	328.85
207.712	319.48
208.181	253.95
208.649	321.82
209.117	324.16
209.585	342.89
210.053	338.21
210.521	300.76
210.989	275.01
211.457	228.2
211.925	340.55
212.393	263.31
212.861	267.99
213.328	265.65
213.796	335.87
214.264	260.97
214.731	277.35
215.199	326.5
215.666	284.38
216.133	286.72
216.601	193.09
217.068	260.97
217.535	244.59
218.003	284.38
218.47	279.69
218.937	265.65
219.404	221.18
219.871	239.9
220.338	293.74
220.805	296.08
221.271	176.71
221.738	284.38
222.205	331.19
222.671	228.2
223.138	279.69
223.605	282.03
224.071	232.88
224.538	246.93
225.004	279.69
225.47	244.59
225.937	230.54
226.403	244.59
226.869	265.65
227.335	267.99
227.801	258.63
228.267	307.78
228.733	263.31
229.199	312.46
229.665	298.42
230.131	284.38
230.597	291.4
231.062	235.22
231.528	256.29
231.994	244.59
232.459	260.97
232.925	249.27
233.39	211.82
233.856	246.93
234.321	202.46
234.786	296.08
235.252	279.69
235.717	251.61
236.182	242.25
236.647	251.61
237.112	312.46
237.577	272.67
238.042	239.9
238.507	267.99
238.972	296.08
239.436	354.59
239.901	319.48
240.366	237.56
240.83	228.2
241.295	317.14
241.76	272.67
242.224	291.4
242.688	307.78
243.153	270.33
243.617	277.35
244.081	305.44
244.545	272.67
245.01	263.31
245.474	239.9
245.938	340.55
246.402	237.56
246.866	291.4
247.33	258.63
247.793	270.33
248.257	275.01
248.721	260.97
249.185	267.99
249.648	256.29
250.112	267.99
250.575	242.25
251.039	305.44
251.502	289.06
251.965	321.82
252.429	303.1
252.892	310.12
253.355	298.42
253.818	277.35
254.281	331.19
254.744	204.8
255.207	286.72
255.67	328.85
256.133	312.46
256.596	237.56
257.059	249.27
257.522	270.33
257.984	296.08
258.447	284.38
258.909	256.29
259.372	256.29
259.834	319.48
260.297	228.2
260.759	340.55
261.221	223.52
261.684	256.29
262.146	277.35
262.608	298.42
263.07	317.14
263.532	296.08
263.994	251.61
264.456	237.56
264.918	310.12
265.38	291.4
265.842	303.1
266.303	314.8
266.765	298.42
267.227	314.8
267.688	314.8
268.15	279.69
268.611	289.06
269.072	267.99
269.534	270.33
269.995	265.65
270.456	328.85
270.918	328.85
271.379	363.95
271.84	244.59
272.301	232.88
272.762	282.03
273.223	211.82
273.684	319.48
274.144	310.12
274.605	324.16
275.066	277.35
275.527	298.42
275.987	328.85
276.448	305.44
276.908	298.42
277.369	279.69
277.829	291.4
278.289	282.03
278.75	340.55
279.21	347.57
279.67	253.95
280.13	333.53
280.59	314.8
281.05	223.52
281.51	230.54
281.97	347.57
282.43	307.78
282.89	326.5
283.35	239.9
283.809	251.61
284.269	328.85
284.729	235.22
285.188	296.08
285.648	307.78
286.107	333.53
286.567	310.12
287.026	244.59
287.485	307.78
287.944	258.63
288.404	260.97
288.863	249.27
289.322	328.85
289.781	291.4
290.24	260.97
290.699	333.53
291.158	260.97
291.616	310.12
292.075	296.08
292.534	253.95
292.992	246.93
293.451	314.8
293.91	282.03
294.368	326.5
294.827	296.08
295.285	349.91
295.743	326.5
296.202	258.63
296.66	314.8
297.118	298.42
297.576	293.74
298.034	277.35
298.492	279.69
298.95	312.46
299.408	305.44
299.866	298.42
300.324	340.55
300.781	296.08
301.239	307.78
301.697	317.14
302.154	300.76
302.612	298.42
303.069	321.82
303.527	282.03
303.984	300.76
304.441	333.53
304.899	338.21
305.356	293.74
305.813	310.12
306.27	253.95
306.727	317.14
307.184	282.03
307.641	317.14
308.098	375.66
308.555	282.03
309.012	319.48
309.468	291.4
309.925	282.03
310.382	263.31
310.838	366.29
311.295	328.85
311.751	324.16
312.208	352.25
312.664	328.85
313.12	230.54
313.577	291.4
314.033	307.78
314.489	279.69
314.945	263.31
315.401	293.74
315.857	277.35
316.313	272.67
316.769	342.89
317.225	282.03
317.681	345.23
318.136	270.33
318.592	338.21
319.048	326.5
319.503	272.67
319.959	310.12
320.414	300.76
320.869	328.85
321.325	291.4
321.78	314.8
322.235	296.08
322.691	356.93
323.146	207.14
323.601	305.44
324.056	317.14
324.511	321.82
324.966	347.57
325.421	277.35
325.875	312.46
326.33	356.93
326.785	335.87
327.24	296.08
327.694	289.06
328.149	275.01
328.603	244.59
329.058	366.29
329.512	298.42
329.966	338.21
330.421	326.5
330.875	244.59
331.329	338.21
331.783	258.63
332.237	333.53
332.691	253.95
333.145	352.25
333.599	310.12
334.053	232.88
334.507	331.19
334.96	267.99
335.414	349.91
335.868	328.85
336.321	282.03
336.775	293.74
337.228	298.42
337.682	363.95
338.135	324.16
338.588	352.25
339.042	354.59
339.495	267.99
339.948	253.95
340.401	345.23
340.854	335.87
341.307	366.29
341.76	293.74
342.213	305.44
342.666	328.85
343.119	300.76
343.571	296.08
344.024	326.5
344.477	335.87
344.929	267.99
345.382	296.08
345.834	303.1
346.287	324.16
346.739	282.03
347.191	279.69
347.644	298.42
348.096	345.23
348.548	303.1
349	282.03
349.452	310.12
349.904	286.72
350.356	310.12
350.808	331.19
351.26	272.67
351.711	314.8
352.163	265.65
352.615	375.66
353.066	349.91
353.518	300.76
353.969	289.06
354.421	373.32
354.872	310.12
355.324	321.82
355.775	352.25
356.226	310.12
356.677	324.16
357.128	342.89
357.579	312.46
358.03	270.33
358.481	333.53
358.932	260.97
359.383	317.14
359.834	317.14
360.285	385.02
360.735	303.1
361.186	342.89
361.637	277.35
362.087	282.03
362.538	319.48
362.988	326.5
363.438	265.65
363.889	307.78
364.339	296.08
364.789	263.31
365.239	277.35
365.689	265.65
366.139	347.57
366.589	307.78
367.039	291.4
367.489	256.29
367.939	331.19
368.389	282.03
368.839	267.99
369.288	319.48
369.738	331.19
370.187	363.95
370.637	296.08
371.086	246.93
371.536	258.63
371.985	256.29
372.434	361.61
372.884	331.19
373.333	312.46
373.782	223.52
374.231	321.82
374.68	340.55
375.129	303.1
375.578	307.78
376.027	263.31
376.475	321.82
376.924	321.82
377.373	349.91
377.822	305.44
378.27	300.76
378.719	373.32
379.167	359.27
379.616	340.55
380.064	284.38
380.512	324.16
380.961	328.85
381.409	368.63
381.857	279.69
382.305	307.78
382.753	335.87
383.201	347.57
383.649	331.19
384.097	310.12
384.545	310.12
384.992	333.53
385.44	258.63
385.888	218.84
386.335	282.03
386.783	324.16
387.231	293.74
387.678	317.14
388.125	331.19
388.573	370.97
389.02	345.23
389.467	387.36
389.914	267.99
390.362	326.5
390.809	293.74
391.256	338.21
391.703	321.82
392.15	373.32
392.596	314.8
393.043	298.42
393.49	305.44
393.937	289.06
394.383	300.76
394.83	279.69
395.276	286.72
395.723	284.38
396.169	333.53
396.616	310.12
397.062	394.38
397.508	326.5
397.954	345.23
398.401	373.32
398.847	300.76
399.293	291.4
399.739	319.48
400.185	394.38
400.631	291.4
401.076	277.35
401.522	370.97
401.968	342.89
402.414	352.25
402.859	314.8
403.305	303.1
403.75	303.1
404.196	279.69
404.641	331.19
405.086	293.74
405.532	349.91
405.977	265.65
406.422	286.72
406.867	303.1
407.312	312.46
407.757	335.87
408.202	289.06
408.647	289.06
409.092	345.23
409.537	317.14
409.982	310.12
410.426	356.93
410.871	389.7
411.316	324.16
411.76	324.16
412.205	347.57
412.649	366.29
413.093	260.97
413.538	335.87
413.982	256.29
414.426	225.86
414.87	328.85
415.314	342.89
415.758	310.12
416.202	345.23
416.646	291.4
417.09	366.29
417.534	293.74
417.978	267.99
418.421	277.35
418.865	272.67
419.309	282.03
419.752	270.33
420.196	345.23
420.639	359.27
421.083	258.63
421.526	277.35
421.969	333.53
422.412	370.97
422.856	303.1
423.299	289.06
423.742	303.1
424.185	326.5
424.628	298.42
425.071	335.87
425.513	338.21
425.956	307.78
426.399	333.53
426.842	319.48
427.284	324.16
427.727	267.99
428.169	314.8
428.612	284.38
429.054	342.89
429.497	284.38
429.939	298.42
430.381	293.74
430.823	349.91
431.265	321.82
431.707	289.06
432.149	319.48
432.591	260.97
433.033	293.74
433.475	392.04
433.917	305.44
434.359	328.85
434.8	342.89
435.242	335.87
435.684	319.48
436.125	321.82
436.567	328.85
437.008	275.01
437.449	375.66
437.891	333.53
438.332	335.87
438.773	319.48
439.214	373.32
439.656	286.72
440.097	354.59
440.538	310.12
440.978	267.99
441.419	324.16
441.86	349.91
442.301	333.53
442.742	342.89
443.182	298.42
443.623	256.29
444.063	331.19
444.504	293.74
444.944	321.82
445.385	310.12
445.825	382.68
446.265	307.78
446.706	303.1
447.146	312.46
447.586	427.15
448.026	342.89
448.466	272.67
448.906	340.55
449.346	265.65
449.786	298.42
450.225	363.95
450.665	319.48
451.105	293.74
451.544	303.1
451.984	347.57
452.424	310.12
452.863	342.89
453.302	298.42
453.742	279.69
454.181	267.99
454.62	253.95
455.059	275.01
455.499	249.27
455.938	342.89
456.377	340.55
456.816	370.97
457.254	284.38
457.693	289.06
458.132	321.82
458.571	335.87
459.01	317.14
459.448	345.23
459.887	249.27
460.325	321.82
460.764	342.89
461.202	296.08
461.641	291.4
462.079	265.65
462.517	326.5
462.955	335.87
463.393	382.68
463.832	403.74
464.27	345.23
464.708	258.63
465.145	291.4
465.583	286.72
466.021	291.4
466.459	310.12
466.897	345.23
467.334	333.53
467.772	345.23
468.209	380.34
468.647	300.76
469.084	267.99
469.522	396.72
469.959	305.44
470.396	284.38
470.833	263.31
471.271	396.72
471.708	260.97
472.145	312.46
472.582	317.14
473.019	370.97
473.456	317.14
473.892	310.12
474.329	321.82
474.766	347.57
475.202	275.01
475.639	333.53
476.076	319.48
476.512	246.93
476.949	333.53
477.385	307.78
477.821	359.27
478.258	333.53
478.694	331.19
479.13	279.69
479.566	314.8
480.002	326.5
480.438	359.27
480.874	289.06
481.31	380.34
481.746	340.55
482.181	333.53
482.617	321.82
483.053	314.8
483.488	251.61
483.924	345.23
484.36	335.87
484.795	256.29
485.23	289.06
485.666	310.12
486.101	366.29
486.536	347.57
486.971	373.32
487.407	385.02
487.842	272.67
488.277	324.16
488.712	239.9
489.146	272.67
489.581	361.61
490.016	277.35
490.451	359.27
490.885	340.55
491.32	338.21
491.755	340.55
492.189	298.42
492.624	335.87
493.058	321.82
493.492	267.99
493.927	359.27
494.361	314.8
494.795	319.48
495.229	289.06
495.663	275.01
496.097	354.59
496.531	345.23
496.965	300.76
497.399	328.85
497.833	331.19
498.266	267.99
498.7	319.48
499.134	310.12
499.567	366.29
500.001	378
500.434	382.68
500.868	296.08
501.301	282.03
501.734	324.16
502.168	298.42
502.601	300.76
503.034	275.01
503.467	267.99
503.9	251.61
504.333	286.72
504.766	305.44
505.199	242.25
505.632	298.42
506.064	328.85
506.497	284.38
506.93	317.14
507.362	333.53
507.795	352.25
508.227	253.95
508.66	284.38
509.092	277.35
509.524	312.46
509.956	260.97
510.389	305.44
510.821	349.91
511.253	312.46
511.685	265.65
512.117	300.76
512.549	345.23
512.981	368.63
513.412	260.97
513.844	260.97
514.276	319.48
514.707	263.31
515.139	321.82
515.571	361.61
516.002	380.34
516.433	356.93
516.865	296.08
517.296	326.5
517.727	298.42
518.159	373.32
518.59	356.93
519.021	303.1
519.452	249.27
519.883	338.21
520.314	338.21
520.744	249.27
521.175	326.5
521.606	312.46
522.037	286.72
522.467	310.12
522.898	382.68
523.328	347.57
523.759	312.46
524.189	317.14
524.62	352.25
525.05	324.16
525.48	314.8
525.91	349.91
526.341	338.21
526.771	321.82
527.201	270.33
527.631	303.1
528.061	289.06
528.49	258.63
528.92	303.1
529.35	375.66
529.78	293.74
530.209	263.31
530.639	335.87
531.068	256.29
531.498	272.67
531.927	242.25
532.357	342.89
532.786	277.35
533.215	228.2
533.644	300.76
534.074	249.27
534.503	345.23
534.932	331.19
535.361	326.5
535.79	305.44
536.218	354.59
536.647	324.16
537.076	321.82
537.505	333.53
537.933	340.55
538.362	310.12
538.79	326.5
539.219	279.69
539.647	265.65
540.076	289.06
540.504	282.03
540.932	328.85
541.36	319.48
541.788	307.78
542.217	296.08
542.645	296.08
543.073	324.16
543.5	356.93
543.928	286.72
544.356	303.1
544.784	340.55
545.211	321.82
545.639	296.08
546.067	340.55
546.494	307.78
546.922	312.46
547.349	307.78
547.776	312.46
548.204	284.38
548.631	230.54
549.058	331.19
549.485	282.03
549.912	279.69
550.339	331.19
550.766	289.06
551.193	298.42
551.62	333.53
552.047	305.44
552.474	321.82
552.9	249.27
553.327	366.29
553.754	298.42
554.18	321.82
554.607	270.33
555.033	317.14
555.459	319.48
555.886	352.25
556.312	317.14
556.738	314.8
557.164	286.72
557.59	310.12
558.016	340.55
558.442	328.85
558.868	284.38
559.294	303.1
559.72	263.31
560.145	382.68
560.571	319.48
560.997	307.78
561.422	312.46
561.848	267.99
562.273	375.66
562.699	277.35
563.124	258.63
563.549	307.78
563.974	270.33
564.4	300.76
564.825	265.65
565.25	293.74
565.675	282.03
566.1	370.97
566.525	291.4
566.95	289.06
567.374	317.14
567.799	296.08
568.224	312.46
568.648	300.76
569.073	300.76
569.497	389.7
569.922	284.38
570.346	317.14
570.771	305.44
571.195	277.35
571.619	279.69
572.043	326.5
572.467	319.48
572.891	298.42
573.315	312.46
573.739	314.8
574.163	296.08
574.587	258.63
575.011	253.95
575.435	260.97
575.858	303.1
576.282	317.14
576.705	303.1
577.129	249.27
577.552	370.97
577.976	270.33
578.399	324.16
578.822	326.5
579.245	368.63
579.669	317.14
580.092	375.66
580.515	354.59
580.938	300.76
581.361	321.82
581.784	305.44
582.206	347.57
582.629	314.8
583.052	305.44
583.474	256.29
583.897	373.32
584.32	305.44
584.742	246.93
585.165	345.23
585.587	298.42
586.009	286.72
586.431	279.69
586.854	256.29
587.276	277.35
587.698	272.67
588.12	275.01
588.542	296.08
588.964	312.46
589.386	335.87
589.807	314.8
590.229	289.06
590.651	349.91
591.073	275.01
591.494	310.12
591.916	298.42
592.337	375.66
592.759	256.29
593.18	293.74
593.601	253.95
594.022	300.76
594.444	338.21
594.865	359.27
595.286	345.23
595.707	338.21
596.128	324.16
596.549	310.12
596.97	326.5
597.39	310.12
597.811	338.21
598.232	321.82
598.652	296.08
599.073	291.4
599.494	324.16
599.914	296.08
600.334	326.5
600.755	354.59
601.175	314.8
601.595	293.74
602.015	312.46
602.436	286.72
602.856	394.38
603.276	284.38
603.696	312.46
604.115	321.82
604.535	326.5
604.955	300.76
605.375	298.42
605.794	307.78
606.214	298.42
606.634	305.44
607.053	300.76
607.473	296.08
607.892	324.16
608.311	272.67
608.731	289.06
609.15	300.76
609.569	260.97
609.988	331.19
610.407	375.66
610.826	324.16
611.245	258.63
611.664	310.12
612.083	256.29
612.501	356.93
612.92	326.5
613.339	321.82
613.757	314.8
614.176	275.01
614.594	277.35
615.013	338.21
615.431	289.06
615.85	312.46
616.268	251.61
616.686	312.46
617.104	328.85
617.522	328.85
617.94	331.19
618.358	296.08
618.776	317.14
619.194	314.8
619.612	328.85
620.03	331.19
620.447	345.23
620.865	375.66
621.282	298.42
621.7	352.25
622.117	307.78
622.535	319.48
622.952	305.44
623.369	305.44
623.787	354.59
624.204	286.72
624.621	333.53
625.038	317.14
625.455	317.14
625.872	324.16
626.289	378
626.706	307.78
627.123	272.67
627.539	296.08
627.956	354.59
628.373	289.06
628.789	314.8
629.206	267.99
629.622	293.74
630.038	347.57
630.455	324.16
630.871	275.01
631.287	260.97
631.703	289.06
632.12	366.29
632.536	331.19
632.952	251.61
633.368	282.03
633.783	300.76
634.199	291.4
634.615	265.65
635.031	291.4
635.446	305.44
635.862	300.76
636.277	305.44
636.693	260.97
637.108	291.4
637.524	335.87
637.939	319.48
638.354	321.82
638.77	296.08
639.185	361.61
639.6	319.48
640.015	319.48
640.43	298.42
640.845	275.01
641.259	293.74
641.674	333.53
642.089	366.29
642.504	328.85
642.918	246.93
643.333	317.14
643.747	293.74
644.162	300.76
644.576	352.25
644.991	275.01
645.405	324.16
645.819	331.19
646.233	291.4
646.647	312.46
647.061	345.23
647.475	312.46
647.889	312.46
648.303	277.35
648.717	200.12
649.131	324.16
649.545	293.74
649.958	312.46
650.372	349.91
650.785	349.91
651.199	303.1
651.612	340.55
652.026	363.95
652.439	307.78
652.852	303.1
653.266	275.01
653.679	359.27
654.092	328.85
654.505	296.08
654.918	307.78
655.331	293.74
655.744	345.23
656.156	342.89
656.569	331.19
656.982	300.76
657.394	293.74
657.807	356.93
658.22	317.14
658.632	354.59
659.044	291.4
659.457	317.14
659.869	253.95
660.281	366.29
660.693	310.12
661.106	352.25
661.518	324.16
661.93	366.29
662.342	277.35
662.754	324.16
663.165	349.91
663.577	317.14
663.989	286.72
664.401	312.46
664.812	256.29
665.224	340.55
665.635	366.29
666.047	354.59
666.458	317.14
666.869	321.82
667.281	317.14
667.692	230.54
668.103	272.67
668.514	300.76
668.925	270.33
669.336	272.67
669.747	242.25
670.158	305.44
670.569	305.44
670.979	310.12
671.39	319.48
671.801	394.38
672.211	349.91
672.622	349.91
673.032	356.93
673.443	300.76
673.853	314.8
674.263	298.42
674.674	340.55
675.084	389.7
675.494	277.35
675.904	321.82
676.314	338.21
676.724	312.46
677.134	331.19
677.544	298.42
677.953	331.19
678.363	319.48
678.773	401.4
679.182	312.46
679.592	352.25
680.001	270.33
680.411	277.35
680.82	296.08
681.23	349.91
681.639	312.46
682.048	272.67
682.457	359.27
682.866	298.42
683.275	298.42
683.684	293.74
684.093	263.31
684.502	349.91
684.911	328.85
685.32	324.16
685.728	317.14
686.137	319.48
686.546	326.5
686.954	310.12
687.363	246.93
687.771	282.03
688.179	375.66
688.588	277.35
688.996	347.57
689.404	289.06
689.812	282.03
690.22	305.44
690.628	298.42
691.036	361.61
691.444	347.57
691.852	296.08
692.26	307.78
692.667	310.12
693.075	335.87
693.483	249.27
693.89	340.55
694.298	314.8
694.705	277.35
695.112	319.48
695.52	284.38
695.927	307.78
696.334	312.46
696.741	307.78
697.148	235.22
697.555	289.06
697.962	282.03
698.369	307.78
698.776	370.97
699.183	370.97
699.59	291.4
699.996	305.44
700.403	305.44
700.81	293.74
701.216	284.38
701.623	291.4
702.029	293.74
702.435	312.46
702.842	331.19
703.248	246.93
703.654	328.85
704.06	321.82
704.466	345.23
704.872	275.01
705.278	331.19
705.684	277.35
706.09	279.69
706.496	324.16
706.901	289.06
707.307	279.69
707.712	293.74
708.118	342.89
708.523	335.87
708.929	347.57
709.334	253.95
709.74	349.91
710.145	363.95
710.55	296.08
710.955	366.29
711.36	319.48
711.765	321.82
712.17	310.12
712.575	321.82
712.98	946.75
713.385	342.89
713.789	331.19
714.194	319.48
714.599	340.55
715.003	333.53
715.408	289.06
715.812	275.01
716.217	366.29
716.621	345.23
717.025	303.1
717.429	300.76
717.833	312.46
718.238	305.44
718.642	352.25
719.046	326.5
719.449	333.53
719.853	331.19
720.257	298.42
720.661	279.69
721.065	300.76
721.468	331.19
721.872	321.82
722.275	305.44
722.679	310.12
723.082	263.31
723.485	317.14
723.889	260.97
724.292	289.06
724.695	282.03
725.098	342.89
725.501	347.57
725.904	319.48
726.307	291.4
726.71	305.44
727.113	317.14
727.516	324.16
727.918	333.53
728.321	310.12
728.724	363.95
729.126	310.12
729.529	321.82
729.931	340.55
730.333	314.8
730.736	239.9
731.138	296.08
731.54	321.82
731.942	340.55
732.344	284.38
732.746	279.69
733.148	335.87
733.55	326.5
733.952	303.1
734.354	317.14
734.756	310.12
735.157	333.53
735.559	314.8
735.96	326.5
736.362	342.89
736.763	272.67
737.165	270.33
737.566	275.01
737.967	305.44
738.368	340.55
738.77	286.72
739.171	296.08
739.572	354.59
739.973	307.78
740.374	345.23
740.774	307.78
741.175	354.59
741.576	352.25
741.977	305.44
742.377	324.16
742.778	258.63
743.178	328.85
743.579	289.06
743.979	345.23
744.379	303.1
744.78	289.06
745.18	375.66
745.58	267.99
745.98	291.4
746.38	279.69
746.78	361.61
747.18	324.16
747.58	279.69
747.98	300.76
748.38	342.89
748.779	293.74
749.179	340.55
749.578	282.03
749.978	328.85
750.377	387.36
750.777	312.46
751.176	312.46
751.575	356.93
751.975	324.16
752.374	275.01
752.773	275.01
753.172	331.19
753.571	338.21
753.97	298.42
754.369	363.95
754.768	317.14
755.166	326.5
755.565	319.48
755.964	324.16
756.362	253.95
756.761	286.72
757.159	385.02
757.558	286.72
757.956	312.46
758.354	342.89
758.753	359.27
759.151	291.4
759.549	284.38
759.947	331.19
760.345	331.19
760.743	392.04
761.141	375.66
761.539	303.1
761.936	382.68
762.334	349.91
762.732	324.16
763.129	286.72
763.527	307.78
763.924	253.95
764.322	279.69
764.719	293.74
765.117	298.42
