Data from Al_FLMS009871__1269__16-47-53-869.txt Node

Date: Fri Mar 08 16:47:53 CST 2024
User: pe5414po
Spectrometer: FLMS00987
Trigger mode: 0
Integration Time (sec): 1.000000E-1
Scans to average: 1
Electric dark correction enabled: true
Nonlinearity correction enabled: false
Boxcar width: 0
XAxis mode: Wavelengths
Number of Pixels in Spectrum: 2048
>>>>>Begin Spectral Data<<<<<
188.938	-105.76
189.409	-105.76
189.879	-105.76
190.349	-89.38
190.819	-96.4
191.29	-154.91
191.76	-89.38
192.23	-103.42
192.7	-5.12
193.17	-28.53
193.64	-61.29
194.109	-37.89
194.579	15.94
195.049	4.24
195.519	20.63
195.988	18.29
196.458	44.03
196.927	107.23
197.397	55.73
197.866	29.99
198.336	184.46
198.805	233.61
199.274	163.4
199.744	151.7
200.213	184.46
200.682	261.7
201.151	254.68
201.62	317.87
202.089	217.23
202.558	266.38
203.027	292.13
203.495	278.08
203.964	287.45
204.433	324.9
204.902	266.38
205.37	338.94
205.839	261.7
206.307	322.56
206.776	383.41
207.244	228.93
207.712	301.49
208.181	315.53
208.649	261.7
209.117	301.49
209.585	257.02
210.053	278.08
210.521	247.66
210.989	268.72
211.457	207.87
211.925	247.66
212.393	374.05
212.861	210.21
213.328	280.43
213.796	250
214.264	271.06
214.731	343.62
215.199	271.06
215.666	352.98
216.133	266.38
216.601	292.13
217.068	299.15
217.535	240.64
218.003	303.83
218.47	275.74
218.937	278.08
219.404	292.13
219.871	233.61
220.338	285.11
220.805	172.76
221.271	261.7
221.738	296.81
222.205	226.59
222.671	266.38
223.138	303.83
223.605	268.72
224.071	238.3
224.538	240.64
225.004	294.47
225.47	303.83
225.937	285.11
226.403	308.51
226.869	271.06
227.335	266.38
227.801	271.06
228.267	294.47
228.733	362.34
229.199	310.85
229.665	266.38
230.131	278.08
230.597	280.43
231.062	294.47
231.528	235.96
231.994	289.79
232.459	294.47
232.925	212.55
233.39	224.25
233.856	231.27
234.321	226.59
234.786	289.79
235.252	289.79
235.717	301.49
236.182	289.79
236.647	250
237.112	287.45
237.577	245.32
238.042	310.85
238.507	371.71
238.972	289.79
239.436	280.43
239.901	320.21
240.366	310.85
240.83	261.7
241.295	273.4
241.76	268.72
242.224	310.85
242.688	301.49
243.153	296.81
243.617	282.77
244.081	280.43
244.545	287.45
245.01	301.49
245.474	303.83
245.938	282.77
246.402	348.3
246.866	238.3
247.33	250
247.793	252.34
248.257	278.08
248.721	301.49
249.185	261.7
249.648	289.79
250.112	306.17
250.575	308.51
251.039	273.4
251.502	235.96
251.965	296.81
252.429	336.6
252.892	282.77
253.355	282.77
253.818	282.77
254.281	242.98
254.744	264.04
255.207	301.49
255.67	296.81
256.133	334.26
256.596	320.21
257.059	292.13
257.522	296.81
257.984	271.06
258.447	355.32
258.909	278.08
259.372	264.04
259.834	285.11
260.297	268.72
260.759	310.85
261.221	280.43
261.684	306.17
262.146	322.56
262.608	271.06
263.07	320.21
263.532	184.46
263.994	355.32
264.456	271.06
264.918	273.4
265.38	301.49
265.842	285.11
266.303	240.64
266.765	264.04
267.227	259.36
267.688	329.58
268.15	271.06
268.611	261.7
269.072	254.68
269.534	317.87
269.995	278.08
270.456	329.58
270.918	329.58
271.379	315.53
271.84	310.85
272.301	303.83
272.762	320.21
273.223	296.81
273.684	280.43
274.144	292.13
274.605	327.24
275.066	315.53
275.527	289.79
275.987	324.9
276.448	287.45
276.908	310.85
277.369	261.7
277.829	240.64
278.289	289.79
278.75	313.19
279.21	329.58
279.67	292.13
280.13	313.19
280.59	310.85
281.05	355.32
281.51	320.21
281.97	310.85
282.43	238.3
282.89	296.81
283.35	343.62
283.809	334.26
284.269	254.68
284.729	313.19
285.188	322.56
285.648	336.6
286.107	275.74
286.567	320.21
287.026	317.87
287.485	322.56
287.944	282.77
288.404	345.96
288.863	287.45
289.322	287.45
289.781	317.87
290.24	292.13
290.699	310.85
291.158	271.06
291.616	247.66
292.075	273.4
292.534	306.17
292.992	287.45
293.451	259.36
293.91	224.25
294.368	315.53
294.827	317.87
295.285	308.51
295.743	299.15
296.202	357.66
296.66	360
297.118	301.49
297.576	329.58
298.034	273.4
298.492	292.13
298.95	271.06
299.408	250
299.866	310.85
300.324	352.98
300.781	306.17
301.239	320.21
301.697	360
302.154	329.58
302.612	303.83
303.069	271.06
303.527	296.81
303.984	294.47
304.441	254.68
304.899	294.47
305.356	310.85
305.813	331.92
306.27	317.87
306.727	296.81
307.184	364.68
307.641	367.03
308.098	294.47
308.555	292.13
309.012	364.68
309.468	343.62
309.925	320.21
310.382	360
310.838	245.32
311.295	301.49
311.751	327.24
312.208	268.72
312.664	294.47
313.12	231.27
313.577	324.9
314.033	320.21
314.489	317.87
314.945	308.51
315.401	322.56
315.857	275.74
316.313	315.53
316.769	278.08
317.225	296.81
317.681	345.96
318.136	336.6
318.592	289.79
319.048	289.79
319.503	289.79
319.959	320.21
320.414	343.62
320.869	268.72
321.325	357.66
321.78	306.17
322.235	334.26
322.691	303.83
323.146	285.11
323.601	320.21
324.056	350.64
324.511	322.56
324.966	369.37
325.421	331.92
325.875	343.62
326.33	341.28
326.785	308.51
327.24	317.87
327.694	228.93
328.149	341.28
328.603	341.28
329.058	329.58
329.512	348.3
329.966	327.24
330.421	369.37
330.875	285.11
331.329	310.85
331.783	310.85
332.237	367.03
332.691	350.64
333.145	317.87
333.599	343.62
334.053	310.85
334.507	338.94
334.96	322.56
335.414	348.3
335.868	299.15
336.321	273.4
336.775	324.9
337.228	303.83
337.682	338.94
338.135	259.36
338.588	306.17
339.042	275.74
339.495	369.37
339.948	315.53
340.401	331.92
340.854	294.47
341.307	327.24
341.76	350.64
342.213	331.92
342.666	360
343.119	289.79
343.571	315.53
344.024	331.92
344.477	308.51
344.929	317.87
345.382	301.49
345.834	280.43
346.287	275.74
346.739	315.53
347.191	390.43
347.644	301.49
348.096	338.94
348.548	289.79
349	331.92
349.452	374.05
349.904	273.4
350.356	320.21
350.808	338.94
351.26	285.11
351.711	376.39
352.163	338.94
352.615	306.17
353.066	343.62
353.518	299.15
353.969	292.13
354.421	254.68
354.872	285.11
355.324	313.19
355.775	320.21
356.226	268.72
356.677	352.98
357.128	322.56
357.579	303.83
358.03	362.34
358.481	313.19
358.932	313.19
359.383	289.79
359.834	392.77
360.285	331.92
360.735	345.96
361.186	331.92
361.637	357.66
362.087	338.94
362.538	261.7
362.988	343.62
363.438	317.87
363.889	278.08
364.339	371.71
364.789	334.26
365.239	331.92
365.689	357.66
366.139	308.51
366.589	280.43
367.039	303.83
367.489	336.6
367.939	367.03
368.389	348.3
368.839	301.49
369.288	313.19
369.738	371.71
370.187	338.94
370.637	404.47
371.086	381.07
371.536	294.47
371.985	308.51
372.434	287.45
372.884	287.45
373.333	327.24
373.782	341.28
374.231	301.49
374.68	360
375.129	261.7
375.578	352.98
376.027	331.92
376.475	324.9
376.924	313.19
377.373	338.94
377.822	308.51
378.27	360
378.719	261.7
379.167	388.09
379.616	324.9
380.064	264.04
380.512	303.83
380.961	273.4
381.409	350.64
381.857	280.43
382.305	301.49
382.753	317.87
383.201	376.39
383.649	308.51
384.097	343.62
384.545	296.81
384.992	315.53
385.44	334.26
385.888	273.4
386.335	341.28
386.783	345.96
387.231	322.56
387.678	303.83
388.125	348.3
388.573	317.87
389.02	287.45
389.467	289.79
389.914	299.15
390.362	329.58
390.809	324.9
391.256	275.74
391.703	259.36
392.15	273.4
392.596	343.62
393.043	317.87
393.49	336.6
393.937	341.28
394.383	306.17
394.83	331.92
395.276	329.58
395.723	334.26
396.169	289.79
396.616	341.28
397.062	341.28
397.508	310.85
397.954	289.79
398.401	362.34
398.847	336.6
399.293	345.96
399.739	357.66
400.185	306.17
400.631	275.74
401.076	315.53
401.522	296.81
401.968	334.26
402.414	327.24
402.859	303.83
403.305	336.6
403.75	364.68
404.196	303.83
404.641	334.26
405.086	313.19
405.532	357.66
405.977	306.17
406.422	341.28
406.867	299.15
407.312	317.87
407.757	371.71
408.202	345.96
408.647	364.68
409.092	320.21
409.537	362.34
409.982	322.56
410.426	306.17
410.871	324.9
411.316	338.94
411.76	308.51
412.205	322.56
412.649	364.68
413.093	341.28
413.538	310.85
413.982	264.04
414.426	313.19
414.87	306.17
415.314	322.56
415.758	292.13
416.202	282.77
416.646	299.15
417.09	350.64
417.534	308.51
417.978	320.21
418.421	357.66
418.865	343.62
419.309	285.11
419.752	334.26
420.196	306.17
420.639	320.21
421.083	331.92
421.526	285.11
421.969	299.15
422.412	308.51
422.856	315.53
423.299	275.74
423.742	364.68
424.185	310.85
424.628	315.53
425.071	313.19
425.513	322.56
425.956	306.17
426.399	259.36
426.842	331.92
427.284	355.32
427.727	289.79
428.169	360
428.612	341.28
429.054	313.19
429.497	287.45
429.939	376.39
430.381	322.56
430.823	355.32
431.265	327.24
431.707	336.6
432.149	334.26
432.591	289.79
433.033	371.71
433.475	320.21
433.917	352.98
434.359	355.32
434.8	334.26
435.242	313.19
435.684	301.49
436.125	299.15
436.567	357.66
437.008	313.19
437.449	369.37
437.891	273.4
438.332	399.79
438.773	296.81
439.214	364.68
439.656	331.92
440.097	357.66
440.538	331.92
440.978	355.32
441.419	296.81
441.86	378.73
442.301	329.58
442.742	313.19
443.182	324.9
443.623	303.83
444.063	341.28
444.504	287.45
444.944	364.68
445.385	374.05
445.825	331.92
446.265	350.64
446.706	341.28
447.146	259.36
447.586	376.39
448.026	345.96
448.466	280.43
448.906	355.32
449.346	374.05
449.786	324.9
450.225	334.26
450.665	315.53
451.105	287.45
451.544	376.39
451.984	271.06
452.424	299.15
452.863	317.87
453.302	369.37
453.742	357.66
454.181	320.21
454.62	334.26
455.059	250
455.499	299.15
455.938	278.08
456.377	278.08
456.816	374.05
457.254	378.73
457.693	352.98
458.132	331.92
458.571	383.41
459.01	282.77
459.448	341.28
459.887	313.19
460.325	322.56
460.764	357.66
461.202	381.07
461.641	341.28
462.079	294.47
462.517	336.6
462.955	315.53
463.393	327.24
463.832	299.15
464.27	280.43
464.708	343.62
465.145	327.24
465.583	357.66
466.021	338.94
466.459	301.49
466.897	345.96
467.334	320.21
467.772	343.62
468.209	306.17
468.647	306.17
469.084	367.03
469.522	324.9
469.959	303.83
470.396	331.92
470.833	299.15
471.271	348.3
471.708	322.56
472.145	285.11
472.582	327.24
473.019	306.17
473.456	338.94
473.892	350.64
474.329	313.19
474.766	320.21
475.202	317.87
475.639	343.62
476.076	327.24
476.512	271.06
476.949	329.58
477.385	296.81
477.821	294.47
478.258	315.53
478.694	352.98
479.13	292.13
479.566	299.15
480.002	313.19
480.438	350.64
480.874	341.28
481.31	301.49
481.746	278.08
482.181	317.87
482.617	271.06
483.053	266.38
483.488	334.26
483.924	317.87
484.36	273.4
484.795	306.17
485.23	317.87
485.666	280.43
486.101	292.13
486.536	324.9
486.971	313.19
487.407	371.71
487.842	259.36
488.277	329.58
488.712	331.92
489.146	397.45
489.581	327.24
490.016	275.74
490.451	324.9
490.885	322.56
491.32	280.43
491.755	334.26
492.189	355.32
492.624	308.51
493.058	360
493.492	320.21
493.927	341.28
494.361	245.32
494.795	282.77
495.229	289.79
495.663	390.43
496.097	285.11
496.531	334.26
496.965	334.26
497.399	329.58
497.833	313.19
498.266	299.15
498.7	299.15
499.134	327.24
499.567	367.03
500.001	345.96
500.434	343.62
500.868	334.26
501.301	338.94
501.734	287.45
502.168	357.66
502.601	355.32
503.034	364.68
503.467	315.53
503.9	331.92
504.333	264.04
504.766	278.08
505.199	352.98
505.632	369.37
506.064	434.9
506.497	320.21
506.93	322.56
507.362	271.06
507.795	257.02
508.227	364.68
508.66	315.53
509.092	336.6
509.524	292.13
509.956	444.26
510.389	296.81
510.821	233.61
511.253	320.21
511.685	381.07
512.117	280.43
512.549	378.73
512.981	334.26
513.412	278.08
513.844	327.24
514.276	329.58
514.707	336.6
515.139	350.64
515.571	355.32
516.002	362.34
516.433	310.85
516.865	324.9
517.296	350.64
517.727	268.72
518.159	331.92
518.59	306.17
519.021	355.32
519.452	317.87
519.883	313.19
520.314	336.6
520.744	331.92
521.175	348.3
521.606	329.58
522.037	406.81
522.467	310.85
522.898	303.83
523.328	315.53
523.759	343.62
524.189	341.28
524.62	296.81
525.05	308.51
525.48	350.64
525.91	313.19
526.341	388.09
526.771	355.32
527.201	296.81
527.631	355.32
528.061	308.51
528.49	266.38
528.92	324.9
529.35	317.87
529.78	273.4
530.209	315.53
530.639	369.37
531.068	345.96
531.498	292.13
531.927	217.23
532.357	294.47
532.786	336.6
533.215	352.98
533.644	320.21
534.074	320.21
534.503	294.47
534.932	282.77
535.361	289.79
535.79	343.62
536.218	268.72
536.647	317.87
537.076	259.36
537.505	348.3
537.933	355.32
538.362	341.28
538.79	329.58
539.219	369.37
539.647	320.21
540.076	296.81
540.504	308.51
540.932	268.72
541.36	303.83
541.788	287.45
542.217	317.87
542.645	334.26
543.073	303.83
543.5	355.32
543.928	308.51
544.356	320.21
544.784	336.6
545.211	308.51
545.639	352.98
546.067	282.77
546.494	385.75
546.922	390.43
547.349	348.3
547.776	280.43
548.204	357.66
548.631	352.98
549.058	257.02
549.485	306.17
549.912	296.81
550.339	278.08
550.766	336.6
551.193	303.83
551.62	294.47
552.047	345.96
552.474	336.6
552.9	338.94
553.327	266.38
553.754	313.19
554.18	282.77
554.607	338.94
555.033	268.72
555.459	355.32
555.886	345.96
556.312	320.21
556.738	338.94
557.164	308.51
557.59	315.53
558.016	324.9
558.442	334.26
558.868	306.17
559.294	367.03
559.72	327.24
560.145	322.56
560.571	374.05
560.997	308.51
561.422	301.49
561.848	352.98
562.273	341.28
562.699	343.62
563.124	334.26
563.549	376.39
563.974	303.83
564.4	327.24
564.825	327.24
565.25	289.79
565.675	315.53
566.1	308.51
566.525	310.85
566.95	371.71
567.374	315.53
567.799	247.66
568.224	329.58
568.648	315.53
569.073	331.92
569.497	345.96
569.922	317.87
570.346	273.4
570.771	266.38
571.195	341.28
571.619	259.36
572.043	306.17
572.467	320.21
572.891	266.38
573.315	308.51
573.739	285.11
574.163	289.79
574.587	287.45
575.011	294.47
575.435	264.04
575.858	345.96
576.282	357.66
576.705	360
577.129	360
577.552	381.07
577.976	338.94
578.399	292.13
578.822	364.68
579.245	285.11
579.669	285.11
580.092	296.81
580.515	324.9
580.938	324.9
581.361	317.87
581.784	341.28
582.206	308.51
582.629	350.64
583.052	313.19
583.474	352.98
583.897	388.09
584.32	320.21
584.742	327.24
585.165	331.92
585.587	369.37
586.009	294.47
586.431	287.45
586.854	352.98
587.276	313.19
587.698	266.38
588.12	378.73
588.542	350.64
588.964	285.11
589.386	313.19
589.807	336.6
590.229	355.32
590.651	350.64
591.073	345.96
591.494	303.83
591.916	268.72
592.337	282.77
592.759	285.11
593.18	348.3
593.601	294.47
594.022	341.28
594.444	301.49
594.865	294.47
595.286	352.98
595.707	355.32
596.128	327.24
596.549	264.04
596.97	355.32
597.39	317.87
597.811	329.58
598.232	235.96
598.652	282.77
599.073	296.81
599.494	334.26
599.914	367.03
600.334	320.21
600.755	287.45
601.175	299.15
601.595	289.79
602.015	264.04
602.436	250
602.856	481.71
603.276	329.58
603.696	376.39
604.115	264.04
604.535	345.96
604.955	336.6
605.375	362.34
605.794	315.53
606.214	367.03
606.634	357.66
607.053	264.04
607.473	355.32
607.892	345.96
608.311	278.08
608.731	296.81
609.15	301.49
609.569	324.9
609.988	357.66
610.407	327.24
610.826	327.24
611.245	343.62
611.664	331.92
612.083	362.34
612.501	385.75
612.92	306.17
613.339	360
613.757	327.24
614.176	327.24
614.594	315.53
615.013	331.92
615.431	271.06
615.85	278.08
616.268	278.08
616.686	233.61
617.104	308.51
617.522	240.64
617.94	303.83
618.358	289.79
618.776	310.85
619.194	268.72
619.612	299.15
620.03	331.92
620.447	352.98
620.865	296.81
621.282	378.73
621.7	278.08
622.117	299.15
622.535	336.6
622.952	383.41
623.369	350.64
623.787	289.79
624.204	352.98
624.621	357.66
625.038	282.77
625.455	327.24
625.872	320.21
626.289	360
626.706	310.85
627.123	296.81
627.539	367.03
627.956	324.9
628.373	252.34
628.789	282.77
629.206	378.73
629.622	329.58
630.038	369.37
630.455	320.21
630.871	357.66
631.287	331.92
631.703	250
632.12	303.83
632.536	306.17
632.952	329.58
633.368	266.38
633.783	238.3
634.199	317.87
634.615	275.74
635.031	385.75
635.446	416.18
635.862	336.6
636.277	334.26
636.693	378.73
637.108	324.9
637.524	378.73
637.939	329.58
638.354	355.32
638.77	355.32
639.185	313.19
639.6	266.38
640.015	292.13
640.43	301.49
640.845	381.07
641.259	313.19
641.674	355.32
642.089	352.98
642.504	329.58
642.918	355.32
643.333	374.05
643.747	301.49
644.162	350.64
644.576	278.08
644.991	352.98
645.405	371.71
645.819	348.3
646.233	303.83
646.647	308.51
647.061	322.56
647.475	341.28
647.889	306.17
648.303	341.28
648.717	334.26
649.131	280.43
649.545	303.83
649.958	327.24
650.372	285.11
650.785	317.87
651.199	282.77
651.612	331.92
652.026	376.39
652.439	397.45
652.852	357.66
653.266	278.08
653.679	341.28
654.092	315.53
654.505	345.96
654.918	418.52
655.331	317.87
655.744	322.56
656.156	378.73
656.569	301.49
656.982	350.64
657.394	301.49
657.807	364.68
658.22	388.09
658.632	292.13
659.044	341.28
659.457	343.62
659.869	362.34
660.281	327.24
660.693	413.84
661.106	327.24
661.518	313.19
661.93	322.56
662.342	334.26
662.754	292.13
663.165	343.62
663.577	275.74
663.989	317.87
664.401	331.92
664.812	315.53
665.224	317.87
665.635	345.96
666.047	273.4
666.458	331.92
666.869	355.32
667.281	385.75
667.692	338.94
668.103	371.71
668.514	345.96
668.925	334.26
669.336	343.62
669.747	231.27
670.158	285.11
670.569	315.53
670.979	341.28
671.39	266.38
671.801	322.56
672.211	336.6
672.622	280.43
673.032	289.79
673.443	355.32
673.853	364.68
674.263	348.3
674.674	334.26
675.084	362.34
675.494	343.62
675.904	310.85
676.314	254.68
676.724	331.92
677.134	369.37
677.544	355.32
677.953	390.43
678.363	357.66
678.773	341.28
679.182	336.6
679.592	329.58
680.001	327.24
680.411	329.58
680.82	252.34
681.23	324.9
681.639	296.81
682.048	306.17
682.457	329.58
682.866	376.39
683.275	308.51
683.684	275.74
684.093	388.09
684.502	362.34
684.911	259.36
685.32	324.9
685.728	374.05
686.137	322.56
686.546	345.96
686.954	317.87
687.363	322.56
687.771	324.9
688.179	341.28
688.588	367.03
688.996	334.26
689.404	327.24
689.812	317.87
690.22	247.66
690.628	259.36
691.036	341.28
691.444	334.26
691.852	268.72
692.26	294.47
692.667	360
693.075	388.09
693.483	266.38
693.89	336.6
694.298	327.24
694.705	303.83
695.112	345.96
695.52	331.92
695.927	320.21
696.334	376.39
696.741	331.92
697.148	315.53
697.555	360
697.962	282.77
698.369	296.81
698.776	252.34
699.183	299.15
699.59	313.19
699.996	250
700.403	355.32
700.81	301.49
701.216	348.3
701.623	299.15
702.029	280.43
702.435	338.94
702.842	315.53
703.248	278.08
703.654	320.21
704.06	320.21
704.466	296.81
704.872	285.11
705.278	355.32
705.684	292.13
706.09	268.72
706.496	285.11
706.901	341.28
707.307	310.85
707.712	296.81
708.118	327.24
708.523	280.43
708.929	322.56
709.334	338.94
709.74	341.28
710.145	343.62
710.55	301.49
710.955	345.96
711.36	357.66
711.765	275.74
712.17	360
712.575	301.49
712.98	877.26
713.385	320.21
713.789	322.56
714.194	299.15
714.599	306.17
715.003	355.32
715.408	306.17
715.812	350.64
716.217	259.36
716.621	289.79
717.025	324.9
717.429	317.87
717.833	317.87
718.238	317.87
718.642	287.45
719.046	336.6
719.449	367.03
719.853	296.81
720.257	306.17
720.661	322.56
721.065	352.98
721.468	282.77
721.872	317.87
722.275	303.83
722.679	303.83
723.082	257.02
723.485	278.08
723.889	343.62
724.292	313.19
724.695	355.32
725.098	294.47
725.501	369.37
725.904	355.32
726.307	294.47
726.71	320.21
727.113	350.64
727.516	369.37
727.918	357.66
728.321	299.15
728.724	348.3
729.126	350.64
729.529	350.64
729.931	301.49
730.333	278.08
730.736	287.45
731.138	271.06
731.54	331.92
731.942	306.17
732.344	299.15
732.746	336.6
733.148	264.04
733.55	341.28
733.952	317.87
734.354	329.58
734.756	235.96
735.157	348.3
735.559	350.64
735.96	306.17
736.362	292.13
736.763	273.4
737.165	324.9
737.566	322.56
737.967	303.83
738.368	315.53
738.77	292.13
739.171	317.87
739.572	271.06
739.973	289.79
740.374	299.15
740.774	329.58
741.175	320.21
741.576	296.81
741.977	287.45
742.377	381.07
742.778	310.85
743.178	367.03
743.579	313.19
743.979	289.79
744.379	341.28
744.78	371.71
745.18	301.49
745.58	303.83
745.98	282.77
746.38	360
746.78	303.83
747.18	357.66
747.58	322.56
747.98	240.64
748.38	341.28
748.779	280.43
749.179	348.3
749.578	355.32
749.978	383.41
750.377	378.73
750.777	324.9
751.176	334.26
751.575	268.72
751.975	306.17
752.374	308.51
752.773	336.6
753.172	303.83
753.571	299.15
753.97	327.24
754.369	301.49
754.768	296.81
755.166	350.64
755.565	292.13
755.964	329.58
756.362	310.85
756.761	280.43
757.159	350.64
757.558	352.98
757.956	324.9
758.354	371.71
758.753	357.66
759.151	257.02
759.549	294.47
759.947	285.11
760.345	280.43
760.743	320.21
761.141	360
761.539	369.37
761.936	345.96
762.334	376.39
762.732	301.49
763.129	266.38
763.527	331.92
763.924	287.45
764.322	357.66
764.719	306.17
765.117	294.47
765.514	317.87
765.911	322.56
766.308	324.9
