Data from Al_FLMS009871__1278__16-47-54-769.txt Node

Date: Fri Mar 08 16:47:54 CST 2024
User: pe5414po
Spectrometer: FLMS00987
Trigger mode: 0
Integration Time (sec): 1.000000E-1
Scans to average: 1
Electric dark correction enabled: true
Nonlinearity correction enabled: false
Boxcar width: 0
XAxis mode: Wavelengths
Number of Pixels in Spectrum: 2048
>>>>>Begin Spectral Data<<<<<
188.938	-78.85
189.409	-78.85
189.879	-78.85
190.349	-92.89
190.819	-85.87
191.29	-128
191.76	-99.91
192.23	-116.3
192.7	-69.48
193.17	-90.55
193.64	-116.3
194.109	-64.8
194.579	-10.97
195.049	-6.29
195.519	56.9
195.988	40.52
196.458	47.54
196.927	87.33
197.397	103.71
197.866	145.84
198.336	220.74
198.805	131.8
199.274	150.53
199.744	141.16
200.213	190.31
200.682	152.87
201.151	202.02
201.62	211.38
202.089	239.47
202.558	173.93
203.027	253.51
203.495	232.44
203.964	288.62
204.433	330.75
204.902	255.85
205.37	290.96
205.839	297.98
206.307	293.3
206.776	286.28
207.244	342.45
207.712	286.28
208.181	340.11
208.649	356.49
209.117	297.98
209.585	293.3
210.053	302.66
210.521	258.19
210.989	295.64
211.457	237.13
211.925	281.6
212.393	319.04
212.861	326.07
213.328	283.94
213.796	361.17
214.264	239.47
214.731	305
215.199	255.85
215.666	281.6
216.133	255.85
216.601	363.51
217.068	293.3
217.535	267.55
218.003	300.32
218.47	281.6
218.937	265.21
219.404	267.55
219.871	241.81
220.338	220.74
220.805	276.91
221.271	234.78
221.738	279.26
222.205	237.13
222.671	265.21
223.138	246.49
223.605	248.83
224.071	302.66
224.538	239.47
225.004	290.96
225.47	262.87
225.937	265.21
226.403	290.96
226.869	218.4
227.335	267.55
227.801	244.15
228.267	234.78
228.733	276.91
229.199	281.6
229.665	209.04
230.131	272.23
230.597	253.51
231.062	260.53
231.528	234.78
231.994	239.47
232.459	290.96
232.925	323.73
233.39	293.3
233.856	290.96
234.321	223.08
234.786	337.77
235.252	227.76
235.717	323.73
236.182	309.68
236.647	288.62
237.112	258.19
237.577	244.15
238.042	279.26
238.507	314.36
238.972	279.26
239.436	297.98
239.901	211.38
240.366	246.49
240.83	223.08
241.295	274.57
241.76	335.43
242.224	293.3
242.688	300.32
243.153	340.11
243.617	290.96
244.081	269.89
244.545	295.64
245.01	323.73
245.474	248.83
245.938	220.74
246.402	297.98
246.866	321.38
247.33	297.98
247.793	354.15
248.257	279.26
248.721	241.81
249.185	328.41
249.648	288.62
250.112	326.07
250.575	321.38
251.039	269.89
251.502	262.87
251.965	274.57
252.429	283.94
252.892	314.36
253.355	312.02
253.818	248.83
254.281	281.6
254.744	272.23
255.207	283.94
255.67	258.19
256.133	307.34
256.596	239.47
257.059	253.51
257.522	295.64
257.984	288.62
258.447	293.3
258.909	326.07
259.372	244.15
259.834	288.62
260.297	269.89
260.759	314.36
261.221	344.79
261.684	328.41
262.146	326.07
262.608	283.94
263.07	246.49
263.532	213.72
263.994	281.6
264.456	302.66
264.918	295.64
265.38	290.96
265.842	302.66
266.303	253.51
266.765	290.96
267.227	274.57
267.688	333.09
268.15	314.36
268.611	248.83
269.072	314.36
269.534	290.96
269.995	312.02
270.456	344.79
270.918	293.3
271.379	213.72
271.84	234.78
272.301	295.64
272.762	312.02
273.223	276.91
273.684	269.89
274.144	342.45
274.605	316.7
275.066	305
275.527	335.43
275.987	297.98
276.448	283.94
276.908	316.7
277.369	354.15
277.829	274.57
278.289	265.21
278.75	281.6
279.21	269.89
279.67	237.13
280.13	281.6
280.59	305
281.05	276.91
281.51	293.3
281.97	225.42
282.43	347.13
282.89	302.66
283.35	330.75
283.809	258.19
284.269	290.96
284.729	295.64
285.188	295.64
285.648	305
286.107	269.89
286.567	337.77
287.026	307.34
287.485	316.7
287.944	316.7
288.404	302.66
288.863	309.68
289.322	283.94
289.781	279.26
290.24	344.79
290.699	333.09
291.158	281.6
291.616	305
292.075	358.83
292.534	340.11
292.992	316.7
293.451	295.64
293.91	265.21
294.368	276.91
294.827	347.13
295.285	288.62
295.743	330.75
296.202	351.81
296.66	274.57
297.118	286.28
297.576	297.98
298.034	272.23
298.492	265.21
298.95	281.6
299.408	349.47
299.866	312.02
300.324	328.41
300.781	290.96
301.239	319.04
301.697	351.81
302.154	272.23
302.612	342.45
303.069	248.83
303.527	290.96
303.984	279.26
304.441	286.28
304.899	358.83
305.356	302.66
305.813	253.51
306.27	265.21
306.727	302.66
307.184	309.68
307.641	351.81
308.098	342.45
308.555	253.51
309.012	272.23
309.468	351.81
309.925	288.62
310.382	269.89
310.838	239.47
311.295	276.91
311.751	312.02
312.208	335.43
312.664	302.66
313.12	241.81
313.577	335.43
314.033	342.45
314.489	316.7
314.945	286.28
315.401	302.66
315.857	302.66
316.313	288.62
316.769	307.34
317.225	316.7
317.681	272.23
318.136	262.87
318.592	260.53
319.048	237.13
319.503	288.62
319.959	272.23
320.414	300.32
320.869	335.43
321.325	333.09
321.78	349.47
322.235	258.19
322.691	290.96
323.146	283.94
323.601	354.15
324.056	365.85
324.511	354.15
324.966	258.19
325.421	272.23
325.875	265.21
326.33	323.73
326.785	237.13
327.24	330.75
327.694	272.23
328.149	319.04
328.603	307.34
329.058	305
329.512	319.04
329.966	319.04
330.421	305
330.875	279.26
331.329	330.75
331.783	286.28
332.237	286.28
332.691	349.47
333.145	241.81
333.599	314.36
334.053	297.98
334.507	255.85
334.96	267.55
335.414	288.62
335.868	312.02
336.321	241.81
336.775	305
337.228	269.89
337.682	274.57
338.135	361.17
338.588	340.11
339.042	274.57
339.495	335.43
339.948	319.04
340.401	297.98
340.854	328.41
341.307	305
341.76	288.62
342.213	286.28
342.666	288.62
343.119	305
343.571	307.34
344.024	274.57
344.477	340.11
344.929	354.15
345.382	307.34
345.834	269.89
346.287	295.64
346.739	323.73
347.191	283.94
347.644	283.94
348.096	307.34
348.548	330.75
349	307.34
349.452	248.83
349.904	276.91
350.356	302.66
350.808	281.6
351.26	312.02
351.711	288.62
352.163	358.83
352.615	323.73
353.066	333.09
353.518	305
353.969	321.38
354.421	300.32
354.872	297.98
355.324	312.02
355.775	302.66
356.226	342.45
356.677	276.91
357.128	283.94
357.579	272.23
358.03	295.64
358.481	326.07
358.932	293.3
359.383	258.19
359.834	309.68
360.285	293.3
360.735	349.47
361.186	272.23
361.637	293.3
362.087	295.64
362.538	337.77
362.988	314.36
363.438	309.68
363.889	337.77
364.339	293.3
364.789	342.45
365.239	382.24
365.689	314.36
366.139	342.45
366.589	309.68
367.039	279.26
367.489	274.57
367.939	372.88
368.389	396.28
368.839	314.36
369.288	288.62
369.738	272.23
370.187	316.7
370.637	375.22
371.086	307.34
371.536	269.89
371.985	328.41
372.434	382.24
372.884	356.49
373.333	283.94
373.782	260.53
374.231	375.22
374.68	302.66
375.129	328.41
375.578	272.23
376.027	307.34
376.475	290.96
376.924	323.73
377.373	262.87
377.822	319.04
378.27	386.92
378.719	290.96
379.167	269.89
379.616	342.45
380.064	267.55
380.512	253.51
380.961	384.58
381.409	307.34
381.857	307.34
382.305	297.98
382.753	244.15
383.201	305
383.649	316.7
384.097	288.62
384.545	344.79
384.992	319.04
385.44	297.98
385.888	368.2
386.335	382.24
386.783	283.94
387.231	347.13
387.678	326.07
388.125	272.23
388.573	288.62
389.02	319.04
389.467	328.41
389.914	246.49
390.362	337.77
390.809	302.66
391.256	286.28
391.703	365.85
392.15	253.51
392.596	309.68
393.043	295.64
393.49	279.26
393.937	328.41
394.383	305
394.83	337.77
395.276	372.88
395.723	330.75
396.169	309.68
396.616	274.57
397.062	276.91
397.508	354.15
397.954	276.91
398.401	319.04
398.847	319.04
399.293	382.24
399.739	255.85
400.185	316.7
400.631	276.91
401.076	300.32
401.522	288.62
401.968	305
402.414	358.83
402.859	293.3
403.305	281.6
403.75	335.43
404.196	307.34
404.641	347.13
405.086	253.51
405.532	328.41
405.977	326.07
406.422	368.2
406.867	290.96
407.312	309.68
407.757	290.96
408.202	386.92
408.647	290.96
409.092	342.45
409.537	258.19
409.982	375.22
410.426	370.54
410.871	286.28
411.316	307.34
411.76	326.07
412.205	267.55
412.649	386.92
413.093	302.66
413.538	293.3
413.982	349.47
414.426	316.7
414.87	319.04
415.314	337.77
415.758	253.51
416.202	305
416.646	279.26
417.09	337.77
417.534	323.73
417.978	295.64
418.421	251.17
418.865	293.3
419.309	337.77
419.752	269.89
420.196	288.62
420.639	335.43
421.083	300.32
421.526	361.17
421.969	260.53
422.412	302.66
422.856	302.66
423.299	337.77
423.742	279.26
424.185	321.38
424.628	258.19
425.071	361.17
425.513	309.68
425.956	274.57
426.399	365.85
426.842	307.34
427.284	335.43
427.727	305
428.169	375.22
428.612	328.41
429.054	237.13
429.497	269.89
429.939	321.38
430.381	328.41
430.823	290.96
431.265	305
431.707	288.62
432.149	351.81
432.591	309.68
433.033	281.6
433.475	312.02
433.917	297.98
434.359	283.94
434.8	323.73
435.242	361.17
435.684	253.51
436.125	283.94
436.567	319.04
437.008	283.94
437.449	321.38
437.891	290.96
438.332	253.51
438.773	272.23
439.214	319.04
439.656	276.91
440.097	305
440.538	290.96
440.978	216.06
441.419	244.15
441.86	340.11
442.301	274.57
442.742	319.04
443.182	328.41
443.623	328.41
444.063	323.73
444.504	272.23
444.944	267.55
445.385	314.36
445.825	272.23
446.265	274.57
446.706	323.73
447.146	307.34
447.586	297.98
448.026	342.45
448.466	370.54
448.906	279.26
449.346	265.21
449.786	283.94
450.225	307.34
450.665	265.21
451.105	330.75
451.544	342.45
451.984	305
452.424	410.33
452.863	323.73
453.302	314.36
453.742	302.66
454.181	307.34
454.62	302.66
455.059	316.7
455.499	335.43
455.938	234.78
456.377	260.53
456.816	319.04
457.254	349.47
457.693	251.17
458.132	295.64
458.571	335.43
459.01	337.77
459.448	337.77
459.887	307.34
460.325	363.51
460.764	297.98
461.202	370.54
461.641	375.22
462.079	349.47
462.517	316.7
462.955	344.79
463.393	302.66
463.832	305
464.27	319.04
464.708	312.02
465.145	297.98
465.583	267.55
466.021	326.07
466.459	347.13
466.897	342.45
467.334	344.79
467.772	321.38
468.209	340.11
468.647	262.87
469.084	312.02
469.522	297.98
469.959	281.6
470.396	309.68
470.833	286.28
471.271	253.51
471.708	302.66
472.145	333.09
472.582	356.49
473.019	363.51
473.456	342.45
473.892	300.32
474.329	297.98
474.766	323.73
475.202	274.57
475.639	302.66
476.076	281.6
476.512	316.7
476.949	251.17
477.385	351.81
477.821	347.13
478.258	337.77
478.694	307.34
479.13	340.11
479.566	297.98
480.002	286.28
480.438	258.19
480.874	260.53
481.31	333.09
481.746	297.98
482.181	326.07
482.617	330.75
483.053	241.81
483.488	307.34
483.924	260.53
484.36	335.43
484.795	351.81
485.23	302.66
485.666	377.56
486.101	340.11
486.536	349.47
486.971	330.75
487.407	309.68
487.842	262.87
488.277	323.73
488.712	295.64
489.146	356.49
489.581	333.09
490.016	337.77
490.451	241.81
490.885	297.98
491.32	286.28
491.755	335.43
492.189	309.68
492.624	316.7
493.058	382.24
493.492	312.02
493.927	335.43
494.361	342.45
494.795	283.94
495.229	358.83
495.663	300.32
496.097	316.7
496.531	344.79
496.965	258.19
497.399	276.91
497.833	337.77
498.266	330.75
498.7	269.89
499.134	279.26
499.567	265.21
500.001	393.94
500.434	230.1
500.868	321.38
501.301	326.07
501.734	328.41
502.168	276.91
502.601	326.07
503.034	370.54
503.467	307.34
503.9	258.19
504.333	241.81
504.766	302.66
505.199	302.66
505.632	209.04
506.064	321.38
506.497	358.83
506.93	342.45
507.362	309.68
507.795	375.22
508.227	342.45
508.66	253.51
509.092	372.88
509.524	262.87
509.956	267.55
510.389	335.43
510.821	262.87
511.253	293.3
511.685	281.6
512.117	232.44
512.549	283.94
512.981	370.54
513.412	314.36
513.844	276.91
514.276	377.56
514.707	290.96
515.139	302.66
515.571	316.7
516.002	297.98
516.433	328.41
516.865	333.09
517.296	258.19
517.727	335.43
518.159	251.17
518.59	337.77
519.021	302.66
519.452	340.11
519.883	288.62
520.314	307.34
520.744	328.41
521.175	309.68
521.606	300.32
522.037	354.15
522.467	330.75
522.898	351.81
523.328	281.6
523.759	356.49
524.189	330.75
524.62	262.87
525.05	302.66
525.48	319.04
525.91	314.36
526.341	323.73
526.771	351.81
527.201	319.04
527.631	276.91
528.061	349.47
528.49	330.75
528.92	312.02
529.35	356.49
529.78	349.47
530.209	276.91
530.639	347.13
531.068	262.87
531.498	300.32
531.927	314.36
532.357	293.3
532.786	281.6
533.215	276.91
533.644	253.51
534.074	316.7
534.503	370.54
534.932	276.91
535.361	302.66
535.79	347.13
536.218	312.02
536.647	293.3
537.076	269.89
537.505	319.04
537.933	248.83
538.362	290.96
538.79	295.64
539.219	297.98
539.647	300.32
540.076	279.26
540.504	323.73
540.932	321.38
541.36	293.3
541.788	314.36
542.217	307.34
542.645	260.53
543.073	323.73
543.5	347.13
543.928	307.34
544.356	255.85
544.784	312.02
545.211	293.3
545.639	319.04
546.067	307.34
546.494	337.77
546.922	276.91
547.349	309.68
547.776	328.41
548.204	321.38
548.631	333.09
549.058	260.53
549.485	258.19
549.912	305
550.339	333.09
550.766	330.75
551.193	232.44
551.62	358.83
552.047	312.02
552.474	326.07
552.9	328.41
553.327	307.34
553.754	356.49
554.18	295.64
554.607	321.38
555.033	295.64
555.459	312.02
555.886	286.28
556.312	302.66
556.738	234.78
557.164	279.26
557.59	356.49
558.016	255.85
558.442	272.23
558.868	347.13
559.294	269.89
559.72	295.64
560.145	328.41
560.571	276.91
560.997	272.23
561.422	251.17
561.848	279.26
562.273	323.73
562.699	283.94
563.124	300.32
563.549	340.11
563.974	274.57
564.4	358.83
564.825	262.87
565.25	309.68
565.675	290.96
566.1	342.45
566.525	323.73
566.95	323.73
567.374	286.28
567.799	319.04
568.224	344.79
568.648	368.2
569.073	405.64
569.497	344.79
569.922	333.09
570.346	321.38
570.771	347.13
571.195	361.17
571.619	377.56
572.043	274.57
572.467	347.13
572.891	328.41
573.315	307.34
573.739	314.36
574.163	323.73
574.587	286.28
575.011	305
575.435	321.38
575.858	293.3
576.282	255.85
576.705	307.34
577.129	330.75
577.552	314.36
577.976	328.41
578.399	351.81
578.822	316.7
579.245	272.23
579.669	241.81
580.092	328.41
580.515	288.62
580.938	297.98
581.361	286.28
581.784	340.11
582.206	333.09
582.629	330.75
583.052	330.75
583.474	246.49
583.897	305
584.32	316.7
584.742	290.96
585.165	272.23
585.587	365.85
586.009	321.38
586.431	372.88
586.854	365.85
587.276	290.96
587.698	290.96
588.12	267.55
588.542	363.51
588.964	286.28
589.386	412.67
589.807	309.68
590.229	326.07
590.651	330.75
591.073	312.02
591.494	379.9
591.916	347.13
592.337	326.07
592.759	281.6
593.18	309.68
593.601	340.11
594.022	314.36
594.444	349.47
594.865	347.13
595.286	342.45
595.707	337.77
596.128	297.98
596.549	361.17
596.97	356.49
597.39	293.3
597.811	337.77
598.232	302.66
598.652	340.11
599.073	328.41
599.494	333.09
599.914	351.81
600.334	305
600.755	314.36
601.175	314.36
601.595	340.11
602.015	302.66
602.436	335.43
602.856	452.45
603.276	349.47
603.696	379.9
604.115	314.36
604.535	326.07
604.955	295.64
605.375	384.58
605.794	241.81
606.214	307.34
606.634	274.57
607.053	293.3
607.473	314.36
607.892	335.43
608.311	307.34
608.731	300.32
609.15	244.15
609.569	302.66
609.988	326.07
610.407	307.34
610.826	319.04
611.245	328.41
611.664	333.09
612.083	260.53
612.501	372.88
612.92	314.36
613.339	347.13
613.757	358.83
614.176	354.15
614.594	321.38
615.013	335.43
615.431	267.55
615.85	351.81
616.268	321.38
616.686	314.36
617.104	312.02
617.522	283.94
617.94	302.66
618.358	281.6
618.776	302.66
619.194	290.96
619.612	309.68
620.03	286.28
620.447	281.6
620.865	276.91
621.282	347.13
621.7	337.77
622.117	279.26
622.535	234.78
622.952	321.38
623.369	295.64
623.787	323.73
624.204	396.28
624.621	295.64
625.038	384.58
625.455	368.2
625.872	269.89
626.289	309.68
626.706	344.79
627.123	337.77
627.539	248.83
627.956	326.07
628.373	286.28
628.789	279.26
629.206	365.85
629.622	326.07
630.038	368.2
630.455	312.02
630.871	297.98
631.287	295.64
631.703	279.26
632.12	276.91
632.536	342.45
632.952	274.57
633.368	326.07
633.783	279.26
634.199	340.11
634.615	372.88
635.031	267.55
635.446	288.62
635.862	227.76
636.277	234.78
636.693	274.57
637.108	288.62
637.524	330.75
637.939	323.73
638.354	290.96
638.77	286.28
639.185	330.75
639.6	314.36
640.015	316.7
640.43	281.6
640.845	349.47
641.259	333.09
641.674	307.34
642.089	349.47
642.504	267.55
642.918	267.55
643.333	297.98
643.747	391.6
644.162	258.19
644.576	312.02
644.991	293.3
645.405	321.38
645.819	312.02
646.233	265.21
646.647	323.73
647.061	262.87
647.475	356.49
647.889	337.77
648.303	319.04
648.717	274.57
649.131	361.17
649.545	342.45
649.958	328.41
650.372	295.64
650.785	262.87
651.199	241.81
651.612	344.79
652.026	258.19
652.439	293.3
652.852	305
653.266	297.98
653.679	283.94
654.092	302.66
654.505	328.41
654.918	307.34
655.331	251.17
655.744	290.96
656.156	286.28
656.569	323.73
656.982	302.66
657.394	297.98
657.807	276.91
658.22	237.13
658.632	302.66
659.044	333.09
659.457	279.26
659.869	340.11
660.281	281.6
660.693	276.91
661.106	349.47
661.518	274.57
661.93	305
662.342	286.28
662.754	307.34
663.165	337.77
663.577	347.13
663.989	377.56
664.401	265.21
664.812	326.07
665.224	295.64
665.635	276.91
666.047	230.1
666.458	239.47
666.869	307.34
667.281	297.98
667.692	358.83
668.103	316.7
668.514	349.47
668.925	307.34
669.336	274.57
669.747	295.64
670.158	363.51
670.569	342.45
670.979	288.62
671.39	290.96
671.801	283.94
672.211	312.02
672.622	293.3
673.032	330.75
673.443	276.91
673.853	272.23
674.263	375.22
674.674	347.13
675.084	267.55
675.494	279.26
675.904	351.81
676.314	370.54
676.724	328.41
677.134	354.15
677.544	330.75
677.953	265.21
678.363	340.11
678.773	337.77
679.182	326.07
679.592	234.78
680.001	286.28
680.411	337.77
680.82	300.32
681.23	368.2
681.639	305
682.048	260.53
682.457	281.6
682.866	258.19
683.275	333.09
683.684	340.11
684.093	302.66
684.502	290.96
684.911	255.85
685.32	307.34
685.728	375.22
686.137	248.83
686.546	253.51
686.954	323.73
687.363	321.38
687.771	239.47
688.179	349.47
688.588	389.26
688.996	302.66
689.404	319.04
689.812	307.34
690.22	319.04
690.628	358.83
691.036	290.96
691.444	286.28
691.852	269.89
692.26	370.54
692.667	267.55
693.075	319.04
693.483	330.75
693.89	316.7
694.298	227.76
694.705	279.26
695.112	300.32
695.52	328.41
695.927	340.11
696.334	262.87
696.741	321.38
697.148	281.6
697.555	253.51
697.962	300.32
698.369	333.09
698.776	295.64
699.183	305
699.59	305
699.996	300.32
700.403	312.02
700.81	321.38
701.216	321.38
701.623	269.89
702.029	262.87
702.435	328.41
702.842	286.28
703.248	333.09
703.654	293.3
704.06	309.68
704.466	323.73
704.872	274.57
705.278	326.07
705.684	398.62
706.09	342.45
706.496	260.53
706.901	248.83
707.307	293.3
707.712	274.57
708.118	237.13
708.523	326.07
708.929	349.47
709.334	300.32
709.74	328.41
710.145	276.91
710.55	330.75
710.955	276.91
711.36	295.64
711.765	314.36
712.17	340.11
712.575	239.47
712.98	873.75
713.385	335.43
713.789	372.88
714.194	309.68
714.599	297.98
715.003	290.96
715.408	316.7
715.812	288.62
716.217	272.23
716.621	340.11
717.025	309.68
717.429	330.75
717.833	335.43
718.238	342.45
718.642	356.49
719.046	319.04
719.449	267.55
719.853	274.57
720.257	344.79
720.661	328.41
721.065	309.68
721.468	335.43
721.872	309.68
722.275	246.49
722.679	286.28
723.082	342.45
723.485	269.89
723.889	300.32
724.292	300.32
724.695	363.51
725.098	307.34
725.501	358.83
725.904	328.41
726.307	351.81
726.71	349.47
727.113	302.66
727.516	305
727.918	272.23
728.321	326.07
728.724	305
729.126	272.23
729.529	302.66
729.931	370.54
730.333	372.88
730.736	297.98
731.138	286.28
731.54	295.64
731.942	293.3
732.344	302.66
732.746	274.57
733.148	312.02
733.55	279.26
733.952	290.96
734.354	286.28
734.756	356.49
735.157	342.45
735.559	316.7
735.96	333.09
736.362	326.07
736.763	333.09
737.165	340.11
737.566	335.43
737.967	363.51
738.368	302.66
738.77	279.26
739.171	356.49
739.572	255.85
739.973	344.79
740.374	286.28
740.774	302.66
741.175	356.49
741.576	290.96
741.977	335.43
742.377	302.66
742.778	248.83
743.178	300.32
743.579	337.77
743.979	340.11
744.379	295.64
744.78	283.94
745.18	389.26
745.58	342.45
745.98	309.68
746.38	335.43
746.78	323.73
747.18	326.07
747.58	269.89
747.98	365.85
748.38	269.89
748.779	288.62
749.179	255.85
749.578	269.89
749.978	225.42
750.377	349.47
750.777	302.66
751.176	323.73
751.575	209.04
751.975	290.96
752.374	239.47
752.773	309.68
753.172	321.38
753.571	314.36
753.97	262.87
754.369	279.26
754.768	314.36
755.166	305
755.565	204.36
755.964	319.04
756.362	307.34
756.761	321.38
757.159	326.07
757.558	279.26
757.956	305
758.354	260.53
758.753	272.23
759.151	326.07
759.549	274.57
759.947	293.3
760.345	307.34
760.743	248.83
761.141	363.51
761.539	276.91
761.936	333.09
762.334	297.98
762.732	288.62
763.129	255.85
763.527	288.62
763.924	265.21
764.322	344.79
764.719	321.38
765.117	361.17
765.514	302.66
765.911	290.96
766.308	297.98
766.705	328.41
