Data from Al_FLMS009871__1260__16-47-52-969.txt Node

Date: Fri Mar 08 16:47:52 CST 2024
User: pe5414po
Spectrometer: FLMS00987
Trigger mode: 0
Integration Time (sec): 1.000000E-1
Scans to average: 1
Electric dark correction enabled: true
Nonlinearity correction enabled: false
Boxcar width: 0
XAxis mode: Wavelengths
Number of Pixels in Spectrum: 2048
>>>>>Begin Spectral Data<<<<<
188.938	-87.18
189.409	-87.18
189.879	-87.18
190.349	-134
190.819	-155.06
191.29	-129.31
191.76	-7.61
192.23	-138.68
192.7	-82.5
193.17	-38.03
193.64	-70.8
194.109	-42.71
194.579	-19.31
195.049	-42.71
195.519	39.2
195.988	13.46
196.458	78.99
196.927	67.29
197.397	64.95
197.866	135.17
198.336	172.61
198.805	181.98
199.274	205.38
199.744	142.19
200.213	167.93
200.682	191.34
201.151	233.47
201.62	231.13
202.089	214.74
202.558	207.72
203.027	210.06
203.495	259.21
203.964	273.26
204.433	273.26
204.902	350.5
205.37	238.15
205.839	291.98
206.307	289.64
206.776	350.5
207.244	256.87
207.712	252.19
208.181	313.05
208.649	282.62
209.117	308.37
209.585	317.73
210.053	310.71
210.521	252.19
210.989	345.81
211.457	268.58
211.925	217.08
212.393	224.11
212.861	231.13
213.328	296.66
213.796	235.81
214.264	266.24
214.731	282.62
215.199	268.58
215.666	254.53
216.133	247.51
216.601	205.38
217.068	284.96
217.535	301.34
218.003	228.79
218.47	284.96
218.937	310.71
219.404	238.15
219.871	270.92
220.338	303.68
220.805	247.51
221.271	238.15
221.738	289.64
222.205	212.4
222.671	219.43
223.138	238.15
223.605	214.74
224.071	268.58
224.538	240.49
225.004	289.64
225.47	270.92
225.937	320.07
226.403	235.81
226.869	245.17
227.335	263.9
227.801	235.81
228.267	308.37
228.733	228.79
229.199	313.05
229.665	294.32
230.131	214.74
230.597	245.17
231.062	275.6
231.528	214.74
231.994	224.11
232.459	268.58
232.925	247.51
233.39	261.55
233.856	263.9
234.321	268.58
234.786	240.49
235.252	256.87
235.717	217.08
236.182	233.47
236.647	287.3
237.112	268.58
237.577	284.96
238.042	331.77
238.507	231.13
238.972	291.98
239.436	245.17
239.901	252.19
240.366	242.83
240.83	198.36
241.295	247.51
241.76	191.34
242.224	203.04
242.688	287.3
243.153	252.19
243.617	228.79
244.081	252.19
244.545	259.21
245.01	226.45
245.474	301.34
245.938	205.38
246.402	301.34
246.866	324.75
247.33	317.73
247.793	317.73
248.257	231.13
248.721	294.32
249.185	273.26
249.648	254.53
250.112	282.62
250.575	287.3
251.039	294.32
251.502	280.28
251.965	261.55
252.429	177.3
252.892	259.21
253.355	280.28
253.818	306.03
254.281	320.07
254.744	291.98
255.207	235.81
255.67	334.11
256.133	320.07
256.596	322.41
257.059	233.47
257.522	322.41
257.984	249.85
258.447	275.6
258.909	299
259.372	287.3
259.834	233.47
260.297	273.26
260.759	317.73
261.221	263.9
261.684	231.13
262.146	301.34
262.608	252.19
263.07	254.53
263.532	266.24
263.994	310.71
264.456	196.02
264.918	287.3
265.38	270.92
265.842	280.28
266.303	256.87
266.765	301.34
267.227	263.9
267.688	291.98
268.15	259.21
268.611	196.02
269.072	261.55
269.534	284.96
269.995	233.47
270.456	306.03
270.918	273.26
271.379	287.3
271.84	261.55
272.301	324.75
272.762	203.04
273.223	355.18
273.684	301.34
274.144	277.94
274.605	352.84
275.066	221.77
275.527	371.56
275.987	210.06
276.448	277.94
276.908	277.94
277.369	324.75
277.829	338.79
278.289	280.28
278.75	287.3
279.21	259.21
279.67	287.3
280.13	294.32
280.59	273.26
281.05	263.9
281.51	273.26
281.97	301.34
282.43	308.37
282.89	331.77
283.35	256.87
283.809	327.09
284.269	238.15
284.729	263.9
285.188	336.45
285.648	331.77
286.107	259.21
286.567	294.32
287.026	256.87
287.485	287.3
287.944	308.37
288.404	254.53
288.863	266.24
289.322	308.37
289.781	263.9
290.24	306.03
290.699	280.28
291.158	242.83
291.616	301.34
292.075	331.77
292.534	221.77
292.992	310.71
293.451	254.53
293.91	228.79
294.368	191.34
294.827	310.71
295.285	322.41
295.743	284.96
296.202	289.64
296.66	345.81
297.118	294.32
297.576	256.87
298.034	289.64
298.492	310.71
298.95	287.3
299.408	275.6
299.866	331.77
300.324	259.21
300.781	275.6
301.239	277.94
301.697	327.09
302.154	289.64
302.612	310.71
303.069	247.51
303.527	254.53
303.984	174.96
304.441	263.9
304.899	303.68
305.356	322.41
305.813	303.68
306.27	352.84
306.727	242.83
307.184	294.32
307.641	336.45
308.098	275.6
308.555	301.34
309.012	287.3
309.468	317.73
309.925	301.34
310.382	331.77
310.838	313.05
311.295	240.49
311.751	282.62
312.208	327.09
312.664	261.55
313.12	355.18
313.577	287.3
314.033	280.28
314.489	226.45
314.945	310.71
315.401	240.49
315.857	282.62
316.313	268.58
316.769	308.37
317.225	275.6
317.681	282.62
318.136	280.28
318.592	273.26
319.048	254.53
319.503	383.26
319.959	266.24
320.414	324.75
320.869	196.02
321.325	308.37
321.78	273.26
322.235	308.37
322.691	329.43
323.146	259.21
323.601	254.53
324.056	322.41
324.511	287.3
324.966	317.73
325.421	245.17
325.875	322.41
326.33	252.19
326.785	273.26
327.24	282.62
327.694	308.37
328.149	294.32
328.603	282.62
329.058	228.79
329.512	284.96
329.966	301.34
330.421	364.54
330.875	284.96
331.329	392.62
331.783	308.37
332.237	238.15
332.691	240.49
333.145	308.37
333.599	287.3
334.053	282.62
334.507	341.13
334.96	259.21
335.414	338.79
335.868	324.75
336.321	284.96
336.775	331.77
337.228	170.27
337.682	284.96
338.135	301.34
338.588	266.24
339.042	270.92
339.495	266.24
339.948	369.22
340.401	270.92
340.854	275.6
341.307	334.11
341.76	294.32
342.213	238.15
342.666	366.88
343.119	341.13
343.571	277.94
344.024	317.73
344.477	289.64
344.929	266.24
345.382	284.96
345.834	334.11
346.287	287.3
346.739	320.07
347.191	308.37
347.644	284.96
348.096	338.79
348.548	348.15
349	280.28
349.452	338.79
349.904	331.77
350.356	284.96
350.808	322.41
351.26	268.58
351.711	252.19
352.163	331.77
352.615	336.45
353.066	284.96
353.518	324.75
353.969	277.94
354.421	317.73
354.872	324.75
355.324	289.64
355.775	357.52
356.226	315.39
356.677	338.79
357.128	310.71
357.579	249.85
358.03	247.51
358.481	249.85
358.932	289.64
359.383	303.68
359.834	273.26
360.285	308.37
360.735	320.07
361.186	249.85
361.637	345.81
362.087	303.68
362.538	291.98
362.988	261.55
363.438	277.94
363.889	273.26
364.339	364.54
364.789	313.05
365.239	329.43
365.689	399.65
366.139	284.96
366.589	315.39
367.039	331.77
367.489	275.6
367.939	338.79
368.389	280.28
368.839	366.88
369.288	359.86
369.738	289.64
370.187	341.13
370.637	226.45
371.086	317.73
371.536	238.15
371.985	366.88
372.434	308.37
372.884	322.41
373.333	240.49
373.782	350.5
374.231	275.6
374.68	343.47
375.129	238.15
375.578	254.53
376.027	313.05
376.475	327.09
376.924	306.03
377.373	284.96
377.822	280.28
378.27	308.37
378.719	245.17
379.167	254.53
379.616	350.5
380.064	273.26
380.512	291.98
380.961	406.67
381.409	247.51
381.857	303.68
382.305	294.32
382.753	247.51
383.201	327.09
383.649	308.37
384.097	331.77
384.545	256.87
384.992	294.32
385.44	385.6
385.888	371.56
386.335	261.55
386.783	345.81
387.231	294.32
387.678	275.6
388.125	376.24
388.573	357.52
389.02	296.66
389.467	317.73
389.914	275.6
390.362	341.13
390.809	294.32
391.256	376.24
391.703	310.71
392.15	331.77
392.596	266.24
393.043	308.37
393.49	299
393.937	256.87
394.383	355.18
394.83	345.81
395.276	282.62
395.723	287.3
396.169	280.28
396.616	240.49
397.062	362.2
397.508	280.28
397.954	324.75
398.401	366.88
398.847	296.66
399.293	296.66
399.739	291.98
400.185	287.3
400.631	299
401.076	235.81
401.522	291.98
401.968	322.41
402.414	282.62
402.859	296.66
403.305	270.92
403.75	294.32
404.196	284.96
404.641	294.32
405.086	263.9
405.532	301.34
405.977	303.68
406.422	299
406.867	359.86
407.312	331.77
407.757	350.5
408.202	345.81
408.647	404.33
409.092	294.32
409.537	322.41
409.982	322.41
410.426	301.34
410.871	266.24
411.316	308.37
411.76	270.92
412.205	294.32
412.649	308.37
413.093	308.37
413.538	291.98
413.982	296.66
414.426	261.55
414.87	310.71
415.314	376.24
415.758	275.6
416.202	203.04
416.646	291.98
417.09	266.24
417.534	327.09
417.978	345.81
418.421	320.07
418.865	313.05
419.309	327.09
419.752	338.79
420.196	254.53
420.639	247.51
421.083	373.9
421.526	277.94
421.969	341.13
422.412	406.67
422.856	322.41
423.299	310.71
423.742	310.71
424.185	313.05
424.628	387.94
425.071	327.09
425.513	317.73
425.956	373.9
426.399	331.77
426.842	322.41
427.284	254.53
427.727	380.92
428.169	273.26
428.612	345.81
429.054	341.13
429.497	322.41
429.939	301.34
430.381	317.73
430.823	296.66
431.265	317.73
431.707	322.41
432.149	299
432.591	268.58
433.033	282.62
433.475	263.9
433.917	313.05
434.359	329.43
434.8	334.11
435.242	392.62
435.684	327.09
436.125	261.55
436.567	317.73
437.008	287.3
437.449	324.75
437.891	301.34
438.332	287.3
438.773	277.94
439.214	291.98
439.656	352.84
440.097	336.45
440.538	334.11
440.978	277.94
441.419	308.37
441.86	320.07
442.301	329.43
442.742	245.17
443.182	296.66
443.623	306.03
444.063	322.41
444.504	270.92
444.944	317.73
445.385	315.39
445.825	310.71
446.265	303.68
446.706	301.34
447.146	338.79
447.586	296.66
448.026	294.32
448.466	322.41
448.906	303.68
449.346	341.13
449.786	263.9
450.225	299
450.665	313.05
451.105	331.77
451.544	317.73
451.984	280.28
452.424	343.47
452.863	280.28
453.302	308.37
453.742	385.6
454.181	348.15
454.62	338.79
455.059	296.66
455.499	268.58
455.938	299
456.377	280.28
456.816	256.87
457.254	324.75
457.693	310.71
458.132	291.98
458.571	231.13
459.01	350.5
459.448	329.43
459.887	261.55
460.325	294.32
460.764	320.07
461.202	313.05
461.641	364.54
462.079	352.84
462.517	313.05
462.955	247.51
463.393	345.81
463.832	334.11
464.27	334.11
464.708	317.73
465.145	327.09
465.583	315.39
466.021	320.07
466.459	240.49
466.897	263.9
467.334	315.39
467.772	273.26
468.209	247.51
468.647	329.43
469.084	313.05
469.522	254.53
469.959	294.32
470.396	284.96
470.833	242.83
471.271	299
471.708	317.73
472.145	313.05
472.582	336.45
473.019	320.07
473.456	352.84
473.892	268.58
474.329	266.24
474.766	291.98
475.202	313.05
475.639	268.58
476.076	394.97
476.512	345.81
476.949	383.26
477.385	308.37
477.821	282.62
478.258	383.26
478.694	338.79
479.13	338.79
479.566	310.71
480.002	284.96
480.438	259.21
480.874	308.37
481.31	345.81
481.746	308.37
482.181	294.32
482.617	362.2
483.053	324.75
483.488	282.62
483.924	301.34
484.36	289.64
484.795	315.39
485.23	287.3
485.666	313.05
486.101	289.64
486.536	329.43
486.971	315.39
487.407	296.66
487.842	331.77
488.277	268.58
488.712	266.24
489.146	296.66
489.581	385.6
490.016	430.07
490.451	306.03
490.885	308.37
491.32	301.34
491.755	242.83
492.189	348.15
492.624	254.53
493.058	291.98
493.492	224.11
493.927	301.34
494.361	280.28
494.795	345.81
495.229	317.73
495.663	357.52
496.097	280.28
496.531	296.66
496.965	310.71
497.399	263.9
497.833	313.05
498.266	268.58
498.7	334.11
499.134	327.09
499.567	336.45
500.001	228.79
500.434	315.39
500.868	287.3
501.301	357.52
501.734	268.58
502.168	313.05
502.601	268.58
503.034	324.75
503.467	294.32
503.9	315.39
504.333	322.41
504.766	296.66
505.199	306.03
505.632	210.06
506.064	291.98
506.497	313.05
506.93	277.94
507.362	306.03
507.795	270.92
508.227	336.45
508.66	289.64
509.092	357.52
509.524	296.66
509.956	245.17
510.389	348.15
510.821	329.43
511.253	266.24
511.685	287.3
512.117	242.83
512.549	378.58
512.981	284.96
513.412	256.87
513.844	259.21
514.276	277.94
514.707	331.77
515.139	256.87
515.571	327.09
516.002	324.75
516.433	324.75
516.865	308.37
517.296	252.19
517.727	291.98
518.159	348.15
518.59	306.03
519.021	301.34
519.452	362.2
519.883	378.58
520.314	336.45
520.744	329.43
521.175	261.55
521.606	362.2
522.037	341.13
522.467	352.84
522.898	289.64
523.328	306.03
523.759	296.66
524.189	275.6
524.62	277.94
525.05	263.9
525.48	268.58
525.91	334.11
526.341	322.41
526.771	301.34
527.201	364.54
527.631	277.94
528.061	320.07
528.49	341.13
528.92	299
529.35	306.03
529.78	306.03
530.209	233.47
530.639	345.81
531.068	282.62
531.498	310.71
531.927	329.43
532.357	376.24
532.786	315.39
533.215	350.5
533.644	280.28
534.074	303.68
534.503	327.09
534.932	287.3
535.361	378.58
535.79	329.43
536.218	327.09
536.647	310.71
537.076	390.28
537.505	331.77
537.933	317.73
538.362	301.34
538.79	308.37
539.219	306.03
539.647	294.32
540.076	245.17
540.504	299
540.932	287.3
541.36	249.85
541.788	256.87
542.217	308.37
542.645	348.15
543.073	371.56
543.5	277.94
543.928	289.64
544.356	291.98
544.784	322.41
545.211	343.47
545.639	320.07
546.067	301.34
546.494	280.28
546.922	327.09
547.349	249.85
547.776	336.45
548.204	308.37
548.631	273.26
549.058	338.79
549.485	334.11
549.912	310.71
550.339	296.66
550.766	327.09
551.193	299
551.62	301.34
552.047	308.37
552.474	259.21
552.9	282.62
553.327	277.94
553.754	345.81
554.18	296.66
554.607	338.79
555.033	266.24
555.459	320.07
555.886	357.52
556.312	324.75
556.738	261.55
557.164	331.77
557.59	341.13
558.016	308.37
558.442	306.03
558.868	254.53
559.294	322.41
559.72	289.64
560.145	282.62
560.571	306.03
560.997	280.28
561.422	369.22
561.848	254.53
562.273	284.96
562.699	282.62
563.124	366.88
563.549	336.45
563.974	327.09
564.4	308.37
564.825	299
565.25	350.5
565.675	296.66
566.1	268.58
566.525	301.34
566.95	334.11
567.374	369.22
567.799	324.75
568.224	282.62
568.648	252.19
569.073	301.34
569.497	303.68
569.922	277.94
570.346	350.5
570.771	245.17
571.195	289.64
571.619	383.26
572.043	310.71
572.467	294.32
572.891	308.37
573.315	277.94
573.739	334.11
574.163	247.51
574.587	299
575.011	273.26
575.435	366.88
575.858	348.15
576.282	294.32
576.705	334.11
577.129	280.28
577.552	270.92
577.976	299
578.399	289.64
578.822	291.98
579.245	282.62
579.669	329.43
580.092	273.26
580.515	282.62
580.938	317.73
581.361	416.03
581.784	280.28
582.206	294.32
582.629	345.81
583.052	352.84
583.474	289.64
583.897	282.62
584.32	270.92
584.742	273.26
585.165	352.84
585.587	291.98
586.009	289.64
586.431	324.75
586.854	364.54
587.276	348.15
587.698	303.68
588.12	287.3
588.542	352.84
588.964	277.94
589.386	238.15
589.807	294.32
590.229	240.49
590.651	301.34
591.073	306.03
591.494	280.28
591.916	289.64
592.337	338.79
592.759	383.26
593.18	334.11
593.601	357.52
594.022	306.03
594.444	317.73
594.865	334.11
595.286	324.75
595.707	294.32
596.128	315.39
596.549	277.94
596.97	287.3
597.39	291.98
597.811	308.37
598.232	324.75
598.652	306.03
599.073	343.47
599.494	284.96
599.914	320.07
600.334	296.66
600.755	320.07
601.175	277.94
601.595	336.45
602.015	350.5
602.436	301.34
602.856	434.75
603.276	320.07
603.696	301.34
604.115	270.92
604.535	275.6
604.955	327.09
605.375	303.68
605.794	294.32
606.214	315.39
606.634	345.81
607.053	263.9
607.473	256.87
607.892	336.45
608.311	301.34
608.731	296.66
609.15	336.45
609.569	247.51
609.988	329.43
610.407	345.81
610.826	301.34
611.245	301.34
611.664	373.9
612.083	299
612.501	338.79
612.92	322.41
613.339	299
613.757	301.34
614.176	315.39
614.594	270.92
615.013	294.32
615.431	291.98
615.85	280.28
616.268	385.6
616.686	324.75
617.104	331.77
617.522	294.32
617.94	343.47
618.358	322.41
618.776	282.62
619.194	345.81
619.612	303.68
620.03	320.07
620.447	303.68
620.865	303.68
621.282	315.39
621.7	397.31
622.117	289.64
622.535	322.41
622.952	331.77
623.369	268.58
623.787	313.05
624.204	291.98
624.621	355.18
625.038	322.41
625.455	338.79
625.872	355.18
626.289	317.73
626.706	291.98
627.123	313.05
627.539	303.68
627.956	282.62
628.373	348.15
628.789	350.5
629.206	294.32
629.622	317.73
630.038	256.87
630.455	280.28
630.871	294.32
631.287	289.64
631.703	287.3
632.12	266.24
632.536	291.98
632.952	331.77
633.368	348.15
633.783	235.81
634.199	322.41
634.615	303.68
635.031	313.05
635.446	308.37
635.862	303.68
636.277	308.37
636.693	214.74
637.108	256.87
637.524	282.62
637.939	397.31
638.354	357.52
638.77	352.84
639.185	303.68
639.6	364.54
640.015	308.37
640.43	336.45
640.845	254.53
641.259	341.13
641.674	334.11
642.089	221.77
642.504	254.53
642.918	303.68
643.333	313.05
643.747	291.98
644.162	338.79
644.576	289.64
644.991	275.6
645.405	289.64
645.819	313.05
646.233	266.24
646.647	184.32
647.061	308.37
647.475	291.98
647.889	261.55
648.303	331.77
648.717	277.94
649.131	320.07
649.545	336.45
649.958	334.11
650.372	308.37
650.785	301.34
651.199	317.73
651.612	366.88
652.026	343.47
652.439	249.85
652.852	284.96
653.266	282.62
653.679	252.19
654.092	310.71
654.505	296.66
654.918	270.92
655.331	313.05
655.744	310.71
656.156	242.83
656.569	226.45
656.982	291.98
657.394	270.92
657.807	299
658.22	268.58
658.632	299
659.044	331.77
659.457	315.39
659.869	362.2
660.281	291.98
660.693	324.75
661.106	345.81
661.518	273.26
661.93	291.98
662.342	270.92
662.754	310.71
663.165	320.07
663.577	299
663.989	247.51
664.401	273.26
664.812	233.47
665.224	322.41
665.635	282.62
666.047	303.68
666.458	238.15
666.869	277.94
667.281	299
667.692	219.43
668.103	252.19
668.514	331.77
668.925	301.34
669.336	320.07
669.747	247.51
670.158	282.62
670.569	294.32
670.979	261.55
671.39	313.05
671.801	247.51
672.211	369.22
672.622	313.05
673.032	273.26
673.443	247.51
673.853	266.24
674.263	284.96
674.674	247.51
675.084	308.37
675.494	341.13
675.904	252.19
676.314	327.09
676.724	313.05
677.134	291.98
677.544	261.55
677.953	366.88
678.363	277.94
678.773	369.22
679.182	322.41
679.592	301.34
680.001	317.73
680.411	291.98
680.82	350.5
681.23	345.81
681.639	359.86
682.048	310.71
682.457	322.41
682.866	303.68
683.275	282.62
683.684	238.15
684.093	327.09
684.502	322.41
684.911	299
685.32	284.96
685.728	247.51
686.137	380.92
686.546	341.13
686.954	301.34
687.363	345.81
687.771	280.28
688.179	291.98
688.588	327.09
688.996	299
689.404	338.79
689.812	366.88
690.22	294.32
690.628	291.98
691.036	348.15
691.444	336.45
691.852	350.5
692.26	294.32
692.667	331.77
693.075	261.55
693.483	263.9
693.89	289.64
694.298	289.64
694.705	303.68
695.112	263.9
695.52	313.05
695.927	376.24
696.334	282.62
696.741	299
697.148	341.13
697.555	294.32
697.962	331.77
698.369	256.87
698.776	296.66
699.183	308.37
699.59	275.6
699.996	322.41
700.403	261.55
700.81	291.98
701.216	282.62
701.623	336.45
702.029	270.92
702.435	291.98
702.842	270.92
703.248	331.77
703.654	301.34
704.06	296.66
704.466	242.83
704.872	338.79
705.278	369.22
705.684	252.19
706.09	320.07
706.496	329.43
706.901	336.45
707.307	294.32
707.712	259.21
708.118	299
708.523	331.77
708.929	352.84
709.334	303.68
709.74	338.79
710.145	301.34
710.55	322.41
710.955	287.3
711.36	303.68
711.765	275.6
712.17	299
712.575	322.41
712.98	937.97
713.385	299
713.789	313.05
714.194	296.66
714.599	313.05
715.003	294.32
715.408	301.34
715.812	275.6
716.217	329.43
716.621	289.64
717.025	322.41
717.429	313.05
717.833	266.24
718.238	355.18
718.642	329.43
719.046	327.09
719.449	303.68
719.853	270.92
720.257	291.98
720.661	331.77
721.065	291.98
721.468	322.41
721.872	282.62
722.275	294.32
722.679	294.32
723.082	327.09
723.485	261.55
723.889	313.05
724.292	336.45
724.695	266.24
725.098	348.15
725.501	352.84
725.904	387.94
726.307	254.53
726.71	280.28
727.113	252.19
727.516	263.9
727.918	261.55
728.321	317.73
728.724	249.85
729.126	287.3
729.529	294.32
729.931	277.94
730.333	338.79
730.736	282.62
731.138	376.24
731.54	294.32
731.942	334.11
732.344	364.54
732.746	228.79
733.148	359.86
733.55	242.83
733.952	254.53
734.354	310.71
734.756	322.41
735.157	322.41
735.559	338.79
735.96	355.18
736.362	303.68
736.763	303.68
737.165	322.41
737.566	336.45
737.967	338.79
738.368	327.09
738.77	350.5
739.171	317.73
739.572	245.17
739.973	289.64
740.374	320.07
740.774	289.64
741.175	334.11
741.576	294.32
741.977	306.03
742.377	313.05
742.778	357.52
743.178	254.53
743.579	280.28
743.979	329.43
744.379	284.96
744.78	299
745.18	313.05
745.58	320.07
745.98	364.54
746.38	345.81
746.78	291.98
747.18	270.92
747.58	317.73
747.98	306.03
748.38	287.3
748.779	345.81
749.179	334.11
749.578	315.39
749.978	273.26
750.377	329.43
750.777	329.43
751.176	324.75
751.575	310.71
751.975	289.64
752.374	317.73
752.773	331.77
753.172	348.15
753.571	331.77
753.97	310.71
754.369	301.34
754.768	341.13
755.166	252.19
755.565	294.32
755.964	341.13
756.362	256.87
756.761	308.37
757.159	282.62
757.558	284.96
757.956	322.41
758.354	284.96
758.753	240.49
759.151	261.55
759.549	242.83
759.947	317.73
760.345	331.77
760.743	306.03
761.141	329.43
761.539	320.07
761.936	287.3
762.334	336.45
762.732	282.62
763.129	322.41
763.527	284.96
763.924	390.28
764.322	282.62
764.719	247.51
765.117	261.55
765.514	224.11
765.911	310.71
766.308	256.87
