Data from Al_FLMS009871__302__12-24-05-742.txt Node

Date: Fri Mar 08 12:24:05 CST 2024
User: pe5414po
Spectrometer: FLMS00987
Trigger mode: 0
Integration Time (sec): 1.000000E-1
Scans to average: 1
Electric dark correction enabled: true
Nonlinearity correction enabled: false
Boxcar width: 0
XAxis mode: Wavelengths
Number of Pixels in Spectrum: 2048
>>>>>Begin Spectral Data<<<<<
188.938	-82.5
189.409	-82.5
189.879	-82.5
190.349	-82.5
190.819	-49.74
191.29	-70.8
191.76	-129.31
192.23	-84.84
192.7	-75.48
193.17	-21.65
193.64	-75.48
194.109	-89.53
194.579	-7.61
195.049	-54.42
195.519	-2.93
195.988	43.89
196.458	78.99
196.927	130.48
197.397	102.4
197.866	160.91
198.336	95.38
198.805	181.98
199.274	137.51
199.744	132.83
200.213	196.02
200.682	247.51
201.151	181.98
201.62	235.81
202.089	266.24
202.558	263.9
203.027	280.28
203.495	299
203.964	210.06
204.433	345.81
204.902	280.28
205.37	343.47
205.839	343.47
206.307	355.18
206.776	301.34
207.244	348.15
207.712	254.53
208.181	291.98
208.649	306.03
209.117	327.09
209.585	261.55
210.053	256.87
210.521	327.09
210.989	277.94
211.457	338.79
211.925	296.66
212.393	284.96
212.861	320.07
213.328	268.58
213.796	308.37
214.264	291.98
214.731	322.41
215.199	284.96
215.666	249.85
216.133	291.98
216.601	294.32
217.068	214.74
217.535	242.83
218.003	259.21
218.47	303.68
218.937	242.83
219.404	221.77
219.871	268.58
220.338	231.13
220.805	331.77
221.271	254.53
221.738	263.9
222.205	254.53
222.671	287.3
223.138	322.41
223.605	303.68
224.071	280.28
224.538	247.51
225.004	343.47
225.47	299
225.937	327.09
226.403	282.62
226.869	238.15
227.335	235.81
227.801	296.66
228.267	343.47
228.733	280.28
229.199	266.24
229.665	284.96
230.131	268.58
230.597	282.62
231.062	277.94
231.528	280.28
231.994	336.45
232.459	310.71
232.925	327.09
233.39	273.26
233.856	254.53
234.321	320.07
234.786	256.87
235.252	296.66
235.717	294.32
236.182	327.09
236.647	270.92
237.112	317.73
237.577	306.03
238.042	355.18
238.507	268.58
238.972	324.75
239.436	306.03
239.901	212.4
240.366	301.34
240.83	291.98
241.295	296.66
241.76	320.07
242.224	277.94
242.688	280.28
243.153	331.77
243.617	315.39
244.081	247.51
244.545	315.39
245.01	282.62
245.474	280.28
245.938	226.45
246.402	299
246.866	310.71
247.33	289.64
247.793	263.9
248.257	359.86
248.721	245.17
249.185	313.05
249.648	254.53
250.112	313.05
250.575	252.19
251.039	289.64
251.502	256.87
251.965	256.87
252.429	261.55
252.892	310.71
253.355	320.07
253.818	266.24
254.281	327.09
254.744	343.47
255.207	299
255.67	327.09
256.133	355.18
256.596	277.94
257.059	324.75
257.522	296.66
257.984	287.3
258.447	282.62
258.909	315.39
259.372	273.26
259.834	235.81
260.297	301.34
260.759	336.45
261.221	315.39
261.684	256.87
262.146	270.92
262.608	294.32
263.07	291.98
263.532	263.9
263.994	280.28
264.456	277.94
264.918	242.83
265.38	308.37
265.842	341.13
266.303	301.34
266.765	235.81
267.227	301.34
267.688	385.6
268.15	275.6
268.611	289.64
269.072	294.32
269.534	280.28
269.995	284.96
270.456	289.64
270.918	277.94
271.379	299
271.84	301.34
272.301	294.32
272.762	324.75
273.223	310.71
273.684	352.84
274.144	289.64
274.605	289.64
275.066	259.21
275.527	294.32
275.987	249.85
276.448	315.39
276.908	231.13
277.369	338.79
277.829	313.05
278.289	235.81
278.75	259.21
279.21	432.41
279.67	317.73
280.13	280.28
280.59	336.45
281.05	385.6
281.51	327.09
281.97	362.2
282.43	296.66
282.89	338.79
283.35	238.15
283.809	334.11
284.269	291.98
284.729	306.03
285.188	331.77
285.648	308.37
286.107	320.07
286.567	322.41
287.026	315.39
287.485	280.28
287.944	315.39
288.404	261.55
288.863	317.73
289.322	273.26
289.781	324.75
290.24	291.98
290.699	362.2
291.158	315.39
291.616	294.32
292.075	301.34
292.534	252.19
292.992	259.21
293.451	287.3
293.91	331.77
294.368	350.5
294.827	296.66
295.285	306.03
295.743	259.21
296.202	355.18
296.66	350.5
297.118	329.43
297.576	315.39
298.034	315.39
298.492	320.07
298.95	266.24
299.408	336.45
299.866	282.62
300.324	296.66
300.781	355.18
301.239	313.05
301.697	301.34
302.154	308.37
302.612	320.07
303.069	287.3
303.527	345.81
303.984	308.37
304.441	259.21
304.899	275.6
305.356	315.39
305.813	306.03
306.27	310.71
306.727	287.3
307.184	270.92
307.641	310.71
308.098	306.03
308.555	294.32
309.012	334.11
309.468	291.98
309.925	275.6
310.382	334.11
310.838	294.32
311.295	273.26
311.751	317.73
312.208	313.05
312.664	235.81
313.12	336.45
313.577	341.13
314.033	306.03
314.489	313.05
314.945	280.28
315.401	254.53
315.857	294.32
316.313	366.88
316.769	359.86
317.225	320.07
317.681	331.77
318.136	331.77
318.592	364.54
319.048	327.09
319.503	289.64
319.959	294.32
320.414	284.96
320.869	338.79
321.325	329.43
321.78	245.17
322.235	331.77
322.691	266.24
323.146	294.32
323.601	331.77
324.056	345.81
324.511	317.73
324.966	299
325.421	308.37
325.875	303.68
326.33	268.58
326.785	254.53
327.24	310.71
327.694	263.9
328.149	284.96
328.603	343.47
329.058	336.45
329.512	308.37
329.966	327.09
330.421	289.64
330.875	268.58
331.329	310.71
331.783	301.34
332.237	329.43
332.691	329.43
333.145	338.79
333.599	266.24
334.053	289.64
334.507	317.73
334.96	327.09
335.414	303.68
335.868	261.55
336.321	320.07
336.775	296.66
337.228	282.62
337.682	355.18
338.135	282.62
338.588	308.37
339.042	334.11
339.495	308.37
339.948	404.33
340.401	369.22
340.854	310.71
341.307	343.47
341.76	277.94
342.213	327.09
342.666	313.05
343.119	247.51
343.571	310.71
344.024	399.65
344.477	343.47
344.929	411.35
345.382	317.73
345.834	294.32
346.287	371.56
346.739	249.85
347.191	259.21
347.644	343.47
348.096	317.73
348.548	240.49
349	348.15
349.452	324.75
349.904	362.2
350.356	324.75
350.808	324.75
351.26	364.54
351.711	352.84
352.163	352.84
352.615	334.11
353.066	306.03
353.518	306.03
353.969	324.75
354.421	306.03
354.872	334.11
355.324	254.53
355.775	277.94
356.226	291.98
356.677	329.43
357.128	277.94
357.579	247.51
358.03	357.52
358.481	322.41
358.932	336.45
359.383	310.71
359.834	303.68
360.285	261.55
360.735	303.68
361.186	320.07
361.637	294.32
362.087	322.41
362.538	329.43
362.988	322.41
363.438	266.24
363.889	378.58
364.339	331.77
364.789	313.05
365.239	336.45
365.689	359.86
366.139	327.09
366.589	303.68
367.039	313.05
367.489	348.15
367.939	266.24
368.389	296.66
368.839	299
369.288	359.86
369.738	369.22
370.187	303.68
370.637	291.98
371.086	366.88
371.536	289.64
371.985	303.68
372.434	331.77
372.884	284.96
373.333	313.05
373.782	357.52
374.231	322.41
374.68	322.41
375.129	327.09
375.578	294.32
376.027	327.09
376.475	289.64
376.924	294.32
377.373	268.58
377.822	359.86
378.27	334.11
378.719	306.03
379.167	303.68
379.616	287.3
380.064	383.26
380.512	338.79
380.961	348.15
381.409	280.28
381.857	385.6
382.305	291.98
382.753	336.45
383.201	238.15
383.649	357.52
384.097	322.41
384.545	256.87
384.992	371.56
385.44	219.43
385.888	364.54
386.335	322.41
386.783	313.05
387.231	329.43
387.678	383.26
388.125	352.84
388.573	359.86
389.02	303.68
389.467	350.5
389.914	310.71
390.362	320.07
390.809	345.81
391.256	369.22
391.703	256.87
392.15	275.6
392.596	341.13
393.043	282.62
393.49	322.41
393.937	336.45
394.383	322.41
394.83	336.45
395.276	378.58
395.723	392.62
396.169	380.92
396.616	341.13
397.062	315.39
397.508	364.54
397.954	399.65
398.401	329.43
398.847	270.92
399.293	343.47
399.739	376.24
400.185	291.98
400.631	345.81
401.076	329.43
401.522	263.9
401.968	336.45
402.414	341.13
402.859	310.71
403.305	369.22
403.75	336.45
404.196	273.26
404.641	289.64
405.086	317.73
405.532	336.45
405.977	320.07
406.422	359.86
406.867	338.79
407.312	357.52
407.757	315.39
408.202	336.45
408.647	284.96
409.092	303.68
409.537	294.32
409.982	362.2
410.426	273.26
410.871	331.77
411.316	303.68
411.76	294.32
412.205	310.71
412.649	331.77
413.093	345.81
413.538	308.37
413.982	284.96
414.426	355.18
414.87	294.32
415.314	315.39
415.758	268.58
416.202	401.99
416.646	334.11
417.09	303.68
417.534	296.66
417.978	380.92
418.421	329.43
418.865	306.03
419.309	308.37
419.752	343.47
420.196	338.79
420.639	303.68
421.083	306.03
421.526	366.88
421.969	310.71
422.412	331.77
422.856	392.62
423.299	343.47
423.742	397.31
424.185	359.86
424.628	401.99
425.071	409.01
425.513	404.33
425.956	373.9
426.399	322.41
426.842	334.11
427.284	338.79
427.727	378.58
428.169	441.78
428.612	397.31
429.054	357.52
429.497	448.8
429.939	439.44
430.381	383.26
430.823	397.31
431.265	416.03
431.707	385.6
432.149	371.56
432.591	446.46
433.033	373.9
433.475	434.75
433.917	430.07
434.359	451.14
434.8	409.01
435.242	497.95
435.684	547.1
436.125	465.18
436.567	523.69
437.008	493.27
437.449	481.57
437.891	430.07
438.332	451.14
438.773	507.31
439.214	483.91
439.656	495.61
440.097	493.27
440.538	448.8
440.978	533.06
441.419	465.18
441.86	502.63
442.301	446.46
442.742	511.99
443.182	540.08
443.623	497.95
444.063	455.82
444.504	540.08
444.944	511.99
445.385	479.22
445.825	528.38
446.265	549.44
446.706	502.63
447.146	549.44
447.586	509.65
448.026	542.42
448.466	535.4
448.906	460.5
449.346	521.35
449.786	495.61
450.225	479.22
450.665	481.57
451.105	500.29
451.544	554.12
451.984	497.95
452.424	528.38
452.863	444.12
453.302	551.78
453.742	490.93
454.181	481.57
454.62	458.16
455.059	411.35
455.499	437.1
455.938	528.38
456.377	458.16
456.816	418.37
457.254	418.37
457.693	404.33
458.132	467.52
458.571	441.78
459.01	432.41
459.448	399.65
459.887	425.39
460.325	483.91
460.764	392.62
461.202	434.75
461.641	423.05
462.079	378.58
462.517	404.33
462.955	409.01
463.393	397.31
463.832	322.41
464.27	387.94
464.708	439.44
465.145	418.37
465.583	392.62
466.021	378.58
466.459	425.39
466.897	427.73
467.334	437.1
467.772	413.69
468.209	448.8
468.647	462.84
469.084	423.05
469.522	394.97
469.959	364.54
470.396	404.33
470.833	387.94
471.271	439.44
471.708	430.07
472.145	385.6
472.582	336.45
473.019	369.22
473.456	404.33
473.892	315.39
474.329	392.62
474.766	334.11
475.202	392.62
475.639	467.52
476.076	409.01
476.512	394.97
476.949	390.28
477.385	357.52
477.821	366.88
478.258	427.73
478.694	387.94
479.13	390.28
479.566	448.8
480.002	397.31
480.438	348.15
480.874	397.31
481.31	437.1
481.746	423.05
482.181	425.39
482.617	345.81
483.053	425.39
483.488	404.33
483.924	411.35
484.36	383.26
484.795	432.41
485.23	378.58
485.666	462.84
486.101	474.54
486.536	460.5
486.971	458.16
487.407	453.48
487.842	416.03
488.277	488.59
488.712	439.44
489.146	479.22
489.581	462.84
490.016	476.88
490.451	401.99
490.885	427.73
491.32	434.75
491.755	444.12
492.189	404.33
492.624	469.86
493.058	394.97
493.492	378.58
493.927	392.62
494.361	434.75
494.795	495.61
495.229	420.71
495.663	420.71
496.097	469.86
496.531	373.9
496.965	418.37
497.399	385.6
497.833	427.73
498.266	430.07
498.7	357.52
499.134	451.14
499.567	425.39
500.001	343.47
500.434	427.73
500.868	392.62
501.301	373.9
501.734	420.71
502.168	432.41
502.601	423.05
503.034	413.69
503.467	446.46
503.9	394.97
504.333	420.71
504.766	406.67
505.199	345.81
505.632	409.01
506.064	453.48
506.497	385.6
506.93	416.03
507.362	451.14
507.795	404.33
508.227	378.58
508.66	476.88
509.092	448.8
509.524	439.44
509.956	448.8
510.389	383.26
510.821	460.5
511.253	376.24
511.685	465.18
512.117	455.82
512.549	390.28
512.981	448.8
513.412	500.29
513.844	483.91
514.276	474.54
514.707	399.65
515.139	460.5
515.571	444.12
516.002	399.65
516.433	474.54
516.865	423.05
517.296	434.75
517.727	416.03
518.159	465.18
518.59	483.91
519.021	458.16
519.452	425.39
519.883	509.65
520.314	427.73
520.744	465.18
521.175	451.14
521.606	448.8
522.037	411.35
522.467	441.78
522.898	380.92
523.328	462.84
523.759	488.59
524.189	427.73
524.62	458.16
525.05	483.91
525.48	490.93
525.91	430.07
526.341	451.14
526.771	418.37
527.201	427.73
527.631	439.44
528.061	409.01
528.49	448.8
528.92	455.82
529.35	474.54
529.78	526.04
530.209	474.54
530.639	376.24
531.068	451.14
531.498	451.14
531.927	490.93
532.357	479.22
532.786	504.97
533.215	481.57
533.644	444.12
534.074	439.44
534.503	476.88
534.932	465.18
535.361	472.2
535.79	467.52
536.218	455.82
536.647	404.33
537.076	474.54
537.505	444.12
537.933	488.59
538.362	441.78
538.79	453.48
539.219	530.72
539.647	528.38
540.076	561.14
540.504	547.1
540.932	645.4
541.36	544.76
541.788	631.36
542.217	689.87
542.645	799.88
543.073	750.73
543.5	734.34
543.928	673.49
544.356	764.77
544.784	767.11
545.211	753.07
545.639	734.34
546.067	703.92
546.494	703.92
546.922	661.79
547.349	547.1
547.776	495.61
548.204	509.65
548.631	636.04
549.058	526.04
549.485	542.42
549.912	483.91
550.339	467.52
550.766	483.91
551.193	462.84
551.62	563.48
552.047	469.86
552.474	469.86
552.9	437.1
553.327	439.44
553.754	486.25
554.18	514.33
554.607	458.16
555.033	437.1
555.459	418.37
555.886	441.78
556.312	465.18
556.738	441.78
557.164	437.1
557.59	446.46
558.016	430.07
558.442	437.1
558.868	514.33
559.294	404.33
559.72	465.18
560.145	451.14
560.571	418.37
560.997	427.73
561.422	504.97
561.848	423.05
562.273	392.62
562.699	446.46
563.124	474.54
563.549	507.31
563.974	425.39
564.4	451.14
564.825	394.97
565.25	455.82
565.675	397.31
566.1	495.61
566.525	383.26
566.95	434.75
567.374	409.01
567.799	434.75
568.224	394.97
568.648	465.18
569.073	425.39
569.497	437.1
569.922	355.18
570.346	481.57
570.771	437.1
571.195	458.16
571.619	385.6
572.043	469.86
572.467	392.62
572.891	493.27
573.315	427.73
573.739	495.61
574.163	434.75
574.587	427.73
575.011	413.69
575.435	493.27
575.858	469.86
576.282	453.48
576.705	469.86
577.129	411.35
577.552	423.05
577.976	481.57
578.399	472.2
578.822	439.44
579.245	432.41
579.669	472.2
580.092	481.57
580.515	528.38
580.938	469.86
581.361	514.33
581.784	472.2
582.206	430.07
582.629	504.97
583.052	462.84
583.474	474.54
583.897	425.39
584.32	455.82
584.742	446.46
585.165	401.99
585.587	451.14
586.009	420.71
586.431	465.18
586.854	507.31
587.276	535.4
587.698	439.44
588.12	455.82
588.542	488.59
588.964	397.31
589.386	430.07
589.807	469.86
590.229	413.69
590.651	411.35
591.073	416.03
591.494	474.54
591.916	434.75
592.337	444.12
592.759	507.31
593.18	430.07
593.601	530.72
594.022	359.86
594.444	458.16
594.865	392.62
595.286	451.14
595.707	441.78
596.128	387.94
596.549	437.1
596.97	357.52
597.39	392.62
597.811	369.22
598.232	373.9
598.652	394.97
599.073	425.39
599.494	460.5
599.914	406.67
600.334	413.69
600.755	495.61
601.175	448.8
601.595	350.5
602.015	383.26
602.436	364.54
602.856	511.99
603.276	366.88
603.696	416.03
604.115	394.97
604.535	413.69
604.955	418.37
605.375	392.62
605.794	448.8
606.214	397.31
606.634	401.99
607.053	343.47
607.473	437.1
607.892	493.27
608.311	453.48
608.731	418.37
609.15	469.86
609.569	582.21
609.988	643.06
610.407	776.47
610.826	797.54
611.245	809.24
611.664	762.43
612.083	717.96
612.501	633.7
612.92	598.59
613.339	598.59
613.757	519.01
614.176	577.53
614.594	530.72
615.013	418.37
615.431	427.73
615.85	500.29
616.268	460.5
616.686	483.91
617.104	441.78
617.522	427.73
617.94	509.65
618.358	476.88
618.776	404.33
619.194	472.2
619.612	437.1
620.03	462.84
620.447	371.56
620.865	439.44
621.282	401.99
621.7	390.28
622.117	392.62
622.535	432.41
622.952	380.92
623.369	413.69
623.787	413.69
624.204	334.11
624.621	397.31
625.038	446.46
625.455	430.07
625.872	434.75
626.289	385.6
626.706	458.16
627.123	437.1
627.539	437.1
627.956	336.45
628.373	369.22
628.789	404.33
629.206	357.52
629.622	380.92
630.038	404.33
630.455	411.35
630.871	378.58
631.287	425.39
631.703	343.47
632.12	425.39
632.536	409.01
632.952	369.22
633.368	313.05
633.783	413.69
634.199	336.45
634.615	432.41
635.031	322.41
635.446	364.54
635.862	331.77
636.277	362.2
636.693	411.35
637.108	322.41
637.524	437.1
637.939	383.26
638.354	380.92
638.77	334.11
639.185	397.31
639.6	324.75
640.015	352.84
640.43	338.79
640.845	376.24
641.259	256.87
641.674	362.2
642.089	371.56
642.504	406.67
642.918	308.37
643.333	336.45
643.747	376.24
644.162	301.34
644.576	359.86
644.991	320.07
645.405	371.56
645.819	341.13
646.233	387.94
646.647	359.86
647.061	350.5
647.475	362.2
647.889	387.94
648.303	308.37
648.717	387.94
649.131	303.68
649.545	320.07
649.958	299
650.372	380.92
650.785	252.19
651.199	289.64
651.612	387.94
652.026	376.24
652.439	348.15
652.852	376.24
653.266	380.92
653.679	336.45
654.092	369.22
654.505	355.18
654.918	313.05
655.331	404.33
655.744	352.84
656.156	369.22
656.569	315.39
656.982	350.5
657.394	308.37
657.807	334.11
658.22	331.77
658.632	343.47
659.044	317.73
659.457	371.56
659.869	352.84
660.281	378.58
660.693	343.47
661.106	334.11
661.518	268.58
661.93	366.88
662.342	392.62
662.754	371.56
663.165	291.98
663.577	413.69
663.989	345.81
664.401	263.9
664.812	357.52
665.224	322.41
665.635	355.18
666.047	324.75
666.458	392.62
666.869	331.77
667.281	350.5
667.692	376.24
668.103	310.71
668.514	296.66
668.925	378.58
669.336	373.9
669.747	350.5
670.158	341.13
670.569	287.3
670.979	373.9
671.39	320.07
671.801	387.94
672.211	369.22
672.622	380.92
673.032	329.43
673.443	378.58
673.853	397.31
674.263	336.45
674.674	315.39
675.084	392.62
675.494	355.18
675.904	373.9
676.314	315.39
676.724	390.28
677.134	282.62
677.544	296.66
677.953	413.69
678.363	268.58
678.773	380.92
679.182	322.41
679.592	329.43
680.001	299
680.411	338.79
680.82	362.2
681.23	327.09
681.639	336.45
682.048	301.34
682.457	341.13
682.866	390.28
683.275	306.03
683.684	334.11
684.093	327.09
684.502	313.05
684.911	348.15
685.32	282.62
685.728	310.71
686.137	371.56
686.546	416.03
686.954	355.18
687.363	327.09
687.771	341.13
688.179	385.6
688.588	364.54
688.996	320.07
689.404	291.98
689.812	345.81
690.22	313.05
690.628	324.75
691.036	317.73
691.444	430.07
691.852	366.88
692.26	345.81
692.667	315.39
693.075	348.15
693.483	362.2
693.89	280.28
694.298	343.47
694.705	348.15
695.112	345.81
695.52	385.6
695.927	371.56
696.334	329.43
696.741	313.05
697.148	324.75
697.555	359.86
697.962	310.71
698.369	331.77
698.776	369.22
699.183	291.98
699.59	336.45
699.996	369.22
700.403	317.73
700.81	327.09
701.216	350.5
701.623	385.6
702.029	294.32
702.435	348.15
702.842	329.43
703.248	383.26
703.654	345.81
704.06	303.68
704.466	373.9
704.872	327.09
705.278	324.75
705.684	291.98
706.09	341.13
706.496	385.6
706.901	329.43
707.307	390.28
707.712	369.22
708.118	341.13
708.523	373.9
708.929	322.41
709.334	371.56
709.74	350.5
710.145	341.13
710.55	352.84
710.955	373.9
711.36	348.15
711.765	359.86
712.17	383.26
712.575	352.84
712.98	1003.5
713.385	472.2
713.789	359.86
714.194	268.58
714.599	371.56
715.003	364.54
715.408	345.81
715.812	359.86
716.217	362.2
716.621	329.43
717.025	338.79
717.429	320.07
717.833	378.58
718.238	306.03
718.642	308.37
719.046	369.22
719.449	350.5
719.853	308.37
720.257	338.79
720.661	324.75
721.065	303.68
721.468	299
721.872	338.79
722.275	308.37
722.679	334.11
723.082	327.09
723.485	334.11
723.889	364.54
724.292	301.34
724.695	343.47
725.098	394.97
725.501	362.2
725.904	320.07
726.307	336.45
726.71	310.71
727.113	327.09
727.516	324.75
727.918	322.41
728.321	315.39
728.724	341.13
729.126	329.43
729.529	296.66
729.931	401.99
730.333	277.94
730.736	355.18
731.138	327.09
731.54	329.43
731.942	324.75
732.344	273.26
732.746	282.62
733.148	287.3
733.55	331.77
733.952	277.94
734.354	327.09
734.756	224.11
735.157	259.21
735.559	280.28
735.96	296.66
736.362	348.15
736.763	245.17
737.165	357.52
737.566	371.56
737.967	357.52
738.368	313.05
738.77	289.64
739.171	364.54
739.572	273.26
739.973	341.13
740.374	345.81
740.774	301.34
741.175	324.75
741.576	247.51
741.977	331.77
742.377	348.15
742.778	280.28
743.178	320.07
743.579	327.09
743.979	350.5
744.379	331.77
744.78	310.71
745.18	345.81
745.58	240.49
745.98	336.45
746.38	327.09
746.78	359.86
747.18	394.97
747.58	394.97
747.98	306.03
748.38	273.26
748.779	317.73
749.179	341.13
749.578	359.86
749.978	287.3
750.377	270.92
750.777	320.07
751.176	345.81
751.575	299
751.975	301.34
752.374	334.11
752.773	280.28
753.172	338.79
753.571	380.92
753.97	280.28
754.369	287.3
754.768	334.11
755.166	275.6
755.565	306.03
755.964	324.75
756.362	334.11
756.761	296.66
757.159	331.77
757.558	362.2
757.956	315.39
758.354	320.07
758.753	338.79
759.151	280.28
759.549	291.98
759.947	301.34
760.345	387.94
760.743	350.5
761.141	404.33
761.539	322.41
761.936	294.32
762.334	313.05
762.732	294.32
763.129	336.45
763.527	294.32
763.924	242.83
764.322	284.96
764.719	313.05
765.117	380.92
765.514	350.5
