Data from Al_FLMS009871__1126__16-34-12-294.txt Node

Date: Fri Mar 08 16:34:12 CST 2024
User: pe5414po
Spectrometer: FLMS00987
Trigger mode: 0
Integration Time (sec): 1.000000E-1
Scans to average: 1
Electric dark correction enabled: true
Nonlinearity correction enabled: false
Boxcar width: 0
XAxis mode: Wavelengths
Number of Pixels in Spectrum: 2048
>>>>>Begin Spectral Data<<<<<
188.938	-73.14
189.409	-73.14
189.879	-73.14
190.349	-157.4
190.819	-82.5
191.29	-136.34
191.76	-42.71
192.23	-73.14
192.7	-131.66
193.17	-84.84
193.64	-75.48
194.109	4.1
194.579	-5.27
195.049	20.48
195.519	6.44
195.988	6.44
196.458	50.91
196.927	74.31
197.397	74.31
197.866	123.46
198.336	189
198.805	238.15
199.274	165.59
199.744	100.06
200.213	238.15
200.682	256.87
201.151	238.15
201.62	231.13
202.089	254.53
202.558	219.43
203.027	252.19
203.495	252.19
203.964	334.11
204.433	289.64
204.902	289.64
205.37	334.11
205.839	306.03
206.307	306.03
206.776	282.62
207.244	273.26
207.712	338.79
208.181	273.26
208.649	324.75
209.117	289.64
209.585	270.92
210.053	299
210.521	266.24
210.989	259.21
211.457	315.39
211.925	259.21
212.393	291.98
212.861	275.6
213.328	291.98
213.796	259.21
214.264	268.58
214.731	275.6
215.199	275.6
215.666	228.79
216.133	273.26
216.601	282.62
217.068	261.55
217.535	270.92
218.003	308.37
218.47	313.05
218.937	280.28
219.404	249.85
219.871	231.13
220.338	282.62
220.805	233.47
221.271	273.26
221.738	263.9
222.205	296.66
222.671	242.83
223.138	249.85
223.605	233.47
224.071	289.64
224.538	259.21
225.004	226.45
225.47	277.94
225.937	277.94
226.403	217.08
226.869	301.34
227.335	289.64
227.801	277.94
228.267	287.3
228.733	299
229.199	275.6
229.665	235.81
230.131	277.94
230.597	287.3
231.062	245.17
231.528	327.09
231.994	228.79
232.459	235.81
232.925	277.94
233.39	280.28
233.856	282.62
234.321	256.87
234.786	303.68
235.252	334.11
235.717	226.45
236.182	284.96
236.647	294.32
237.112	270.92
237.577	291.98
238.042	270.92
238.507	289.64
238.972	303.68
239.436	334.11
239.901	252.19
240.366	301.34
240.83	277.94
241.295	256.87
241.76	273.26
242.224	240.49
242.688	331.77
243.153	263.9
243.617	317.73
244.081	284.96
244.545	277.94
245.01	261.55
245.474	270.92
245.938	273.26
246.402	238.15
246.866	277.94
247.33	259.21
247.793	291.98
248.257	214.74
248.721	322.41
249.185	310.71
249.648	263.9
250.112	313.05
250.575	291.98
251.039	219.43
251.502	280.28
251.965	284.96
252.429	322.41
252.892	284.96
253.355	294.32
253.818	245.17
254.281	313.05
254.744	280.28
255.207	247.51
255.67	261.55
256.133	280.28
256.596	280.28
257.059	263.9
257.522	308.37
257.984	329.43
258.447	348.15
258.909	268.58
259.372	294.32
259.834	315.39
260.297	303.68
260.759	350.5
261.221	310.71
261.684	299
262.146	338.79
262.608	303.68
263.07	233.47
263.532	303.68
263.994	348.15
264.456	322.41
264.918	383.26
265.38	291.98
265.842	289.64
266.303	266.24
266.765	270.92
267.227	315.39
267.688	313.05
268.15	259.21
268.611	275.6
269.072	282.62
269.534	291.98
269.995	242.83
270.456	315.39
270.918	275.6
271.379	308.37
271.84	308.37
272.301	263.9
272.762	357.52
273.223	294.32
273.684	273.26
274.144	273.26
274.605	289.64
275.066	261.55
275.527	238.15
275.987	270.92
276.448	270.92
276.908	315.39
277.369	385.6
277.829	247.51
278.289	235.81
278.75	296.66
279.21	338.79
279.67	355.18
280.13	261.55
280.59	261.55
281.05	245.17
281.51	303.68
281.97	263.9
282.43	282.62
282.89	296.66
283.35	355.18
283.809	331.77
284.269	284.96
284.729	308.37
285.188	334.11
285.648	273.26
286.107	350.5
286.567	284.96
287.026	296.66
287.485	240.49
287.944	270.92
288.404	364.54
288.863	299
289.322	385.6
289.781	352.84
290.24	263.9
290.699	315.39
291.158	306.03
291.616	270.92
292.075	306.03
292.534	256.87
292.992	306.03
293.451	249.85
293.91	348.15
294.368	352.84
294.827	369.22
295.285	324.75
295.743	282.62
296.202	345.81
296.66	315.39
297.118	299
297.576	277.94
298.034	364.54
298.492	348.15
298.95	226.45
299.408	287.3
299.866	245.17
300.324	296.66
300.781	289.64
301.239	219.43
301.697	315.39
302.154	284.96
302.612	259.21
303.069	263.9
303.527	294.32
303.984	226.45
304.441	256.87
304.899	277.94
305.356	327.09
305.813	252.19
306.27	327.09
306.727	266.24
307.184	306.03
307.641	329.43
308.098	273.26
308.555	277.94
309.012	252.19
309.468	291.98
309.925	275.6
310.382	308.37
310.838	291.98
311.295	348.15
311.751	322.41
312.208	242.83
312.664	287.3
313.12	242.83
313.577	350.5
314.033	299
314.489	338.79
314.945	334.11
315.401	231.13
315.857	308.37
316.313	291.98
316.769	317.73
317.225	301.34
317.681	362.2
318.136	291.98
318.592	313.05
319.048	306.03
319.503	294.32
319.959	287.3
320.414	416.03
320.869	350.5
321.325	291.98
321.78	327.09
322.235	240.49
322.691	317.73
323.146	289.64
323.601	289.64
324.056	385.6
324.511	306.03
324.966	362.2
325.421	329.43
325.875	324.75
326.33	299
326.785	310.71
327.24	287.3
327.694	355.18
328.149	324.75
328.603	394.97
329.058	294.32
329.512	348.15
329.966	306.03
330.421	296.66
330.875	331.77
331.329	261.55
331.783	308.37
332.237	315.39
332.691	277.94
333.145	313.05
333.599	301.34
334.053	324.75
334.507	310.71
334.96	320.07
335.414	359.86
335.868	313.05
336.321	301.34
336.775	322.41
337.228	275.6
337.682	284.96
338.135	261.55
338.588	317.73
339.042	270.92
339.495	280.28
339.948	383.26
340.401	315.39
340.854	301.34
341.307	320.07
341.76	235.81
342.213	334.11
342.666	320.07
343.119	345.81
343.571	308.37
344.024	341.13
344.477	282.62
344.929	266.24
345.382	371.56
345.834	338.79
346.287	275.6
346.739	313.05
347.191	369.22
347.644	273.26
348.096	299
348.548	317.73
349	289.64
349.452	350.5
349.904	256.87
350.356	310.71
350.808	352.84
351.26	362.2
351.711	327.09
352.163	345.81
352.615	387.94
353.066	306.03
353.518	320.07
353.969	291.98
354.421	324.75
354.872	317.73
355.324	315.39
355.775	294.32
356.226	313.05
356.677	315.39
357.128	301.34
357.579	357.52
358.03	336.45
358.481	270.92
358.932	371.56
359.383	345.81
359.834	317.73
360.285	296.66
360.735	315.39
361.186	324.75
361.637	362.2
362.087	291.98
362.538	315.39
362.988	301.34
363.438	296.66
363.889	366.88
364.339	350.5
364.789	324.75
365.239	299
365.689	362.2
366.139	289.64
366.589	341.13
367.039	291.98
367.489	366.88
367.939	329.43
368.389	352.84
368.839	289.64
369.288	294.32
369.738	341.13
370.187	331.77
370.637	329.43
371.086	357.52
371.536	313.05
371.985	299
372.434	313.05
372.884	299
373.333	383.26
373.782	336.45
374.231	320.07
374.68	331.77
375.129	315.39
375.578	296.66
376.027	273.26
376.475	336.45
376.924	345.81
377.373	268.58
377.822	254.53
378.27	345.81
378.719	287.3
379.167	310.71
379.616	371.56
380.064	336.45
380.512	338.79
380.961	320.07
381.409	331.77
381.857	268.58
382.305	320.07
382.753	299
383.201	331.77
383.649	308.37
384.097	306.03
384.545	242.83
384.992	320.07
385.44	299
385.888	329.43
386.335	301.34
386.783	338.79
387.231	355.18
387.678	296.66
388.125	256.87
388.573	313.05
389.02	313.05
389.467	348.15
389.914	301.34
390.362	313.05
390.809	261.55
391.256	327.09
391.703	327.09
392.15	359.86
392.596	308.37
393.043	324.75
393.49	249.85
393.937	282.62
394.383	345.81
394.83	315.39
395.276	291.98
395.723	249.85
396.169	331.77
396.616	324.75
397.062	399.65
397.508	336.45
397.954	329.43
398.401	270.92
398.847	352.84
399.293	320.07
399.739	338.79
400.185	341.13
400.631	277.94
401.076	371.56
401.522	289.64
401.968	336.45
402.414	331.77
402.859	291.98
403.305	249.85
403.75	240.49
404.196	301.34
404.641	322.41
405.086	294.32
405.532	310.71
405.977	240.49
406.422	327.09
406.867	359.86
407.312	327.09
407.757	355.18
408.202	329.43
408.647	329.43
409.092	303.68
409.537	343.47
409.982	315.39
410.426	280.28
410.871	336.45
411.316	317.73
411.76	291.98
412.205	343.47
412.649	306.03
413.093	357.52
413.538	334.11
413.982	359.86
414.426	296.66
414.87	296.66
415.314	359.86
415.758	296.66
416.202	308.37
416.646	329.43
417.09	245.17
417.534	359.86
417.978	348.15
418.421	287.3
418.865	289.64
419.309	327.09
419.752	327.09
420.196	355.18
420.639	366.88
421.083	357.52
421.526	268.58
421.969	254.53
422.412	310.71
422.856	313.05
423.299	294.32
423.742	287.3
424.185	327.09
424.628	378.58
425.071	313.05
425.513	359.86
425.956	310.71
426.399	320.07
426.842	336.45
427.284	289.64
427.727	303.68
428.169	214.74
428.612	308.37
429.054	334.11
429.497	394.97
429.939	247.51
430.381	324.75
430.823	287.3
431.265	273.26
431.707	313.05
432.149	341.13
432.591	240.49
433.033	282.62
433.475	261.55
433.917	336.45
434.359	303.68
434.8	343.47
435.242	280.28
435.684	301.34
436.125	376.24
436.567	299
437.008	334.11
437.449	301.34
437.891	303.68
438.332	331.77
438.773	287.3
439.214	306.03
439.656	252.19
440.097	275.6
440.538	289.64
440.978	301.34
441.419	315.39
441.86	268.58
442.301	355.18
442.742	291.98
443.182	299
443.623	348.15
444.063	310.71
444.504	291.98
444.944	303.68
445.385	291.98
445.825	327.09
446.265	266.24
446.706	327.09
447.146	284.96
447.586	345.81
448.026	371.56
448.466	355.18
448.906	380.92
449.346	327.09
449.786	334.11
450.225	254.53
450.665	306.03
451.105	296.66
451.544	320.07
451.984	390.28
452.424	420.71
452.863	320.07
453.302	343.47
453.742	303.68
454.181	315.39
454.62	348.15
455.059	322.41
455.499	380.92
455.938	313.05
456.377	306.03
456.816	327.09
457.254	401.99
457.693	273.26
458.132	308.37
458.571	348.15
459.01	329.43
459.448	320.07
459.887	308.37
460.325	273.26
460.764	350.5
461.202	266.24
461.641	331.77
462.079	320.07
462.517	350.5
462.955	350.5
463.393	345.81
463.832	299
464.27	317.73
464.708	322.41
465.145	341.13
465.583	357.52
466.021	306.03
466.459	376.24
466.897	336.45
467.334	270.92
467.772	284.96
468.209	324.75
468.647	350.5
469.084	343.47
469.522	287.3
469.959	331.77
470.396	366.88
470.833	317.73
471.271	291.98
471.708	273.26
472.145	341.13
472.582	284.96
473.019	277.94
473.456	308.37
473.892	317.73
474.329	317.73
474.766	317.73
475.202	277.94
475.639	334.11
476.076	301.34
476.512	306.03
476.949	404.33
477.385	282.62
477.821	301.34
478.258	317.73
478.694	334.11
479.13	313.05
479.566	359.86
480.002	336.45
480.438	273.26
480.874	366.88
481.31	406.67
481.746	364.54
482.181	423.05
482.617	308.37
483.053	355.18
483.488	308.37
483.924	366.88
484.36	303.68
484.795	282.62
485.23	348.15
485.666	259.21
486.101	359.86
486.536	299
486.971	322.41
487.407	336.45
487.842	362.2
488.277	336.45
488.712	301.34
489.146	308.37
489.581	320.07
490.016	348.15
490.451	291.98
490.885	364.54
491.32	296.66
491.755	247.51
492.189	327.09
492.624	294.32
493.058	334.11
493.492	212.4
493.927	355.18
494.361	240.49
494.795	350.5
495.229	268.58
495.663	291.98
496.097	277.94
496.531	306.03
496.965	308.37
497.399	348.15
497.833	355.18
498.266	296.66
498.7	348.15
499.134	315.39
499.567	322.41
500.001	343.47
500.434	334.11
500.868	392.62
501.301	348.15
501.734	341.13
502.168	334.11
502.601	306.03
503.034	329.43
503.467	299
503.9	331.77
504.333	306.03
504.766	282.62
505.199	299
505.632	315.39
506.064	284.96
506.497	418.37
506.93	327.09
507.362	329.43
507.795	357.52
508.227	284.96
508.66	348.15
509.092	277.94
509.524	336.45
509.956	322.41
510.389	270.92
510.821	289.64
511.253	287.3
511.685	329.43
512.117	383.26
512.549	366.88
512.981	366.88
513.412	287.3
513.844	280.28
514.276	306.03
514.707	345.81
515.139	284.96
515.571	329.43
516.002	291.98
516.433	273.26
516.865	291.98
517.296	289.64
517.727	252.19
518.159	359.86
518.59	401.99
519.021	364.54
519.452	338.79
519.883	301.34
520.314	275.6
520.744	277.94
521.175	287.3
521.606	284.96
522.037	299
522.467	303.68
522.898	348.15
523.328	324.75
523.759	345.81
524.189	282.62
524.62	364.54
525.05	299
525.48	287.3
525.91	273.26
526.341	313.05
526.771	287.3
527.201	371.56
527.631	366.88
528.061	313.05
528.49	275.6
528.92	329.43
529.35	306.03
529.78	355.18
530.209	317.73
530.639	261.55
531.068	331.77
531.498	310.71
531.927	287.3
532.357	263.9
532.786	291.98
533.215	355.18
533.644	322.41
534.074	291.98
534.503	331.77
534.932	327.09
535.361	324.75
535.79	327.09
536.218	359.86
536.647	345.81
537.076	329.43
537.505	287.3
537.933	306.03
538.362	359.86
538.79	306.03
539.219	336.45
539.647	334.11
540.076	320.07
540.504	299
540.932	390.28
541.36	254.53
541.788	348.15
542.217	303.68
542.645	282.62
543.073	282.62
543.5	341.13
543.928	289.64
544.356	327.09
544.784	308.37
545.211	270.92
545.639	252.19
546.067	291.98
546.494	352.84
546.922	277.94
547.349	282.62
547.776	357.52
548.204	266.24
548.631	357.52
549.058	371.56
549.485	289.64
549.912	350.5
550.339	303.68
550.766	359.86
551.193	343.47
551.62	268.58
552.047	341.13
552.474	313.05
552.9	303.68
553.327	343.47
553.754	315.39
554.18	345.81
554.607	350.5
555.033	275.6
555.459	296.66
555.886	320.07
556.312	329.43
556.738	256.87
557.164	336.45
557.59	296.66
558.016	275.6
558.442	289.64
558.868	270.92
559.294	263.9
559.72	315.39
560.145	411.35
560.571	334.11
560.997	287.3
561.422	284.96
561.848	352.84
562.273	268.58
562.699	296.66
563.124	380.92
563.549	327.09
563.974	352.84
564.4	306.03
564.825	329.43
565.25	310.71
565.675	348.15
566.1	315.39
566.525	352.84
566.95	364.54
567.374	350.5
567.799	303.68
568.224	310.71
568.648	376.24
569.073	291.98
569.497	397.31
569.922	261.55
570.346	322.41
570.771	270.92
571.195	359.86
571.619	303.68
572.043	334.11
572.467	266.24
572.891	338.79
573.315	341.13
573.739	219.43
574.163	343.47
574.587	299
575.011	336.45
575.435	336.45
575.858	364.54
576.282	306.03
576.705	268.58
577.129	287.3
577.552	277.94
577.976	310.71
578.399	376.24
578.822	320.07
579.245	362.2
579.669	263.9
580.092	364.54
580.515	289.64
580.938	284.96
581.361	320.07
581.784	284.96
582.206	348.15
582.629	315.39
583.052	294.32
583.474	327.09
583.897	355.18
584.32	270.92
584.742	338.79
585.165	322.41
585.587	348.15
586.009	338.79
586.431	273.26
586.854	341.13
587.276	299
587.698	308.37
588.12	373.9
588.542	327.09
588.964	284.96
589.386	287.3
589.807	291.98
590.229	329.43
590.651	268.58
591.073	308.37
591.494	273.26
591.916	327.09
592.337	397.31
592.759	259.21
593.18	329.43
593.601	336.45
594.022	306.03
594.444	327.09
594.865	315.39
595.286	387.94
595.707	301.34
596.128	273.26
596.549	380.92
596.97	324.75
597.39	289.64
597.811	341.13
598.232	270.92
598.652	282.62
599.073	315.39
599.494	291.98
599.914	266.24
600.334	324.75
600.755	275.6
601.175	338.79
601.595	289.64
602.015	336.45
602.436	334.11
602.856	392.62
603.276	331.77
603.696	334.11
604.115	282.62
604.535	352.84
604.955	315.39
605.375	280.28
605.794	380.92
606.214	299
606.634	315.39
607.053	277.94
607.473	329.43
607.892	334.11
608.311	352.84
608.731	315.39
609.15	226.45
609.569	378.58
609.988	254.53
610.407	329.43
610.826	310.71
611.245	308.37
611.664	345.81
612.083	341.13
612.501	336.45
612.92	284.96
613.339	315.39
613.757	315.39
614.176	322.41
614.594	306.03
615.013	359.86
615.431	282.62
615.85	291.98
616.268	313.05
616.686	306.03
617.104	275.6
617.522	303.68
617.94	252.19
618.358	364.54
618.776	371.56
619.194	364.54
619.612	387.94
620.03	310.71
620.447	343.47
620.865	380.92
621.282	366.88
621.7	378.58
622.117	345.81
622.535	315.39
622.952	282.62
623.369	303.68
623.787	275.6
624.204	306.03
624.621	348.15
625.038	364.54
625.455	359.86
625.872	383.26
626.289	282.62
626.706	359.86
627.123	320.07
627.539	327.09
627.956	324.75
628.373	341.13
628.789	345.81
629.206	336.45
629.622	273.26
630.038	334.11
630.455	350.5
630.871	277.94
631.287	320.07
631.703	317.73
632.12	301.34
632.536	327.09
632.952	343.47
633.368	242.83
633.783	310.71
634.199	308.37
634.615	296.66
635.031	362.2
635.446	277.94
635.862	313.05
636.277	324.75
636.693	343.47
637.108	399.65
637.524	320.07
637.939	313.05
638.354	273.26
638.77	263.9
639.185	348.15
639.6	299
640.015	327.09
640.43	308.37
640.845	336.45
641.259	299
641.674	334.11
642.089	310.71
642.504	277.94
642.918	324.75
643.333	357.52
643.747	338.79
644.162	308.37
644.576	310.71
644.991	343.47
645.405	331.77
645.819	369.22
646.233	371.56
646.647	317.73
647.061	287.3
647.475	336.45
647.889	284.96
648.303	273.26
648.717	343.47
649.131	306.03
649.545	259.21
649.958	228.79
650.372	303.68
650.785	301.34
651.199	352.84
651.612	301.34
652.026	359.86
652.439	303.68
652.852	327.09
653.266	329.43
653.679	369.22
654.092	299
654.505	252.19
654.918	291.98
655.331	284.96
655.744	401.99
656.156	324.75
656.569	291.98
656.982	317.73
657.394	299
657.807	282.62
658.22	277.94
658.632	280.28
659.044	277.94
659.457	268.58
659.869	280.28
660.281	324.75
660.693	320.07
661.106	348.15
661.518	324.75
661.93	296.66
662.342	357.52
662.754	322.41
663.165	294.32
663.577	324.75
663.989	282.62
664.401	317.73
664.812	266.24
665.224	317.73
665.635	376.24
666.047	313.05
666.458	310.71
666.869	387.94
667.281	310.71
667.692	341.13
668.103	317.73
668.514	341.13
668.925	275.6
669.336	322.41
669.747	261.55
670.158	352.84
670.569	322.41
670.979	270.92
671.39	266.24
671.801	287.3
672.211	306.03
672.622	308.37
673.032	282.62
673.443	308.37
673.853	334.11
674.263	296.66
674.674	334.11
675.084	303.68
675.494	362.2
675.904	273.26
676.314	320.07
676.724	338.79
677.134	364.54
677.544	310.71
677.953	378.58
678.363	355.18
678.773	355.18
679.182	277.94
679.592	322.41
680.001	369.22
680.411	287.3
680.82	334.11
681.23	273.26
681.639	336.45
682.048	317.73
682.457	329.43
682.866	376.24
683.275	317.73
683.684	301.34
684.093	287.3
684.502	284.96
684.911	345.81
685.32	329.43
685.728	373.9
686.137	343.47
686.546	238.15
686.954	254.53
687.363	406.67
687.771	334.11
688.179	343.47
688.588	242.83
688.996	299
689.404	303.68
689.812	306.03
690.22	376.24
690.628	348.15
691.036	263.9
691.444	294.32
691.852	324.75
692.26	303.68
692.667	294.32
693.075	317.73
693.483	373.9
693.89	277.94
694.298	336.45
694.705	355.18
695.112	338.79
695.52	366.88
695.927	296.66
696.334	334.11
696.741	343.47
697.148	327.09
697.555	317.73
697.962	357.52
698.369	409.01
698.776	376.24
699.183	240.49
699.59	348.15
699.996	261.55
700.403	348.15
700.81	308.37
701.216	338.79
701.623	397.31
702.029	273.26
702.435	289.64
702.842	268.58
703.248	294.32
703.654	341.13
704.06	327.09
704.466	315.39
704.872	263.9
705.278	336.45
705.684	270.92
706.09	301.34
706.496	357.52
706.901	280.28
707.307	301.34
707.712	315.39
708.118	336.45
708.523	345.81
708.929	306.03
709.334	317.73
709.74	390.28
710.145	324.75
710.55	320.07
710.955	249.85
711.36	343.47
711.765	324.75
712.17	235.81
712.575	308.37
712.98	853.71
713.385	324.75
713.789	291.98
714.194	313.05
714.599	329.43
715.003	341.13
715.408	371.56
715.812	369.22
716.217	322.41
716.621	308.37
717.025	350.5
717.429	315.39
717.833	387.94
718.238	331.77
718.642	348.15
719.046	322.41
719.449	380.92
719.853	266.24
720.257	313.05
720.661	224.11
721.065	308.37
721.468	329.43
721.872	280.28
722.275	308.37
722.679	231.13
723.082	320.07
723.485	308.37
723.889	263.9
724.292	362.2
724.695	348.15
725.098	284.96
725.501	348.15
725.904	294.32
726.307	315.39
726.71	299
727.113	294.32
727.516	336.45
727.918	303.68
728.321	277.94
728.724	254.53
729.126	387.94
729.529	301.34
729.931	336.45
730.333	301.34
730.736	350.5
731.138	322.41
731.54	261.55
731.942	249.85
732.344	303.68
732.746	317.73
733.148	355.18
733.55	277.94
733.952	282.62
734.354	345.81
734.756	291.98
735.157	277.94
735.559	390.28
735.96	322.41
736.362	357.52
736.763	289.64
737.165	324.75
737.566	231.13
737.967	331.77
738.368	317.73
738.77	352.84
739.171	254.53
739.572	348.15
739.973	317.73
740.374	343.47
740.774	296.66
741.175	303.68
741.576	359.86
741.977	338.79
742.377	352.84
742.778	306.03
743.178	313.05
743.579	270.92
743.979	345.81
744.379	310.71
744.78	273.26
745.18	280.28
745.58	301.34
745.98	315.39
746.38	280.28
746.78	299
747.18	357.52
747.58	275.6
747.98	273.26
748.38	306.03
748.779	310.71
749.179	299
749.578	289.64
749.978	317.73
750.377	287.3
750.777	383.26
751.176	277.94
751.575	315.39
751.975	254.53
752.374	338.79
752.773	310.71
753.172	301.34
753.571	268.58
753.97	275.6
754.369	350.5
754.768	280.28
755.166	359.86
755.565	324.75
755.964	289.64
756.362	308.37
756.761	296.66
757.159	345.81
757.558	273.26
757.956	343.47
758.354	320.07
758.753	334.11
759.151	348.15
759.549	359.86
759.947	301.34
760.345	359.86
760.743	315.39
761.141	270.92
761.539	308.37
761.936	331.77
762.334	336.45
762.732	291.98
763.129	291.98
763.527	329.43
763.924	341.13
764.322	277.94
764.719	266.24
765.117	317.73
765.514	275.6
765.911	350.5
766.308	352.84
766.705	322.41
767.102	334.11
