Data from Al_FLMS009871__1137__16-34-13-394.txt Node

Date: Fri Mar 08 16:34:13 CST 2024
User: pe5414po
Spectrometer: FLMS00987
Trigger mode: 0
Integration Time (sec): 1.000000E-1
Scans to average: 1
Electric dark correction enabled: true
Nonlinearity correction enabled: false
Boxcar width: 0
XAxis mode: Wavelengths
Number of Pixels in Spectrum: 2048
>>>>>Begin Spectral Data<<<<<
188.938	-74.46
189.409	-74.46
189.879	-74.46
190.349	-100.2
190.819	-163.4
191.29	-123.61
191.76	-86.16
192.23	-107.23
192.7	-65.1
193.17	-37.01
193.64	2.78
194.109	-62.76
194.579	-8.92
195.049	-11.26
195.519	-48.71
195.988	61.29
196.458	23.84
196.927	63.63
197.397	124.49
197.866	143.21
198.336	131.51
198.805	192.36
199.274	124.49
199.744	154.91
200.213	211.09
200.682	185.34
201.151	225.13
201.62	290.67
202.089	225.13
202.558	211.09
203.027	236.83
203.495	283.64
203.964	255.56
204.433	260.24
204.902	332.79
205.37	281.3
205.839	253.22
206.307	300.03
206.776	278.96
207.244	314.07
207.712	302.37
208.181	283.64
208.649	274.28
209.117	293.01
209.585	267.26
210.053	225.13
210.521	257.9
210.989	318.75
211.457	309.39
211.925	290.67
212.393	293.01
212.861	253.22
213.328	297.69
213.796	297.69
214.264	283.64
214.731	318.75
215.199	246.2
215.666	260.24
216.133	302.37
216.601	262.58
217.068	321.09
217.535	225.13
218.003	250.88
218.47	243.85
218.937	246.2
219.404	257.9
219.871	255.56
220.338	194.7
220.805	274.28
221.271	281.3
221.738	276.62
222.205	290.67
222.671	241.51
223.138	229.81
223.605	255.56
224.071	300.03
224.538	278.96
225.004	190.02
225.47	253.22
225.937	215.77
226.403	297.69
226.869	260.24
227.335	215.77
227.801	250.88
228.267	255.56
228.733	232.15
229.199	232.15
229.665	232.15
230.131	269.6
230.597	262.58
231.062	236.83
231.528	260.24
231.994	269.6
232.459	316.41
232.925	255.56
233.39	248.54
233.856	194.7
234.321	246.2
234.786	241.51
235.252	211.09
235.717	276.62
236.182	218.11
236.647	281.3
237.112	264.92
237.577	211.09
238.042	285.98
238.507	243.85
238.972	246.2
239.436	257.9
239.901	197.04
240.366	285.98
240.83	274.28
241.295	290.67
241.76	267.26
242.224	395.99
242.688	215.77
243.153	271.94
243.617	241.51
244.081	257.9
244.545	257.9
245.01	260.24
245.474	278.96
245.938	293.01
246.402	271.94
246.866	300.03
247.33	218.11
247.793	293.01
248.257	271.94
248.721	232.15
249.185	321.09
249.648	285.98
250.112	257.9
250.575	283.64
251.039	330.45
251.502	257.9
251.965	248.54
252.429	295.35
252.892	276.62
253.355	328.11
253.818	253.22
254.281	290.67
254.744	300.03
255.207	295.35
255.67	222.79
256.133	330.45
256.596	283.64
257.059	293.01
257.522	332.79
257.984	307.05
258.447	276.62
258.909	253.22
259.372	257.9
259.834	243.85
260.297	316.41
260.759	323.43
261.221	321.09
261.684	295.35
262.146	236.83
262.608	255.56
263.07	276.62
263.532	262.58
263.994	243.85
264.456	253.22
264.918	304.71
265.38	281.3
265.842	321.09
266.303	297.69
266.765	339.82
267.227	337.48
267.688	246.2
268.15	243.85
268.611	339.82
269.072	271.94
269.534	325.77
269.995	234.49
270.456	264.92
270.918	314.07
271.379	297.69
271.84	278.96
272.301	293.01
272.762	276.62
273.223	295.35
273.684	307.05
274.144	269.6
274.605	271.94
275.066	290.67
275.527	276.62
275.987	278.96
276.448	260.24
276.908	241.51
277.369	353.86
277.829	234.49
278.289	316.41
278.75	372.58
279.21	241.51
279.67	321.09
280.13	335.14
280.59	278.96
281.05	325.77
281.51	311.73
281.97	309.39
282.43	330.45
282.89	307.05
283.35	278.96
283.809	300.03
284.269	232.15
284.729	300.03
285.188	321.09
285.648	278.96
286.107	274.28
286.567	236.83
287.026	241.51
287.485	257.9
287.944	236.83
288.404	248.54
288.863	285.98
289.322	283.64
289.781	300.03
290.24	285.98
290.699	295.35
291.158	290.67
291.616	290.67
292.075	311.73
292.534	281.3
292.992	262.58
293.451	227.47
293.91	288.32
294.368	323.43
294.827	339.82
295.285	260.24
295.743	314.07
296.202	307.05
296.66	332.79
297.118	248.54
297.576	264.92
298.034	314.07
298.492	288.32
298.95	267.26
299.408	285.98
299.866	328.11
300.324	342.16
300.781	302.37
301.239	276.62
301.697	281.3
302.154	302.37
302.612	285.98
303.069	323.43
303.527	342.16
303.984	246.2
304.441	365.56
304.899	285.98
305.356	351.52
305.813	276.62
306.27	300.03
306.727	269.6
307.184	304.71
307.641	290.67
308.098	276.62
308.555	269.6
309.012	293.01
309.468	314.07
309.925	321.09
310.382	370.24
310.838	255.56
311.295	300.03
311.751	328.11
312.208	304.71
312.664	257.9
313.12	300.03
313.577	208.75
314.033	274.28
314.489	262.58
314.945	314.07
315.401	367.9
315.857	300.03
316.313	300.03
316.769	288.32
317.225	342.16
317.681	332.79
318.136	288.32
318.592	307.05
319.048	316.41
319.503	304.71
319.959	290.67
320.414	283.64
320.869	274.28
321.325	269.6
321.78	309.39
322.235	311.73
322.691	328.11
323.146	332.79
323.601	302.37
324.056	264.92
324.511	295.35
324.966	302.37
325.421	267.26
325.875	304.71
326.33	309.39
326.785	300.03
327.24	337.48
327.694	337.48
328.149	323.43
328.603	353.86
329.058	288.32
329.512	381.95
329.966	321.09
330.421	281.3
330.875	274.28
331.329	246.2
331.783	344.5
332.237	314.07
332.691	339.82
333.145	328.11
333.599	323.43
334.053	288.32
334.507	267.26
334.96	370.24
335.414	236.83
335.868	342.16
336.321	353.86
336.775	243.85
337.228	374.92
337.682	314.07
338.135	281.3
338.588	339.82
339.042	311.73
339.495	325.77
339.948	290.67
340.401	302.37
340.854	243.85
341.307	351.52
341.76	264.92
342.213	246.2
342.666	323.43
343.119	293.01
343.571	370.24
344.024	309.39
344.477	290.67
344.929	239.17
345.382	346.84
345.834	323.43
346.287	307.05
346.739	260.24
347.191	309.39
347.644	325.77
348.096	295.35
348.548	269.6
349	339.82
349.452	302.37
349.904	335.14
350.356	285.98
350.808	236.83
351.26	346.84
351.711	314.07
352.163	353.86
352.615	342.16
353.066	370.24
353.518	339.82
353.969	374.92
354.421	316.41
354.872	351.52
355.324	220.45
355.775	300.03
356.226	307.05
356.677	302.37
357.128	318.75
357.579	314.07
358.03	297.69
358.481	302.37
358.932	243.85
359.383	255.56
359.834	304.71
360.285	349.18
360.735	295.35
361.186	311.73
361.637	285.98
362.087	346.84
362.538	374.92
362.988	388.97
363.438	318.75
363.889	309.39
364.339	353.86
364.789	349.18
365.239	300.03
365.689	330.45
366.139	297.69
366.589	358.54
367.039	304.71
367.489	260.24
367.939	290.67
368.389	335.14
368.839	318.75
369.288	337.48
369.738	311.73
370.187	288.32
370.637	358.54
371.086	274.28
371.536	339.82
371.985	337.48
372.434	344.5
372.884	332.79
373.333	267.26
373.782	314.07
374.231	297.69
374.68	307.05
375.129	267.26
375.578	365.56
376.027	290.67
376.475	269.6
376.924	349.18
377.373	285.98
377.822	307.05
378.27	344.5
378.719	302.37
379.167	304.71
379.616	271.94
380.064	358.54
380.512	353.86
380.961	257.9
381.409	290.67
381.857	260.24
382.305	328.11
382.753	246.2
383.201	281.3
383.649	278.96
384.097	297.69
384.545	372.58
384.992	370.24
385.44	377.27
385.888	349.18
386.335	316.41
386.783	353.86
387.231	318.75
387.678	351.52
388.125	318.75
388.573	283.64
389.02	288.32
389.467	321.09
389.914	304.71
390.362	335.14
390.809	365.56
391.256	325.77
391.703	323.43
392.15	300.03
392.596	288.32
393.043	293.01
393.49	274.28
393.937	243.85
394.383	246.2
394.83	222.79
395.276	243.85
395.723	356.2
396.169	316.41
396.616	290.67
397.062	316.41
397.508	335.14
397.954	330.45
398.401	278.96
398.847	297.69
399.293	325.77
399.739	264.92
400.185	295.35
400.631	250.88
401.076	297.69
401.522	288.32
401.968	332.79
402.414	379.61
402.859	339.82
403.305	288.32
403.75	349.18
404.196	314.07
404.641	318.75
405.086	295.35
405.532	278.96
405.977	388.97
406.422	314.07
406.867	349.18
407.312	295.35
407.757	325.77
408.202	192.36
408.647	351.52
409.092	262.58
409.537	318.75
409.982	297.69
410.426	276.62
410.871	337.48
411.316	381.95
411.76	307.05
412.205	325.77
412.649	337.48
413.093	316.41
413.538	339.82
413.982	293.01
414.426	349.18
414.87	293.01
415.314	344.5
415.758	309.39
416.202	323.43
416.646	337.48
417.09	323.43
417.534	241.51
417.978	264.92
418.421	332.79
418.865	293.01
419.309	328.11
419.752	278.96
420.196	290.67
420.639	267.26
421.083	351.52
421.526	307.05
421.969	321.09
422.412	302.37
422.856	295.35
423.299	271.94
423.742	316.41
424.185	346.84
424.628	295.35
425.071	309.39
425.513	278.96
425.956	339.82
426.399	358.54
426.842	318.75
427.284	325.77
427.727	288.32
428.169	304.71
428.612	243.85
429.054	278.96
429.497	307.05
429.939	269.6
430.381	337.48
430.823	278.96
431.265	274.28
431.707	302.37
432.149	321.09
432.591	316.41
433.033	307.05
433.475	290.67
433.917	262.58
434.359	346.84
434.8	274.28
435.242	264.92
435.684	283.64
436.125	325.77
436.567	358.54
437.008	300.03
437.449	309.39
437.891	318.75
438.332	358.54
438.773	285.98
439.214	278.96
439.656	264.92
440.097	358.54
440.538	285.98
440.978	309.39
441.419	325.77
441.86	300.03
442.301	300.03
442.742	374.92
443.182	297.69
443.623	358.54
444.063	311.73
444.504	288.32
444.944	307.05
445.385	269.6
445.825	337.48
446.265	285.98
446.706	288.32
447.146	311.73
447.586	307.05
448.026	297.69
448.466	309.39
448.906	339.82
449.346	351.52
449.786	264.92
450.225	260.24
450.665	297.69
451.105	253.22
451.544	290.67
451.984	304.71
452.424	293.01
452.863	283.64
453.302	307.05
453.742	288.32
454.181	304.71
454.62	328.11
455.059	309.39
455.499	321.09
455.938	260.24
456.377	285.98
456.816	344.5
457.254	335.14
457.693	285.98
458.132	335.14
458.571	281.3
459.01	335.14
459.448	278.96
459.887	356.2
460.325	335.14
460.764	353.86
461.202	293.01
461.641	250.88
462.079	278.96
462.517	307.05
462.955	278.96
463.393	356.2
463.832	367.9
464.27	377.27
464.708	330.45
465.145	358.54
465.583	293.01
466.021	262.58
466.459	290.67
466.897	314.07
467.334	285.98
467.772	304.71
468.209	367.9
468.647	288.32
469.084	342.16
469.522	285.98
469.959	285.98
470.396	248.54
470.833	278.96
471.271	332.79
471.708	323.43
472.145	346.84
472.582	276.62
473.019	321.09
473.456	346.84
473.892	328.11
474.329	335.14
474.766	304.71
475.202	276.62
475.639	269.6
476.076	353.86
476.512	255.56
476.949	300.03
477.385	337.48
477.821	302.37
478.258	344.5
478.694	388.97
479.13	349.18
479.566	335.14
480.002	276.62
480.438	288.32
480.874	323.43
481.31	342.16
481.746	293.01
482.181	239.17
482.617	293.01
483.053	295.35
483.488	328.11
483.924	300.03
484.36	290.67
484.795	300.03
485.23	267.26
485.666	232.15
486.101	358.54
486.536	339.82
486.971	311.73
487.407	314.07
487.842	264.92
488.277	346.84
488.712	285.98
489.146	323.43
489.581	379.61
490.016	337.48
490.451	278.96
490.885	239.17
491.32	290.67
491.755	304.71
492.189	293.01
492.624	321.09
493.058	309.39
493.492	288.32
493.927	300.03
494.361	323.43
494.795	262.58
495.229	321.09
495.663	241.51
496.097	283.64
496.531	337.48
496.965	321.09
497.399	295.35
497.833	307.05
498.266	342.16
498.7	349.18
499.134	290.67
499.567	346.84
500.001	335.14
500.434	285.98
500.868	304.71
501.301	344.5
501.734	283.64
502.168	325.77
502.601	356.2
503.034	300.03
503.467	278.96
503.9	300.03
504.333	349.18
504.766	260.24
505.199	325.77
505.632	325.77
506.064	363.22
506.497	356.2
506.93	283.64
507.362	274.28
507.795	321.09
508.227	349.18
508.66	358.54
509.092	309.39
509.524	253.22
509.956	318.75
510.389	318.75
510.821	314.07
511.253	255.56
511.685	288.32
512.117	246.2
512.549	325.77
512.981	248.54
513.412	276.62
513.844	250.88
514.276	257.9
514.707	255.56
515.139	290.67
515.571	276.62
516.002	302.37
516.433	328.11
516.865	290.67
517.296	307.05
517.727	323.43
518.159	342.16
518.59	260.24
519.021	297.69
519.452	363.22
519.883	342.16
520.314	243.85
520.744	307.05
521.175	321.09
521.606	358.54
522.037	384.29
522.467	260.24
522.898	330.45
523.328	351.52
523.759	379.61
524.189	302.37
524.62	339.82
525.05	295.35
525.48	257.9
525.91	304.71
526.341	281.3
526.771	300.03
527.201	309.39
527.631	271.94
528.061	239.17
528.49	260.24
528.92	241.51
529.35	316.41
529.78	311.73
530.209	220.45
530.639	283.64
531.068	288.32
531.498	358.54
531.927	309.39
532.357	285.98
532.786	346.84
533.215	288.32
533.644	314.07
534.074	358.54
534.503	332.79
534.932	349.18
535.361	321.09
535.79	281.3
536.218	300.03
536.647	300.03
537.076	239.17
537.505	300.03
537.933	311.73
538.362	274.28
538.79	316.41
539.219	328.11
539.647	316.41
540.076	290.67
540.504	384.29
540.932	293.01
541.36	381.95
541.788	288.32
542.217	250.88
542.645	377.27
543.073	285.98
543.5	325.77
543.928	278.96
544.356	311.73
544.784	323.43
545.211	318.75
545.639	307.05
546.067	353.86
546.494	346.84
546.922	342.16
547.349	335.14
547.776	321.09
548.204	321.09
548.631	316.41
549.058	300.03
549.485	311.73
549.912	276.62
550.339	337.48
550.766	283.64
551.193	367.9
551.62	318.75
552.047	337.48
552.474	297.69
552.9	314.07
553.327	346.84
553.754	358.54
554.18	241.51
554.607	283.64
555.033	300.03
555.459	288.32
555.886	360.88
556.312	381.95
556.738	276.62
557.164	269.6
557.59	302.37
558.016	323.43
558.442	363.22
558.868	295.35
559.294	325.77
559.72	323.43
560.145	342.16
560.571	358.54
560.997	220.45
561.422	353.86
561.848	318.75
562.273	337.48
562.699	342.16
563.124	290.67
563.549	278.96
563.974	297.69
564.4	335.14
564.825	295.35
565.25	330.45
565.675	330.45
566.1	307.05
566.525	241.51
566.95	290.67
567.374	332.79
567.799	314.07
568.224	264.92
568.648	325.77
569.073	316.41
569.497	257.9
569.922	281.3
570.346	351.52
570.771	288.32
571.195	344.5
571.619	337.48
572.043	250.88
572.467	267.26
572.891	358.54
573.315	391.31
573.739	311.73
574.163	316.41
574.587	337.48
575.011	300.03
575.435	344.5
575.858	318.75
576.282	288.32
576.705	307.05
577.129	325.77
577.552	344.5
577.976	297.69
578.399	297.69
578.822	321.09
579.245	358.54
579.669	260.24
580.092	297.69
580.515	321.09
580.938	262.58
581.361	285.98
581.784	307.05
582.206	307.05
582.629	304.71
583.052	330.45
583.474	346.84
583.897	302.37
584.32	297.69
584.742	304.71
585.165	285.98
585.587	283.64
586.009	314.07
586.431	330.45
586.854	276.62
587.276	304.71
587.698	285.98
588.12	374.92
588.542	262.58
588.964	304.71
589.386	290.67
589.807	257.9
590.229	349.18
590.651	241.51
591.073	253.22
591.494	274.28
591.916	304.71
592.337	281.3
592.759	330.45
593.18	302.37
593.601	262.58
594.022	290.67
594.444	321.09
594.865	271.94
595.286	342.16
595.707	274.28
596.128	321.09
596.549	332.79
596.97	367.9
597.39	281.3
597.811	300.03
598.232	267.26
598.652	342.16
599.073	318.75
599.494	311.73
599.914	274.28
600.334	337.48
600.755	351.52
601.175	344.5
601.595	314.07
602.015	304.71
602.436	349.18
602.856	473.23
603.276	316.41
603.696	323.43
604.115	323.43
604.535	356.2
604.955	314.07
605.375	260.24
605.794	360.88
606.214	257.9
606.634	278.96
607.053	281.3
607.473	339.82
607.892	328.11
608.311	351.52
608.731	302.37
609.15	321.09
609.569	295.35
609.988	274.28
610.407	328.11
610.826	318.75
611.245	267.26
611.664	309.39
612.083	314.07
612.501	381.95
612.92	330.45
613.339	276.62
613.757	349.18
614.176	304.71
614.594	307.05
615.013	300.03
615.431	332.79
615.85	248.54
616.268	290.67
616.686	330.45
617.104	302.37
617.522	318.75
617.94	295.35
618.358	363.22
618.776	323.43
619.194	323.43
619.612	269.6
620.03	318.75
620.447	367.9
620.865	295.35
621.282	281.3
621.7	335.14
622.117	325.77
622.535	314.07
622.952	337.48
623.369	293.01
623.787	344.5
624.204	381.95
624.621	285.98
625.038	353.86
625.455	229.81
625.872	302.37
626.289	339.82
626.706	323.43
627.123	293.01
627.539	253.22
627.956	328.11
628.373	323.43
628.789	257.9
629.206	290.67
629.622	236.83
630.038	297.69
630.455	248.54
630.871	290.67
631.287	316.41
631.703	365.56
632.12	311.73
632.536	337.48
632.952	344.5
633.368	349.18
633.783	321.09
634.199	323.43
634.615	297.69
635.031	330.45
635.446	346.84
635.862	285.98
636.277	314.07
636.693	260.24
637.108	290.67
637.524	302.37
637.939	374.92
638.354	342.16
638.77	311.73
639.185	222.79
639.6	281.3
640.015	325.77
640.43	229.81
640.845	262.58
641.259	344.5
641.674	311.73
642.089	311.73
642.504	295.35
642.918	278.96
643.333	344.5
643.747	271.94
644.162	267.26
644.576	346.84
644.991	307.05
645.405	283.64
645.819	264.92
646.233	290.67
646.647	339.82
647.061	321.09
647.475	309.39
647.889	295.35
648.303	321.09
648.717	346.84
649.131	346.84
649.545	288.32
649.958	285.98
650.372	323.43
650.785	339.82
651.199	344.5
651.612	316.41
652.026	262.58
652.439	309.39
652.852	271.94
653.266	260.24
653.679	321.09
654.092	302.37
654.505	302.37
654.918	344.5
655.331	358.54
655.744	304.71
656.156	314.07
656.569	323.43
656.982	246.2
657.394	267.26
657.807	239.17
658.22	290.67
658.632	328.11
659.044	337.48
659.457	281.3
659.869	290.67
660.281	307.05
660.693	269.6
661.106	269.6
661.518	283.64
661.93	367.9
662.342	330.45
662.754	288.32
663.165	381.95
663.577	290.67
663.989	309.39
664.401	257.9
664.812	302.37
665.224	307.05
665.635	321.09
666.047	255.56
666.458	323.43
666.869	351.52
667.281	325.77
667.692	337.48
668.103	253.22
668.514	314.07
668.925	314.07
669.336	311.73
669.747	246.2
670.158	339.82
670.569	318.75
670.979	290.67
671.39	337.48
671.801	300.03
672.211	290.67
672.622	316.41
673.032	274.28
673.443	250.88
673.853	335.14
674.263	321.09
674.674	293.01
675.084	332.79
675.494	316.41
675.904	321.09
676.314	290.67
676.724	328.11
677.134	318.75
677.544	250.88
677.953	365.56
678.363	250.88
678.773	339.82
679.182	321.09
679.592	344.5
680.001	278.96
680.411	353.86
680.82	267.26
681.23	351.52
681.639	321.09
682.048	335.14
682.457	311.73
682.866	211.09
683.275	323.43
683.684	290.67
684.093	288.32
684.502	290.67
684.911	267.26
685.32	346.84
685.728	349.18
686.137	250.88
686.546	311.73
686.954	342.16
687.363	330.45
687.771	328.11
688.179	335.14
688.588	323.43
688.996	328.11
689.404	318.75
689.812	363.22
690.22	278.96
690.628	309.39
691.036	269.6
691.444	321.09
691.852	311.73
692.26	335.14
692.667	250.88
693.075	288.32
693.483	300.03
693.89	346.84
694.298	358.54
694.705	278.96
695.112	278.96
695.52	316.41
695.927	264.92
696.334	281.3
696.741	307.05
697.148	297.69
697.555	311.73
697.962	342.16
698.369	321.09
698.776	325.77
699.183	283.64
699.59	295.35
699.996	342.16
700.403	328.11
700.81	307.05
701.216	285.98
701.623	309.39
702.029	328.11
702.435	302.37
702.842	405.35
703.248	290.67
703.654	339.82
704.06	311.73
704.466	300.03
704.872	262.58
705.278	274.28
705.684	370.24
706.09	253.22
706.496	316.41
706.901	344.5
707.307	262.58
707.712	271.94
708.118	274.28
708.523	349.18
708.929	288.32
709.334	260.24
709.74	344.5
710.145	314.07
710.55	314.07
710.955	283.64
711.36	255.56
711.765	307.05
712.17	295.35
712.575	304.71
712.98	828.99
713.385	304.71
713.789	335.14
714.194	342.16
714.599	393.65
715.003	323.43
715.408	309.39
715.812	325.77
716.217	285.98
716.621	395.99
717.025	300.03
717.429	307.05
717.833	311.73
718.238	290.67
718.642	328.11
719.046	316.41
719.449	297.69
719.853	300.03
720.257	283.64
720.661	269.6
721.065	264.92
721.468	274.28
721.872	288.32
722.275	332.79
722.679	297.69
723.082	295.35
723.485	328.11
723.889	363.22
724.292	290.67
724.695	311.73
725.098	285.98
725.501	288.32
725.904	330.45
726.307	325.77
726.71	267.26
727.113	295.35
727.516	293.01
727.918	337.48
728.321	311.73
728.724	285.98
729.126	328.11
729.529	332.79
729.931	278.96
730.333	379.61
730.736	388.97
731.138	302.37
731.54	309.39
731.942	278.96
732.344	225.13
732.746	276.62
733.148	253.22
733.55	288.32
733.952	307.05
734.354	283.64
734.756	239.17
735.157	297.69
735.559	250.88
735.96	377.27
736.362	271.94
736.763	281.3
737.165	330.45
737.566	302.37
737.967	267.26
738.368	321.09
738.77	232.15
739.171	365.56
739.572	370.24
739.973	328.11
740.374	300.03
740.774	288.32
741.175	316.41
741.576	328.11
741.977	349.18
742.377	302.37
742.778	269.6
743.178	307.05
743.579	363.22
743.979	276.62
744.379	337.48
744.78	330.45
745.18	311.73
745.58	311.73
745.98	267.26
746.38	353.86
746.78	356.2
747.18	285.98
747.58	328.11
747.98	300.03
748.38	321.09
748.779	339.82
749.179	267.26
749.578	316.41
749.978	264.92
750.377	314.07
750.777	225.13
751.176	346.84
751.575	321.09
751.975	365.56
752.374	337.48
752.773	260.24
753.172	321.09
753.571	328.11
753.97	349.18
754.369	269.6
754.768	311.73
755.166	318.75
755.565	307.05
755.964	370.24
756.362	349.18
756.761	276.62
757.159	330.45
757.558	344.5
757.956	346.84
758.354	309.39
758.753	295.35
759.151	323.43
759.549	330.45
759.947	269.6
760.345	302.37
760.743	285.98
761.141	323.43
761.539	300.03
761.936	335.14
762.334	332.79
762.732	300.03
763.129	281.3
763.527	316.41
763.924	288.32
764.322	314.07
