Data from Al_FLMS009871__1135__16-34-13-194.txt Node

Date: Fri Mar 08 16:34:13 CST 2024
User: pe5414po
Spectrometer: FLMS00987
Trigger mode: 0
Integration Time (sec): 1.000000E-1
Scans to average: 1
Electric dark correction enabled: true
Nonlinearity correction enabled: false
Boxcar width: 0
XAxis mode: Wavelengths
Number of Pixels in Spectrum: 2048
>>>>>Begin Spectral Data<<<<<
188.938	-53.39
189.409	-53.39
189.879	-53.39
190.349	-104.89
190.819	-93.18
191.29	-104.89
191.76	-123.61
192.23	-67.44
192.7	-51.05
193.17	-60.42
193.64	-37.01
194.109	-83.82
194.579	-13.6
195.049	26.18
195.519	26.18
195.988	14.48
196.458	19.16
196.927	110.44
197.397	108.1
197.866	80.02
198.336	157.25
198.805	98.74
199.274	94.06
199.744	241.51
200.213	208.75
200.682	229.81
201.151	236.83
201.62	220.45
202.089	253.22
202.558	204.07
203.027	255.56
203.495	236.83
203.964	250.88
204.433	248.54
204.902	309.39
205.37	325.77
205.839	307.05
206.307	346.84
206.776	335.14
207.244	300.03
207.712	318.75
208.181	314.07
208.649	328.11
209.117	346.84
209.585	323.43
210.053	384.29
210.521	260.24
210.989	267.26
211.457	323.43
211.925	260.24
212.393	314.07
212.861	267.26
213.328	260.24
213.796	293.01
214.264	262.58
214.731	269.6
215.199	246.2
215.666	215.77
216.133	236.83
216.601	309.39
217.068	262.58
217.535	316.41
218.003	225.13
218.47	274.28
218.937	234.49
219.404	234.49
219.871	271.94
220.338	290.67
220.805	288.32
221.271	197.04
221.738	248.54
222.205	234.49
222.671	253.22
223.138	318.75
223.605	253.22
224.071	250.88
224.538	276.62
225.004	262.58
225.47	243.85
225.937	328.11
226.403	285.98
226.869	302.37
227.335	234.49
227.801	304.71
228.267	290.67
228.733	246.2
229.199	222.79
229.665	262.58
230.131	264.92
230.597	271.94
231.062	222.79
231.528	290.67
231.994	257.9
232.459	250.88
232.925	318.75
233.39	257.9
233.856	300.03
234.321	204.07
234.786	314.07
235.252	337.48
235.717	222.79
236.182	229.81
236.647	201.72
237.112	227.47
237.577	262.58
238.042	300.03
238.507	302.37
238.972	208.75
239.436	302.37
239.901	271.94
240.366	215.77
240.83	316.41
241.295	260.24
241.76	330.45
242.224	267.26
242.688	318.75
243.153	281.3
243.617	243.85
244.081	288.32
244.545	260.24
245.01	290.67
245.474	253.22
245.938	300.03
246.402	253.22
246.866	342.16
247.33	276.62
247.793	332.79
248.257	332.79
248.721	262.58
249.185	311.73
249.648	227.47
250.112	283.64
250.575	255.56
251.039	248.54
251.502	278.96
251.965	321.09
252.429	293.01
252.892	307.05
253.355	302.37
253.818	267.26
254.281	241.51
254.744	241.51
255.207	253.22
255.67	232.15
256.133	250.88
256.596	281.3
257.059	285.98
257.522	229.81
257.984	267.26
258.447	262.58
258.909	248.54
259.372	288.32
259.834	241.51
260.297	293.01
260.759	290.67
261.221	269.6
261.684	267.26
262.146	346.84
262.608	316.41
263.07	234.49
263.532	253.22
263.994	269.6
264.456	262.58
264.918	295.35
265.38	220.45
265.842	328.11
266.303	346.84
266.765	290.67
267.227	208.75
267.688	274.28
268.15	285.98
268.611	248.54
269.072	318.75
269.534	236.83
269.995	278.96
270.456	278.96
270.918	288.32
271.379	234.49
271.84	278.96
272.301	234.49
272.762	271.94
273.223	332.79
273.684	300.03
274.144	271.94
274.605	281.3
275.066	239.17
275.527	293.01
275.987	318.75
276.448	323.43
276.908	295.35
277.369	246.2
277.829	283.64
278.289	257.9
278.75	278.96
279.21	246.2
279.67	297.69
280.13	311.73
280.59	260.24
281.05	257.9
281.51	307.05
281.97	300.03
282.43	297.69
282.89	337.48
283.35	255.56
283.809	271.94
284.269	309.39
284.729	285.98
285.188	285.98
285.648	321.09
286.107	281.3
286.567	290.67
287.026	307.05
287.485	311.73
287.944	269.6
288.404	243.85
288.863	398.33
289.322	290.67
289.781	321.09
290.24	285.98
290.699	342.16
291.158	302.37
291.616	351.52
292.075	316.41
292.534	321.09
292.992	288.32
293.451	227.47
293.91	316.41
294.368	318.75
294.827	353.86
295.285	342.16
295.743	283.64
296.202	211.09
296.66	276.62
297.118	323.43
297.576	330.45
298.034	381.95
298.492	307.05
298.95	316.41
299.408	269.6
299.866	377.27
300.324	384.29
300.781	342.16
301.239	318.75
301.697	309.39
302.154	311.73
302.612	328.11
303.069	293.01
303.527	276.62
303.984	285.98
304.441	232.15
304.899	332.79
305.356	377.27
305.813	236.83
306.27	274.28
306.727	337.48
307.184	288.32
307.641	325.77
308.098	302.37
308.555	255.56
309.012	323.43
309.468	281.3
309.925	332.79
310.382	260.24
310.838	236.83
311.295	321.09
311.751	318.75
312.208	335.14
312.664	309.39
313.12	330.45
313.577	353.86
314.033	285.98
314.489	267.26
314.945	309.39
315.401	316.41
315.857	314.07
316.313	260.24
316.769	274.28
317.225	285.98
317.681	285.98
318.136	274.28
318.592	285.98
319.048	302.37
319.503	349.18
319.959	250.88
320.414	283.64
320.869	349.18
321.325	269.6
321.78	307.05
322.235	304.71
322.691	321.09
323.146	349.18
323.601	328.11
324.056	314.07
324.511	335.14
324.966	325.77
325.421	293.01
325.875	356.2
326.33	335.14
326.785	295.35
327.24	346.84
327.694	321.09
328.149	281.3
328.603	337.48
329.058	278.96
329.512	271.94
329.966	283.64
330.421	309.39
330.875	346.84
331.329	346.84
331.783	332.79
332.237	278.96
332.691	323.43
333.145	267.26
333.599	323.43
334.053	307.05
334.507	304.71
334.96	363.22
335.414	269.6
335.868	297.69
336.321	337.48
336.775	288.32
337.228	309.39
337.682	314.07
338.135	342.16
338.588	281.3
339.042	267.26
339.495	356.2
339.948	339.82
340.401	297.69
340.854	300.03
341.307	377.27
341.76	295.35
342.213	269.6
342.666	257.9
343.119	337.48
343.571	311.73
344.024	283.64
344.477	346.84
344.929	283.64
345.382	337.48
345.834	274.28
346.287	278.96
346.739	346.84
347.191	307.05
347.644	323.43
348.096	330.45
348.548	281.3
349	253.22
349.452	267.26
349.904	358.54
350.356	330.45
350.808	337.48
351.26	337.48
351.711	293.01
352.163	316.41
352.615	241.51
353.066	285.98
353.518	285.98
353.969	288.32
354.421	337.48
354.872	337.48
355.324	321.09
355.775	264.92
356.226	267.26
356.677	281.3
357.128	276.62
357.579	302.37
358.03	227.47
358.481	260.24
358.932	332.79
359.383	316.41
359.834	386.63
360.285	274.28
360.735	295.35
361.186	367.9
361.637	337.48
362.087	232.15
362.538	288.32
362.988	335.14
363.438	255.56
363.889	346.84
364.339	351.52
364.789	323.43
365.239	267.26
365.689	302.37
366.139	342.16
366.589	236.83
367.039	269.6
367.489	288.32
367.939	311.73
368.389	311.73
368.839	353.86
369.288	323.43
369.738	314.07
370.187	297.69
370.637	367.9
371.086	309.39
371.536	339.82
371.985	302.37
372.434	351.52
372.884	353.86
373.333	360.88
373.782	278.96
374.231	339.82
374.68	363.22
375.129	304.71
375.578	260.24
376.027	337.48
376.475	297.69
376.924	276.62
377.373	311.73
377.822	271.94
378.27	332.79
378.719	290.67
379.167	278.96
379.616	316.41
380.064	365.56
380.512	325.77
380.961	332.79
381.409	276.62
381.857	300.03
382.305	323.43
382.753	332.79
383.201	297.69
383.649	293.01
384.097	304.71
384.545	311.73
384.992	330.45
385.44	295.35
385.888	344.5
386.335	302.37
386.783	339.82
387.231	293.01
387.678	307.05
388.125	290.67
388.573	311.73
389.02	278.96
389.467	311.73
389.914	290.67
390.362	243.85
390.809	358.54
391.256	285.98
391.703	288.32
392.15	337.48
392.596	365.56
393.043	307.05
393.49	335.14
393.937	337.48
394.383	360.88
394.83	318.75
395.276	300.03
395.723	304.71
396.169	356.2
396.616	372.58
397.062	342.16
397.508	360.88
397.954	367.9
398.401	300.03
398.847	346.84
399.293	255.56
399.739	302.37
400.185	391.31
400.631	253.22
401.076	248.54
401.522	335.14
401.968	339.82
402.414	314.07
402.859	328.11
403.305	278.96
403.75	346.84
404.196	311.73
404.641	297.69
405.086	365.56
405.532	318.75
405.977	328.11
406.422	335.14
406.867	337.48
407.312	360.88
407.757	332.79
408.202	276.62
408.647	370.24
409.092	309.39
409.537	321.09
409.982	325.77
410.426	302.37
410.871	325.77
411.316	271.94
411.76	274.28
412.205	281.3
412.649	297.69
413.093	332.79
413.538	332.79
413.982	377.27
414.426	281.3
414.87	271.94
415.314	349.18
415.758	344.5
416.202	363.22
416.646	281.3
417.09	276.62
417.534	321.09
417.978	360.88
418.421	337.48
418.865	360.88
419.309	278.96
419.752	330.45
420.196	293.01
420.639	267.26
421.083	316.41
421.526	300.03
421.969	316.41
422.412	335.14
422.856	269.6
423.299	332.79
423.742	304.71
424.185	304.71
424.628	285.98
425.071	393.65
425.513	353.86
425.956	335.14
426.399	339.82
426.842	330.45
427.284	332.79
427.727	342.16
428.169	342.16
428.612	269.6
429.054	377.27
429.497	349.18
429.939	335.14
430.381	339.82
430.823	314.07
431.265	330.45
431.707	283.64
432.149	262.58
432.591	297.69
433.033	255.56
433.475	321.09
433.917	311.73
434.359	393.65
434.8	295.35
435.242	264.92
435.684	395.99
436.125	283.64
436.567	332.79
437.008	321.09
437.449	297.69
437.891	288.32
438.332	339.82
438.773	307.05
439.214	307.05
439.656	309.39
440.097	346.84
440.538	335.14
440.978	304.71
441.419	281.3
441.86	285.98
442.301	304.71
442.742	328.11
443.182	367.9
443.623	342.16
444.063	358.54
444.504	372.58
444.944	243.85
445.385	386.63
445.825	325.77
446.265	260.24
446.706	253.22
447.146	304.71
447.586	330.45
448.026	300.03
448.466	290.67
448.906	346.84
449.346	293.01
449.786	260.24
450.225	356.2
450.665	323.43
451.105	384.29
451.544	246.2
451.984	346.84
452.424	300.03
452.863	353.86
453.302	318.75
453.742	330.45
454.181	379.61
454.62	248.54
455.059	290.67
455.499	290.67
455.938	307.05
456.377	274.28
456.816	330.45
457.254	351.52
457.693	281.3
458.132	314.07
458.571	283.64
459.01	330.45
459.448	344.5
459.887	356.2
460.325	363.22
460.764	269.6
461.202	302.37
461.641	295.35
462.079	309.39
462.517	360.88
462.955	346.84
463.393	293.01
463.832	330.45
464.27	332.79
464.708	293.01
465.145	314.07
465.583	311.73
466.021	330.45
466.459	311.73
466.897	311.73
467.334	367.9
467.772	335.14
468.209	307.05
468.647	349.18
469.084	302.37
469.522	283.64
469.959	295.35
470.396	300.03
470.833	367.9
471.271	349.18
471.708	307.05
472.145	344.5
472.582	351.52
473.019	377.27
473.456	325.77
473.892	360.88
474.329	374.92
474.766	288.32
475.202	278.96
475.639	253.22
476.076	278.96
476.512	300.03
476.949	309.39
477.385	332.79
477.821	379.61
478.258	337.48
478.694	285.98
479.13	323.43
479.566	335.14
480.002	330.45
480.438	290.67
480.874	325.77
481.31	353.86
481.746	295.35
482.181	307.05
482.617	295.35
483.053	356.2
483.488	318.75
483.924	321.09
484.36	328.11
484.795	349.18
485.23	318.75
485.666	337.48
486.101	316.41
486.536	262.58
486.971	293.01
487.407	351.52
487.842	300.03
488.277	300.03
488.712	300.03
489.146	260.24
489.581	400.67
490.016	267.26
490.451	346.84
490.885	342.16
491.32	323.43
491.755	262.58
492.189	311.73
492.624	276.62
493.058	269.6
493.492	297.69
493.927	262.58
494.361	367.9
494.795	330.45
495.229	337.48
495.663	342.16
496.097	300.03
496.531	358.54
496.965	302.37
497.399	300.03
497.833	302.37
498.266	323.43
498.7	344.5
499.134	335.14
499.567	304.71
500.001	381.95
500.434	264.92
500.868	281.3
501.301	318.75
501.734	250.88
502.168	300.03
502.601	260.24
503.034	379.61
503.467	370.24
503.9	360.88
504.333	370.24
504.766	290.67
505.199	353.86
505.632	283.64
506.064	311.73
506.497	325.77
506.93	290.67
507.362	262.58
507.795	297.69
508.227	307.05
508.66	295.35
509.092	337.48
509.524	234.49
509.956	295.35
510.389	332.79
510.821	372.58
511.253	276.62
511.685	328.11
512.117	297.69
512.549	255.56
512.981	323.43
513.412	302.37
513.844	300.03
514.276	332.79
514.707	311.73
515.139	335.14
515.571	321.09
516.002	318.75
516.433	283.64
516.865	349.18
517.296	309.39
517.727	278.96
518.159	267.26
518.59	316.41
519.021	316.41
519.452	337.48
519.883	332.79
520.314	307.05
520.744	365.56
521.175	257.9
521.606	290.67
522.037	335.14
522.467	342.16
522.898	295.35
523.328	283.64
523.759	309.39
524.189	374.92
524.62	325.77
525.05	250.88
525.48	311.73
525.91	332.79
526.341	290.67
526.771	318.75
527.201	314.07
527.631	307.05
528.061	381.95
528.49	300.03
528.92	370.24
529.35	330.45
529.78	318.75
530.209	290.67
530.639	346.84
531.068	278.96
531.498	297.69
531.927	328.11
532.357	323.43
532.786	351.52
533.215	304.71
533.644	342.16
534.074	285.98
534.503	363.22
534.932	293.01
535.361	321.09
535.79	316.41
536.218	311.73
536.647	309.39
537.076	316.41
537.505	363.22
537.933	314.07
538.362	311.73
538.79	323.43
539.219	262.58
539.647	314.07
540.076	274.28
540.504	363.22
540.932	307.05
541.36	281.3
541.788	330.45
542.217	264.92
542.645	285.98
543.073	271.94
543.5	374.92
543.928	349.18
544.356	344.5
544.784	325.77
545.211	300.03
545.639	281.3
546.067	311.73
546.494	393.65
546.922	285.98
547.349	332.79
547.776	304.71
548.204	302.37
548.631	295.35
549.058	297.69
549.485	316.41
549.912	297.69
550.339	283.64
550.766	302.37
551.193	314.07
551.62	351.52
552.047	323.43
552.474	311.73
552.9	339.82
553.327	325.77
553.754	288.32
554.18	307.05
554.607	255.56
555.033	297.69
555.459	314.07
555.886	384.29
556.312	323.43
556.738	260.24
557.164	285.98
557.59	316.41
558.016	300.03
558.442	349.18
558.868	342.16
559.294	274.28
559.72	257.9
560.145	304.71
560.571	339.82
560.997	213.43
561.422	269.6
561.848	269.6
562.273	372.58
562.699	302.37
563.124	295.35
563.549	332.79
563.974	332.79
564.4	328.11
564.825	293.01
565.25	302.37
565.675	283.64
566.1	339.82
566.525	323.43
566.95	283.64
567.374	288.32
567.799	250.88
568.224	330.45
568.648	274.28
569.073	269.6
569.497	328.11
569.922	328.11
570.346	339.82
570.771	283.64
571.195	304.71
571.619	356.2
572.043	360.88
572.467	293.01
572.891	339.82
573.315	335.14
573.739	257.9
574.163	288.32
574.587	269.6
575.011	311.73
575.435	290.67
575.858	335.14
576.282	384.29
576.705	314.07
577.129	293.01
577.552	309.39
577.976	304.71
578.399	346.84
578.822	283.64
579.245	377.27
579.669	267.26
580.092	293.01
580.515	314.07
580.938	349.18
581.361	297.69
581.784	307.05
582.206	321.09
582.629	311.73
583.052	325.77
583.474	267.26
583.897	300.03
584.32	316.41
584.742	288.32
585.165	271.94
585.587	367.9
586.009	248.54
586.431	304.71
586.854	309.39
587.276	337.48
587.698	293.01
588.12	330.45
588.542	307.05
588.964	323.43
589.386	346.84
589.807	325.77
590.229	363.22
590.651	314.07
591.073	293.01
591.494	318.75
591.916	276.62
592.337	328.11
592.759	250.88
593.18	330.45
593.601	309.39
594.022	321.09
594.444	309.39
594.865	314.07
595.286	339.82
595.707	304.71
596.128	255.56
596.549	332.79
596.97	316.41
597.39	339.82
597.811	297.69
598.232	344.5
598.652	264.92
599.073	328.11
599.494	358.54
599.914	323.43
600.334	342.16
600.755	307.05
601.175	328.11
601.595	302.37
602.015	307.05
602.436	381.95
602.856	468.55
603.276	304.71
603.696	321.09
604.115	314.07
604.535	262.58
604.955	314.07
605.375	307.05
605.794	335.14
606.214	330.45
606.634	253.22
607.053	283.64
607.473	309.39
607.892	309.39
608.311	353.86
608.731	285.98
609.15	297.69
609.569	295.35
609.988	295.35
610.407	248.54
610.826	316.41
611.245	300.03
611.664	372.58
612.083	349.18
612.501	293.01
612.92	314.07
613.339	323.43
613.757	370.24
614.176	325.77
614.594	349.18
615.013	316.41
615.431	278.96
615.85	335.14
616.268	351.52
616.686	283.64
617.104	300.03
617.522	323.43
617.94	295.35
618.358	307.05
618.776	321.09
619.194	346.84
619.612	302.37
620.03	311.73
620.447	285.98
620.865	311.73
621.282	314.07
621.7	349.18
622.117	339.82
622.535	278.96
622.952	288.32
623.369	349.18
623.787	307.05
624.204	367.9
624.621	300.03
625.038	323.43
625.455	274.28
625.872	285.98
626.289	325.77
626.706	356.2
627.123	335.14
627.539	297.69
627.956	297.69
628.373	304.71
628.789	342.16
629.206	271.94
629.622	285.98
630.038	393.65
630.455	381.95
630.871	335.14
631.287	337.48
631.703	330.45
632.12	342.16
632.536	300.03
632.952	262.58
633.368	304.71
633.783	302.37
634.199	302.37
634.615	356.2
635.031	276.62
635.446	339.82
635.862	283.64
636.277	293.01
636.693	290.67
637.108	307.05
637.524	330.45
637.939	330.45
638.354	288.32
638.77	300.03
639.185	314.07
639.6	335.14
640.015	283.64
640.43	309.39
640.845	314.07
641.259	274.28
641.674	421.74
642.089	302.37
642.504	300.03
642.918	386.63
643.333	293.01
643.747	248.54
644.162	400.67
644.576	234.49
644.991	236.83
645.405	363.22
645.819	321.09
646.233	360.88
646.647	337.48
647.061	386.63
647.475	337.48
647.889	255.56
648.303	325.77
648.717	253.22
649.131	302.37
649.545	285.98
649.958	302.37
650.372	300.03
650.785	328.11
651.199	316.41
651.612	311.73
652.026	236.83
652.439	300.03
652.852	295.35
653.266	360.88
653.679	349.18
654.092	307.05
654.505	290.67
654.918	377.27
655.331	316.41
655.744	278.96
656.156	356.2
656.569	342.16
656.982	367.9
657.394	304.71
657.807	300.03
658.22	300.03
658.632	264.92
659.044	321.09
659.457	302.37
659.869	323.43
660.281	342.16
660.693	349.18
661.106	311.73
661.518	325.77
661.93	297.69
662.342	297.69
662.754	311.73
663.165	321.09
663.577	360.88
663.989	403.01
664.401	271.94
664.812	307.05
665.224	283.64
665.635	321.09
666.047	276.62
666.458	285.98
666.869	248.54
667.281	264.92
667.692	260.24
668.103	311.73
668.514	349.18
668.925	335.14
669.336	288.32
669.747	337.48
670.158	316.41
670.569	311.73
670.979	295.35
671.39	342.16
671.801	398.33
672.211	304.71
672.622	311.73
673.032	339.82
673.443	330.45
673.853	358.54
674.263	330.45
674.674	321.09
675.084	339.82
675.494	325.77
675.904	325.77
676.314	335.14
676.724	339.82
677.134	325.77
677.544	309.39
677.953	365.56
678.363	332.79
678.773	330.45
679.182	356.2
679.592	229.81
680.001	285.98
680.411	246.2
680.82	278.96
681.23	309.39
681.639	307.05
682.048	325.77
682.457	222.79
682.866	281.3
683.275	365.56
683.684	328.11
684.093	328.11
684.502	332.79
684.911	314.07
685.32	332.79
685.728	314.07
686.137	262.58
686.546	335.14
686.954	339.82
687.363	349.18
687.771	330.45
688.179	328.11
688.588	318.75
688.996	335.14
689.404	293.01
689.812	330.45
690.22	295.35
690.628	360.88
691.036	403.01
691.444	335.14
691.852	297.69
692.26	325.77
692.667	297.69
693.075	346.84
693.483	276.62
693.89	379.61
694.298	295.35
694.705	346.84
695.112	332.79
695.52	302.37
695.927	325.77
696.334	339.82
696.741	267.26
697.148	339.82
697.555	330.45
697.962	276.62
698.369	330.45
698.776	302.37
699.183	330.45
699.59	269.6
699.996	246.2
700.403	311.73
700.81	293.01
701.216	316.41
701.623	271.94
702.029	288.32
702.435	339.82
702.842	311.73
703.248	314.07
703.654	314.07
704.06	328.11
704.466	278.96
704.872	307.05
705.278	241.51
705.684	353.86
706.09	295.35
706.496	281.3
706.901	346.84
707.307	253.22
707.712	309.39
708.118	325.77
708.523	351.52
708.929	290.67
709.334	281.3
709.74	370.24
710.145	285.98
710.55	395.99
710.955	314.07
711.36	285.98
711.765	293.01
712.17	311.73
712.575	278.96
712.98	789.2
713.385	367.9
713.789	246.2
714.194	307.05
714.599	309.39
715.003	283.64
715.408	307.05
715.812	232.15
716.217	248.54
716.621	300.03
717.025	353.86
717.429	323.43
717.833	271.94
718.238	297.69
718.642	234.49
719.046	360.88
719.449	302.37
719.853	318.75
720.257	374.92
720.661	253.22
721.065	307.05
721.468	358.54
721.872	290.67
722.275	346.84
722.679	342.16
723.082	285.98
723.485	377.27
723.889	337.48
724.292	290.67
724.695	269.6
725.098	325.77
725.501	288.32
725.904	318.75
726.307	318.75
726.71	262.58
727.113	281.3
727.516	332.79
727.918	342.16
728.321	323.43
728.724	309.39
729.126	342.16
729.529	283.64
729.931	353.86
730.333	283.64
730.736	290.67
731.138	307.05
731.54	269.6
731.942	304.71
732.344	283.64
732.746	285.98
733.148	342.16
733.55	342.16
733.952	297.69
734.354	316.41
734.756	278.96
735.157	278.96
735.559	325.77
735.96	328.11
736.362	304.71
736.763	257.9
737.165	276.62
737.566	314.07
737.967	309.39
738.368	344.5
738.77	297.69
739.171	325.77
739.572	367.9
739.973	262.58
740.374	304.71
740.774	267.26
741.175	332.79
741.576	349.18
741.977	300.03
742.377	344.5
742.778	321.09
743.178	311.73
743.579	311.73
743.979	328.11
744.379	328.11
744.78	307.05
745.18	274.28
745.58	293.01
745.98	360.88
746.38	243.85
746.78	304.71
747.18	330.45
747.58	293.01
747.98	297.69
748.38	314.07
748.779	372.58
749.179	321.09
749.578	316.41
749.978	323.43
750.377	335.14
750.777	285.98
751.176	339.82
751.575	271.94
751.975	255.56
752.374	323.43
752.773	311.73
753.172	358.54
753.571	323.43
753.97	339.82
754.369	302.37
754.768	208.75
755.166	321.09
755.565	278.96
755.964	297.69
756.362	330.45
756.761	358.54
757.159	344.5
757.558	323.43
757.956	351.52
758.354	358.54
758.753	358.54
759.151	379.61
759.549	302.37
759.947	307.05
760.345	288.32
760.743	344.5
761.141	278.96
761.539	321.09
761.936	337.48
762.334	290.67
762.732	318.75
763.129	346.84
763.527	344.5
763.924	290.67
