Data from Al_FLMS009871__1120__16-34-11-694.txt Node

Date: Fri Mar 08 16:34:11 CST 2024
User: pe5414po
Spectrometer: FLMS00987
Trigger mode: 0
Integration Time (sec): 1.000000E-1
Scans to average: 1
Electric dark correction enabled: true
Nonlinearity correction enabled: false
Boxcar width: 0
XAxis mode: Wavelengths
Number of Pixels in Spectrum: 2048
>>>>>Begin Spectral Data<<<<<
188.938	-77.82
189.409	-77.82
189.879	-77.82
190.349	-138.68
190.819	-47.4
191.29	-33.35
191.76	-91.87
192.23	-105.91
192.7	-87.18
193.17	-110.59
193.64	-9.95
194.109	-73.14
194.579	-23.99
195.049	-9.95
195.519	-7.61
195.988	81.33
196.458	34.52
196.927	69.63
197.397	114.1
197.866	76.65
198.336	177.3
198.805	130.48
199.274	181.98
199.744	189
200.213	165.59
200.682	221.77
201.151	235.81
201.62	284.96
202.089	291.98
202.558	275.6
203.027	224.11
203.495	329.43
203.964	341.13
204.433	315.39
204.902	266.24
205.37	357.52
205.839	329.43
206.307	327.09
206.776	284.96
207.244	331.77
207.712	352.84
208.181	343.47
208.649	306.03
209.117	317.73
209.585	303.68
210.053	345.81
210.521	313.05
210.989	308.37
211.457	320.07
211.925	242.83
212.393	277.94
212.861	247.51
213.328	287.3
213.796	338.79
214.264	320.07
214.731	266.24
215.199	331.77
215.666	266.24
216.133	306.03
216.601	287.3
217.068	294.32
217.535	284.96
218.003	191.34
218.47	317.73
218.937	224.11
219.404	266.24
219.871	355.18
220.338	266.24
220.805	249.85
221.271	296.66
221.738	252.19
222.205	343.47
222.671	294.32
223.138	228.79
223.605	303.68
224.071	268.58
224.538	275.6
225.004	355.18
225.47	275.6
225.937	294.32
226.403	299
226.869	299
227.335	273.26
227.801	327.09
228.267	270.92
228.733	249.85
229.199	306.03
229.665	254.53
230.131	357.52
230.597	315.39
231.062	242.83
231.528	238.15
231.994	249.85
232.459	273.26
232.925	270.92
233.39	306.03
233.856	299
234.321	299
234.786	348.15
235.252	277.94
235.717	270.92
236.182	310.71
236.647	301.34
237.112	249.85
237.577	331.77
238.042	226.45
238.507	320.07
238.972	324.75
239.436	341.13
239.901	336.45
240.366	240.49
240.83	235.81
241.295	280.28
241.76	322.41
242.224	254.53
242.688	280.28
243.153	296.66
243.617	291.98
244.081	336.45
244.545	329.43
245.01	362.2
245.474	284.96
245.938	291.98
246.402	310.71
246.866	352.84
247.33	275.6
247.793	322.41
248.257	338.79
248.721	352.84
249.185	280.28
249.648	303.68
250.112	308.37
250.575	329.43
251.039	256.87
251.502	263.9
251.965	308.37
252.429	291.98
252.892	301.34
253.355	289.64
253.818	235.81
254.281	263.9
254.744	277.94
255.207	249.85
255.67	268.58
256.133	320.07
256.596	390.28
257.059	261.55
257.522	341.13
257.984	284.96
258.447	268.58
258.909	233.47
259.372	193.68
259.834	275.6
260.297	294.32
260.759	252.19
261.221	310.71
261.684	299
262.146	299
262.608	275.6
263.07	329.43
263.532	320.07
263.994	329.43
264.456	357.52
264.918	313.05
265.38	296.66
265.842	277.94
266.303	287.3
266.765	329.43
267.227	266.24
267.688	275.6
268.15	345.81
268.611	256.87
269.072	334.11
269.534	270.92
269.995	270.92
270.456	334.11
270.918	303.68
271.379	359.86
271.84	371.56
272.301	310.71
272.762	341.13
273.223	345.81
273.684	373.9
274.144	275.6
274.605	310.71
275.066	247.51
275.527	352.84
275.987	334.11
276.448	270.92
276.908	306.03
277.369	317.73
277.829	327.09
278.289	270.92
278.75	245.17
279.21	280.28
279.67	376.24
280.13	352.84
280.59	413.69
281.05	315.39
281.51	259.21
281.97	338.79
282.43	313.05
282.89	291.98
283.35	284.96
283.809	308.37
284.269	273.26
284.729	289.64
285.188	315.39
285.648	280.28
286.107	334.11
286.567	287.3
287.026	301.34
287.485	294.32
287.944	320.07
288.404	341.13
288.863	280.28
289.322	329.43
289.781	327.09
290.24	352.84
290.699	280.28
291.158	390.28
291.616	348.15
292.075	310.71
292.534	252.19
292.992	287.3
293.451	331.77
293.91	343.47
294.368	291.98
294.827	306.03
295.285	322.41
295.743	308.37
296.202	322.41
296.66	263.9
297.118	280.28
297.576	317.73
298.034	324.75
298.492	322.41
298.95	306.03
299.408	254.53
299.866	324.75
300.324	322.41
300.781	317.73
301.239	341.13
301.697	324.75
302.154	355.18
302.612	294.32
303.069	315.39
303.527	219.43
303.984	266.24
304.441	306.03
304.899	317.73
305.356	299
305.813	317.73
306.27	308.37
306.727	322.41
307.184	320.07
307.641	259.21
308.098	287.3
308.555	296.66
309.012	322.41
309.468	399.65
309.925	336.45
310.382	345.81
310.838	280.28
311.295	364.54
311.751	336.45
312.208	310.71
312.664	348.15
313.12	348.15
313.577	362.2
314.033	338.79
314.489	301.34
314.945	390.28
315.401	324.75
315.857	331.77
316.313	348.15
316.769	315.39
317.225	364.54
317.681	359.86
318.136	270.92
318.592	296.66
319.048	327.09
319.503	320.07
319.959	397.31
320.414	296.66
320.869	284.96
321.325	263.9
321.78	348.15
322.235	336.45
322.691	299
323.146	308.37
323.601	324.75
324.056	320.07
324.511	310.71
324.966	366.88
325.421	334.11
325.875	294.32
326.33	249.85
326.785	357.52
327.24	380.92
327.694	331.77
328.149	359.86
328.603	341.13
329.058	362.2
329.512	373.9
329.966	355.18
330.421	322.41
330.875	359.86
331.329	322.41
331.783	296.66
332.237	324.75
332.691	308.37
333.145	308.37
333.599	284.96
334.053	364.54
334.507	383.26
334.96	334.11
335.414	268.58
335.868	284.96
336.321	343.47
336.775	259.21
337.228	289.64
337.682	373.9
338.135	331.77
338.588	317.73
339.042	392.62
339.495	324.75
339.948	306.03
340.401	345.81
340.854	352.84
341.307	352.84
341.76	327.09
342.213	383.26
342.666	259.21
343.119	322.41
343.571	327.09
344.024	338.79
344.477	348.15
344.929	317.73
345.382	378.58
345.834	343.47
346.287	310.71
346.739	366.88
347.191	390.28
347.644	350.5
348.096	355.18
348.548	320.07
349	348.15
349.452	345.81
349.904	313.05
350.356	413.69
350.808	348.15
351.26	310.71
351.711	329.43
352.163	359.86
352.615	338.79
353.066	352.84
353.518	366.88
353.969	380.92
354.421	378.58
354.872	394.97
355.324	313.05
355.775	334.11
356.226	336.45
356.677	303.68
357.128	301.34
357.579	294.32
358.03	327.09
358.481	371.56
358.932	341.13
359.383	320.07
359.834	313.05
360.285	329.43
360.735	205.38
361.186	359.86
361.637	329.43
362.087	284.96
362.538	357.52
362.988	362.2
363.438	378.58
363.889	352.84
364.339	336.45
364.789	329.43
365.239	280.28
365.689	336.45
366.139	345.81
366.589	282.62
367.039	371.56
367.489	362.2
367.939	334.11
368.389	324.75
368.839	348.15
369.288	364.54
369.738	373.9
370.187	359.86
370.637	364.54
371.086	301.34
371.536	357.52
371.985	362.2
372.434	331.77
372.884	371.56
373.333	366.88
373.782	306.03
374.231	313.05
374.68	406.67
375.129	359.86
375.578	366.88
376.027	317.73
376.475	411.35
376.924	331.77
377.373	303.68
377.822	334.11
378.27	291.98
378.719	324.75
379.167	275.6
379.616	322.41
380.064	303.68
380.512	320.07
380.961	345.81
381.409	313.05
381.857	331.77
382.305	369.22
382.753	343.47
383.201	324.75
383.649	299
384.097	317.73
384.545	378.58
384.992	364.54
385.44	294.32
385.888	352.84
386.335	249.85
386.783	350.5
387.231	362.2
387.678	378.58
388.125	425.39
388.573	317.73
389.02	317.73
389.467	322.41
389.914	317.73
390.362	359.86
390.809	324.75
391.256	413.69
391.703	350.5
392.15	334.11
392.596	327.09
393.043	327.09
393.49	343.47
393.937	359.86
394.383	345.81
394.83	338.79
395.276	352.84
395.723	308.37
396.169	341.13
396.616	310.71
397.062	348.15
397.508	299
397.954	291.98
398.401	313.05
398.847	306.03
399.293	385.6
399.739	338.79
400.185	343.47
400.631	327.09
401.076	355.18
401.522	329.43
401.968	301.34
402.414	336.45
402.859	306.03
403.305	348.15
403.75	334.11
404.196	338.79
404.641	315.39
405.086	336.45
405.532	291.98
405.977	294.32
406.422	324.75
406.867	327.09
407.312	277.94
407.757	348.15
408.202	350.5
408.647	313.05
409.092	376.24
409.537	406.67
409.982	329.43
410.426	317.73
410.871	327.09
411.316	371.56
411.76	280.28
412.205	320.07
412.649	315.39
413.093	338.79
413.538	341.13
413.982	315.39
414.426	352.84
414.87	341.13
415.314	338.79
415.758	317.73
416.202	284.96
416.646	336.45
417.09	364.54
417.534	390.28
417.978	268.58
418.421	355.18
418.865	329.43
419.309	357.52
419.752	350.5
420.196	327.09
420.639	371.56
421.083	362.2
421.526	394.97
421.969	383.26
422.412	282.62
422.856	401.99
423.299	331.77
423.742	329.43
424.185	390.28
424.628	394.97
425.071	352.84
425.513	322.41
425.956	338.79
426.399	280.28
426.842	310.71
427.284	317.73
427.727	350.5
428.169	357.52
428.612	371.56
429.054	343.47
429.497	324.75
429.939	327.09
430.381	315.39
430.823	317.73
431.265	336.45
431.707	331.77
432.149	334.11
432.591	336.45
433.033	287.3
433.475	394.97
433.917	341.13
434.359	341.13
434.8	380.92
435.242	345.81
435.684	413.69
436.125	378.58
436.567	359.86
437.008	345.81
437.449	259.21
437.891	357.52
438.332	331.77
438.773	345.81
439.214	259.21
439.656	359.86
440.097	348.15
440.538	331.77
440.978	338.79
441.419	317.73
441.86	322.41
442.301	263.9
442.742	317.73
443.182	306.03
443.623	343.47
444.063	327.09
444.504	380.92
444.944	343.47
445.385	350.5
445.825	355.18
446.265	315.39
446.706	317.73
447.146	345.81
447.586	341.13
448.026	306.03
448.466	294.32
448.906	399.65
449.346	376.24
449.786	327.09
450.225	327.09
450.665	378.58
451.105	336.45
451.544	329.43
451.984	348.15
452.424	348.15
452.863	401.99
453.302	334.11
453.742	338.79
454.181	404.33
454.62	320.07
455.059	277.94
455.499	350.5
455.938	357.52
456.377	334.11
456.816	282.62
457.254	317.73
457.693	341.13
458.132	324.75
458.571	327.09
459.01	315.39
459.448	315.39
459.887	350.5
460.325	284.96
460.764	310.71
461.202	261.55
461.641	303.68
462.079	308.37
462.517	355.18
462.955	390.28
463.393	348.15
463.832	242.83
464.27	362.2
464.708	315.39
465.145	303.68
465.583	413.69
466.021	301.34
466.459	313.05
466.897	327.09
467.334	336.45
467.772	362.2
468.209	310.71
468.647	355.18
469.084	366.88
469.522	371.56
469.959	308.37
470.396	315.39
470.833	296.66
471.271	329.43
471.708	420.71
472.145	338.79
472.582	280.28
473.019	345.81
473.456	273.26
473.892	301.34
474.329	315.39
474.766	268.58
475.202	343.47
475.639	306.03
476.076	320.07
476.512	345.81
476.949	289.64
477.385	345.81
477.821	327.09
478.258	291.98
478.694	296.66
479.13	409.01
479.566	310.71
480.002	380.92
480.438	338.79
480.874	364.54
481.31	322.41
481.746	390.28
482.181	345.81
482.617	348.15
483.053	376.24
483.488	345.81
483.924	387.94
484.36	324.75
484.795	343.47
485.23	366.88
485.666	296.66
486.101	359.86
486.536	331.77
486.971	373.9
487.407	254.53
487.842	336.45
488.277	341.13
488.712	331.77
489.146	357.52
489.581	366.88
490.016	399.65
490.451	327.09
490.885	233.47
491.32	334.11
491.755	301.34
492.189	359.86
492.624	352.84
493.058	282.62
493.492	359.86
493.927	371.56
494.361	294.32
494.795	284.96
495.229	366.88
495.663	336.45
496.097	341.13
496.531	359.86
496.965	331.77
497.399	296.66
497.833	343.47
498.266	341.13
498.7	373.9
499.134	416.03
499.567	373.9
500.001	289.64
500.434	317.73
500.868	320.07
501.301	280.28
501.734	343.47
502.168	273.26
502.601	348.15
503.034	291.98
503.467	291.98
503.9	303.68
504.333	301.34
504.766	315.39
505.199	343.47
505.632	423.05
506.064	313.05
506.497	399.65
506.93	327.09
507.362	336.45
507.795	338.79
508.227	266.24
508.66	261.55
509.092	362.2
509.524	366.88
509.956	324.75
510.389	345.81
510.821	291.98
511.253	350.5
511.685	394.97
512.117	280.28
512.549	324.75
512.981	320.07
513.412	378.58
513.844	338.79
514.276	334.11
514.707	373.9
515.139	329.43
515.571	355.18
516.002	320.07
516.433	355.18
516.865	287.3
517.296	390.28
517.727	306.03
518.159	329.43
518.59	287.3
519.021	331.77
519.452	303.68
519.883	331.77
520.314	310.71
520.744	261.55
521.175	383.26
521.606	336.45
522.037	345.81
522.467	348.15
522.898	390.28
523.328	343.47
523.759	315.39
524.189	277.94
524.62	245.17
525.05	303.68
525.48	317.73
525.91	336.45
526.341	256.87
526.771	343.47
527.201	350.5
527.631	409.01
528.061	320.07
528.49	289.64
528.92	341.13
529.35	336.45
529.78	350.5
530.209	315.39
530.639	362.2
531.068	308.37
531.498	320.07
531.927	270.92
532.357	313.05
532.786	303.68
533.215	334.11
533.644	357.52
534.074	371.56
534.503	373.9
534.932	350.5
535.361	411.35
535.79	376.24
536.218	331.77
536.647	352.84
537.076	308.37
537.505	296.66
537.933	315.39
538.362	336.45
538.79	327.09
539.219	371.56
539.647	355.18
540.076	313.05
540.504	334.11
540.932	306.03
541.36	303.68
541.788	343.47
542.217	275.6
542.645	303.68
543.073	359.86
543.5	317.73
543.928	378.58
544.356	369.22
544.784	341.13
545.211	336.45
545.639	329.43
546.067	341.13
546.494	364.54
546.922	327.09
547.349	338.79
547.776	329.43
548.204	369.22
548.631	338.79
549.058	348.15
549.485	352.84
549.912	404.33
550.339	359.86
550.766	357.52
551.193	338.79
551.62	345.81
552.047	282.62
552.474	364.54
552.9	306.03
553.327	310.71
553.754	366.88
554.18	306.03
554.607	352.84
555.033	369.22
555.459	320.07
555.886	348.15
556.312	336.45
556.738	331.77
557.164	355.18
557.59	287.3
558.016	320.07
558.442	291.98
558.868	308.37
559.294	376.24
559.72	359.86
560.145	343.47
560.571	338.79
560.997	287.3
561.422	282.62
561.848	373.9
562.273	322.41
562.699	376.24
563.124	355.18
563.549	329.43
563.974	324.75
564.4	350.5
564.825	324.75
565.25	324.75
565.675	324.75
566.1	331.77
566.525	345.81
566.95	322.41
567.374	341.13
567.799	336.45
568.224	284.96
568.648	357.52
569.073	284.96
569.497	322.41
569.922	338.79
570.346	336.45
570.771	343.47
571.195	308.37
571.619	345.81
572.043	338.79
572.467	282.62
572.891	378.58
573.315	324.75
573.739	315.39
574.163	390.28
574.587	291.98
575.011	308.37
575.435	364.54
575.858	341.13
576.282	317.73
576.705	338.79
577.129	366.88
577.552	338.79
577.976	313.05
578.399	371.56
578.822	404.33
579.245	357.52
579.669	352.84
580.092	308.37
580.515	336.45
580.938	357.52
581.361	362.2
581.784	345.81
582.206	343.47
582.629	296.66
583.052	315.39
583.474	411.35
583.897	362.2
584.32	303.68
584.742	294.32
585.165	331.77
585.587	338.79
586.009	364.54
586.431	341.13
586.854	317.73
587.276	341.13
587.698	315.39
588.12	310.71
588.542	387.94
588.964	357.52
589.386	355.18
589.807	317.73
590.229	362.2
590.651	359.86
591.073	357.52
591.494	296.66
591.916	329.43
592.337	266.24
592.759	378.58
593.18	348.15
593.601	270.92
594.022	380.92
594.444	317.73
594.865	331.77
595.286	343.47
595.707	329.43
596.128	411.35
596.549	296.66
596.97	345.81
597.39	280.28
597.811	366.88
598.232	352.84
598.652	345.81
599.073	390.28
599.494	343.47
599.914	324.75
600.334	345.81
600.755	273.26
601.175	322.41
601.595	359.86
602.015	308.37
602.436	338.79
602.856	455.82
603.276	373.9
603.696	317.73
604.115	343.47
604.535	329.43
604.955	280.28
605.375	371.56
605.794	310.71
606.214	373.9
606.634	263.9
607.053	334.11
607.473	331.77
607.892	310.71
608.311	315.39
608.731	357.52
609.15	303.68
609.569	350.5
609.988	343.47
610.407	355.18
610.826	352.84
611.245	392.62
611.664	378.58
612.083	308.37
612.501	310.71
612.92	270.92
613.339	385.6
613.757	355.18
614.176	385.6
614.594	366.88
615.013	357.52
615.431	376.24
615.85	362.2
616.268	343.47
616.686	334.11
617.104	329.43
617.522	366.88
617.94	294.32
618.358	303.68
618.776	289.64
619.194	306.03
619.612	334.11
620.03	308.37
620.447	322.41
620.865	343.47
621.282	341.13
621.7	299
622.117	371.56
622.535	327.09
622.952	401.99
623.369	308.37
623.787	413.69
624.204	364.54
624.621	320.07
625.038	362.2
625.455	334.11
625.872	277.94
626.289	315.39
626.706	287.3
627.123	373.9
627.539	294.32
627.956	308.37
628.373	289.64
628.789	336.45
629.206	329.43
629.622	336.45
630.038	320.07
630.455	277.94
630.871	352.84
631.287	320.07
631.703	324.75
632.12	273.26
632.536	303.68
632.952	345.81
633.368	310.71
633.783	327.09
634.199	306.03
634.615	322.41
635.031	324.75
635.446	376.24
635.862	338.79
636.277	359.86
636.693	355.18
637.108	313.05
637.524	385.6
637.939	334.11
638.354	308.37
638.77	357.52
639.185	317.73
639.6	324.75
640.015	341.13
640.43	357.52
640.845	366.88
641.259	437.1
641.674	294.32
642.089	294.32
642.504	376.24
642.918	390.28
643.333	378.58
643.747	303.68
644.162	303.68
644.576	343.47
644.991	359.86
645.405	327.09
645.819	289.64
646.233	284.96
646.647	303.68
647.061	313.05
647.475	343.47
647.889	320.07
648.303	350.5
648.717	303.68
649.131	341.13
649.545	289.64
649.958	324.75
650.372	289.64
650.785	378.58
651.199	378.58
651.612	287.3
652.026	299
652.439	394.97
652.852	359.86
653.266	336.45
653.679	355.18
654.092	291.98
654.505	343.47
654.918	284.96
655.331	366.88
655.744	380.92
656.156	362.2
656.569	327.09
656.982	294.32
657.394	273.26
657.807	383.26
658.22	369.22
658.632	343.47
659.044	327.09
659.457	343.47
659.869	352.84
660.281	383.26
660.693	313.05
661.106	287.3
661.518	350.5
661.93	289.64
662.342	310.71
662.754	345.81
663.165	256.87
663.577	303.68
663.989	352.84
664.401	329.43
664.812	385.6
665.224	336.45
665.635	373.9
666.047	327.09
666.458	277.94
666.869	301.34
667.281	320.07
667.692	324.75
668.103	329.43
668.514	299
668.925	291.98
669.336	385.6
669.747	383.26
670.158	329.43
670.569	306.03
670.979	352.84
671.39	380.92
671.801	287.3
672.211	371.56
672.622	275.6
673.032	350.5
673.443	387.94
673.853	331.77
674.263	341.13
674.674	336.45
675.084	401.99
675.494	387.94
675.904	299
676.314	308.37
676.724	338.79
677.134	310.71
677.544	355.18
677.953	296.66
678.363	357.52
678.773	357.52
679.182	376.24
679.592	362.2
680.001	275.6
680.411	324.75
680.82	329.43
681.23	273.26
681.639	317.73
682.048	355.18
682.457	308.37
682.866	329.43
683.275	291.98
683.684	315.39
684.093	277.94
684.502	357.52
684.911	394.97
685.32	301.34
685.728	341.13
686.137	327.09
686.546	348.15
686.954	352.84
687.363	245.17
687.771	299
688.179	380.92
688.588	306.03
688.996	350.5
689.404	334.11
689.812	343.47
690.22	322.41
690.628	331.77
691.036	327.09
691.444	327.09
691.852	336.45
692.26	355.18
692.667	322.41
693.075	362.2
693.483	338.79
693.89	380.92
694.298	352.84
694.705	341.13
695.112	364.54
695.52	357.52
695.927	392.62
696.334	392.62
696.741	270.92
697.148	366.88
697.555	296.66
697.962	315.39
698.369	348.15
698.776	348.15
699.183	385.6
699.59	327.09
699.996	331.77
700.403	268.58
700.81	306.03
701.216	348.15
701.623	343.47
702.029	350.5
702.435	299
702.842	270.92
703.248	357.52
703.654	341.13
704.06	359.86
704.466	306.03
704.872	306.03
705.278	357.52
705.684	299
706.09	308.37
706.496	322.41
706.901	313.05
707.307	273.26
707.712	324.75
708.118	324.75
708.523	242.83
708.929	350.5
709.334	306.03
709.74	322.41
710.145	341.13
710.55	329.43
710.955	261.55
711.36	336.45
711.765	397.31
712.17	331.77
712.575	334.11
712.98	867.75
713.385	427.73
713.789	401.99
714.194	331.77
714.599	313.05
715.003	378.58
715.408	303.68
715.812	277.94
716.217	355.18
716.621	327.09
717.025	289.64
717.429	336.45
717.833	270.92
718.238	348.15
718.642	352.84
719.046	291.98
719.449	352.84
719.853	352.84
720.257	315.39
720.661	322.41
721.065	362.2
721.468	294.32
721.872	299
722.275	252.19
722.679	378.58
723.082	383.26
723.485	327.09
723.889	315.39
724.292	310.71
724.695	327.09
725.098	296.66
725.501	306.03
725.904	341.13
726.307	310.71
726.71	282.62
727.113	327.09
727.516	322.41
727.918	280.28
728.321	371.56
728.724	394.97
729.126	268.58
729.529	355.18
729.931	329.43
730.333	345.81
730.736	268.58
731.138	322.41
731.54	254.53
731.942	329.43
732.344	291.98
732.746	373.9
733.148	336.45
733.55	301.34
733.952	329.43
734.354	362.2
734.756	343.47
735.157	315.39
735.559	334.11
735.96	315.39
736.362	387.94
736.763	336.45
737.165	294.32
737.566	313.05
737.967	331.77
738.368	284.96
738.77	338.79
739.171	313.05
739.572	313.05
739.973	322.41
740.374	327.09
740.774	306.03
741.175	313.05
741.576	355.18
741.977	317.73
742.377	310.71
742.778	327.09
743.178	350.5
743.579	352.84
743.979	249.85
744.379	366.88
744.78	348.15
745.18	345.81
745.58	322.41
745.98	383.26
746.38	348.15
746.78	334.11
747.18	376.24
747.58	275.6
747.98	301.34
748.38	245.17
748.779	350.5
749.179	315.39
749.578	345.81
749.978	366.88
750.377	254.53
750.777	387.94
751.176	266.24
751.575	357.52
751.975	362.2
752.374	399.65
752.773	313.05
753.172	313.05
753.571	287.3
753.97	341.13
754.369	303.68
754.768	308.37
755.166	317.73
755.565	373.9
755.964	383.26
756.362	359.86
756.761	315.39
757.159	329.43
757.558	338.79
757.956	334.11
758.354	383.26
758.753	275.6
759.151	371.56
759.549	306.03
759.947	331.77
760.345	301.34
760.743	336.45
761.141	308.37
761.539	359.86
761.936	345.81
762.334	366.88
762.732	376.24
763.129	348.15
763.527	369.22
763.924	315.39
764.322	362.2
764.719	385.6
765.117	371.56
765.514	331.77
765.911	280.28
