Data from Al_FLMS009871__1122__16-34-11-894.txt Node

Date: Fri Mar 08 16:34:11 CST 2024
User: pe5414po
Spectrometer: FLMS00987
Trigger mode: 0
Integration Time (sec): 1.000000E-1
Scans to average: 1
Electric dark correction enabled: true
Nonlinearity correction enabled: false
Boxcar width: 0
XAxis mode: Wavelengths
Number of Pixels in Spectrum: 2048
>>>>>Begin Spectral Data<<<<<
188.938	-50.61
189.409	-50.61
189.879	-50.61
190.349	-85.72
190.819	-50.61
191.29	-144.24
191.76	-134.87
192.23	-127.85
192.7	-102.11
193.17	-36.57
193.64	10.24
194.109	-36.57
194.579	35.99
195.049	-15.51
195.519	-29.55
195.988	59.39
196.458	73.43
196.927	61.73
197.397	82.8
197.866	183.44
198.336	120.25
198.805	164.72
199.274	145.99
199.744	136.63
200.213	202.16
200.682	169.4
201.151	216.21
201.62	286.42
202.089	225.57
202.558	230.25
203.027	223.23
203.495	279.4
203.964	291.1
204.433	293.44
204.902	239.61
205.37	197.48
205.839	314.51
206.307	288.76
206.776	260.68
207.244	272.38
207.712	307.49
208.181	309.83
208.649	337.91
209.117	328.55
209.585	256
210.053	309.83
210.521	321.53
210.989	307.49
211.457	298.13
211.925	293.44
212.393	302.81
212.861	241.95
213.328	263.02
213.796	277.06
214.264	241.95
214.731	307.49
215.199	291.1
215.666	227.91
216.133	277.06
216.601	281.74
217.068	333.23
217.535	288.76
218.003	256
218.47	295.79
218.937	274.72
219.404	286.42
219.871	309.83
220.338	274.72
220.805	244.29
221.271	251.32
221.738	286.42
222.205	237.27
222.671	288.76
223.138	349.62
223.605	263.02
224.071	258.34
224.538	227.91
225.004	267.7
225.47	251.32
225.937	279.4
226.403	319.19
226.869	265.36
227.335	230.25
227.801	253.66
228.267	291.1
228.733	330.89
229.199	316.85
229.665	248.97
230.131	326.21
230.597	265.36
231.062	307.49
231.528	277.06
231.994	305.15
232.459	309.83
232.925	256
233.39	305.15
233.856	244.29
234.321	225.57
234.786	302.81
235.252	326.21
235.717	337.91
236.182	279.4
236.647	354.3
237.112	270.04
237.577	253.66
238.042	284.08
238.507	300.47
238.972	286.42
239.436	248.97
239.901	260.68
240.366	288.76
240.83	298.13
241.295	281.74
241.76	309.83
242.224	342.6
242.688	295.79
243.153	267.7
243.617	284.08
244.081	312.17
244.545	206.84
245.01	230.25
245.474	286.42
245.938	321.53
246.402	204.5
246.866	209.19
247.33	230.25
247.793	286.42
248.257	288.76
248.721	286.42
249.185	316.85
249.648	286.42
250.112	295.79
250.575	300.47
251.039	272.38
251.502	295.79
251.965	314.51
252.429	291.1
252.892	382.39
253.355	241.95
253.818	351.96
254.281	286.42
254.744	288.76
255.207	314.51
255.67	277.06
256.133	291.1
256.596	281.74
257.059	295.79
257.522	239.61
257.984	337.91
258.447	279.4
258.909	340.26
259.372	309.83
259.834	281.74
260.297	377.7
260.759	277.06
261.221	326.21
261.684	284.08
262.146	241.95
262.608	330.89
263.07	319.19
263.532	272.38
263.994	279.4
264.456	300.47
264.918	330.89
265.38	284.08
265.842	246.63
266.303	305.15
266.765	288.76
267.227	265.36
267.688	298.13
268.15	246.63
268.611	300.47
269.072	286.42
269.534	377.7
269.995	305.15
270.456	284.08
270.918	316.85
271.379	305.15
271.84	312.17
272.301	337.91
272.762	251.32
273.223	328.55
273.684	267.7
274.144	363.66
274.605	284.08
275.066	300.47
275.527	298.13
275.987	347.28
276.448	258.34
276.908	288.76
277.369	312.17
277.829	281.74
278.289	307.49
278.75	300.47
279.21	300.47
279.67	358.98
280.13	260.68
280.59	342.6
281.05	288.76
281.51	387.07
281.97	293.44
282.43	370.68
282.89	300.47
283.35	300.47
283.809	279.4
284.269	340.26
284.729	394.09
285.188	307.49
285.648	312.17
286.107	291.1
286.567	307.49
287.026	274.72
287.485	347.28
287.944	307.49
288.404	302.81
288.863	337.91
289.322	302.81
289.781	288.76
290.24	295.79
290.699	316.85
291.158	288.76
291.616	288.76
292.075	323.87
292.534	272.38
292.992	337.91
293.451	291.1
293.91	281.74
294.368	300.47
294.827	312.17
295.285	321.53
295.743	284.08
296.202	330.89
296.66	209.19
297.118	312.17
297.576	302.81
298.034	284.08
298.492	265.36
298.95	340.26
299.408	213.87
299.866	316.85
300.324	354.3
300.781	363.66
301.239	377.7
301.697	244.29
302.154	291.1
302.612	314.51
303.069	286.42
303.527	307.49
303.984	302.81
304.441	302.81
304.899	253.66
305.356	309.83
305.813	328.55
306.27	312.17
306.727	312.17
307.184	302.81
307.641	312.17
308.098	349.62
308.555	321.53
309.012	330.89
309.468	241.95
309.925	279.4
310.382	335.57
310.838	340.26
311.295	298.13
311.751	295.79
312.208	286.42
312.664	277.06
313.12	288.76
313.577	314.51
314.033	323.87
314.489	305.15
314.945	323.87
315.401	356.64
315.857	319.19
316.313	319.19
316.769	291.1
317.225	375.36
317.681	330.89
318.136	330.89
318.592	284.08
319.048	227.91
319.503	335.57
319.959	288.76
320.414	232.59
320.869	307.49
321.325	321.53
321.78	347.28
322.235	295.79
322.691	281.74
323.146	347.28
323.601	284.08
324.056	302.81
324.511	319.19
324.966	265.36
325.421	298.13
325.875	335.57
326.33	279.4
326.785	312.17
327.24	340.26
327.694	328.55
328.149	291.1
328.603	272.38
329.058	265.36
329.512	288.76
329.966	335.57
330.421	363.66
330.875	387.07
331.329	335.57
331.783	267.7
332.237	319.19
332.691	347.28
333.145	302.81
333.599	351.96
334.053	319.19
334.507	321.53
334.96	368.34
335.414	373.02
335.868	323.87
336.321	335.57
336.775	298.13
337.228	326.21
337.682	351.96
338.135	347.28
338.588	328.55
339.042	281.74
339.495	295.79
339.948	286.42
340.401	363.66
340.854	335.57
341.307	321.53
341.76	337.91
342.213	272.38
342.666	351.96
343.119	342.6
343.571	298.13
344.024	321.53
344.477	340.26
344.929	323.87
345.382	351.96
345.834	323.87
346.287	307.49
346.739	340.26
347.191	347.28
347.644	319.19
348.096	277.06
348.548	314.51
349	298.13
349.452	279.4
349.904	307.49
350.356	267.7
350.808	234.93
351.26	295.79
351.711	361.32
352.163	333.23
352.615	295.79
353.066	326.21
353.518	295.79
353.969	333.23
354.421	305.15
354.872	347.28
355.324	295.79
355.775	314.51
356.226	328.55
356.677	305.15
357.128	307.49
357.579	408.13
358.03	342.6
358.481	335.57
358.932	333.23
359.383	300.47
359.834	291.1
360.285	366
360.735	333.23
361.186	328.55
361.637	312.17
362.087	251.32
362.538	312.17
362.988	300.47
363.438	312.17
363.889	274.72
364.339	272.38
364.789	326.21
365.239	302.81
365.689	265.36
366.139	340.26
366.589	349.62
367.039	272.38
367.489	344.94
367.939	349.62
368.389	358.98
368.839	368.34
369.288	354.3
369.738	370.68
370.187	298.13
370.637	288.76
371.086	349.62
371.536	309.83
371.985	356.64
372.434	337.91
372.884	263.02
373.333	298.13
373.782	340.26
374.231	321.53
374.68	307.49
375.129	368.34
375.578	328.55
376.027	298.13
376.475	312.17
376.924	300.47
377.373	326.21
377.822	284.08
378.27	347.28
378.719	298.13
379.167	279.4
379.616	295.79
380.064	326.21
380.512	312.17
380.961	314.51
381.409	342.6
381.857	361.32
382.305	328.55
382.753	321.53
383.201	286.42
383.649	309.83
384.097	319.19
384.545	274.72
384.992	358.98
385.44	328.55
385.888	340.26
386.335	358.98
386.783	274.72
387.231	302.81
387.678	330.89
388.125	302.81
388.573	302.81
389.02	354.3
389.467	260.68
389.914	330.89
390.362	344.94
390.809	302.81
391.256	347.28
391.703	333.23
392.15	354.3
392.596	305.15
393.043	312.17
393.49	321.53
393.937	309.83
394.383	267.7
394.83	300.47
395.276	358.98
395.723	274.72
396.169	312.17
396.616	337.91
397.062	284.08
397.508	330.89
397.954	284.08
398.401	312.17
398.847	288.76
399.293	344.94
399.739	368.34
400.185	302.81
400.631	344.94
401.076	319.19
401.522	300.47
401.968	270.04
402.414	335.57
402.859	305.15
403.305	307.49
403.75	298.13
404.196	361.32
404.641	319.19
405.086	319.19
405.532	323.87
405.977	234.93
406.422	375.36
406.867	330.89
407.312	274.72
407.757	291.1
408.202	349.62
408.647	354.3
409.092	326.21
409.537	396.43
409.982	335.57
410.426	340.26
410.871	291.1
411.316	375.36
411.76	321.53
412.205	342.6
412.649	335.57
413.093	321.53
413.538	293.44
413.982	349.62
414.426	333.23
414.87	323.87
415.314	377.7
415.758	265.36
416.202	284.08
416.646	323.87
417.09	347.28
417.534	312.17
417.978	387.07
418.421	335.57
418.865	314.51
419.309	349.62
419.752	424.51
420.196	354.3
420.639	422.17
421.083	258.34
421.526	312.17
421.969	363.66
422.412	361.32
422.856	340.26
423.299	342.6
423.742	326.21
424.185	380.04
424.628	305.15
425.071	246.63
425.513	380.04
425.956	295.79
426.399	351.96
426.842	281.74
427.284	330.89
427.727	258.34
428.169	286.42
428.612	295.79
429.054	340.26
429.497	363.66
429.939	328.55
430.381	291.1
430.823	258.34
431.265	316.85
431.707	277.06
432.149	246.63
432.591	274.72
433.033	328.55
433.475	375.36
433.917	286.42
434.359	349.62
434.8	354.3
435.242	302.81
435.684	302.81
436.125	323.87
436.567	373.02
437.008	323.87
437.449	340.26
437.891	344.94
438.332	389.41
438.773	370.68
439.214	309.83
439.656	335.57
440.097	384.73
440.538	356.64
440.978	342.6
441.419	288.76
441.86	258.34
442.301	298.13
442.742	335.57
443.182	412.81
443.623	248.97
444.063	300.47
444.504	314.51
444.944	286.42
445.385	349.62
445.825	328.55
446.265	288.76
446.706	323.87
447.146	267.7
447.586	358.98
448.026	330.89
448.466	295.79
448.906	370.68
449.346	319.19
449.786	279.4
450.225	349.62
450.665	337.91
451.105	370.68
451.544	279.4
451.984	281.74
452.424	284.08
452.863	326.21
453.302	337.91
453.742	351.96
454.181	344.94
454.62	312.17
455.059	253.66
455.499	363.66
455.938	309.83
456.377	389.41
456.816	316.85
457.254	298.13
457.693	361.32
458.132	312.17
458.571	267.7
459.01	319.19
459.448	300.47
459.887	380.04
460.325	349.62
460.764	319.19
461.202	363.66
461.641	302.81
462.079	323.87
462.517	312.17
462.955	340.26
463.393	286.42
463.832	293.44
464.27	337.91
464.708	307.49
465.145	340.26
465.583	309.83
466.021	298.13
466.459	405.79
466.897	314.51
467.334	321.53
467.772	298.13
468.209	366
468.647	316.85
469.084	300.47
469.522	302.81
469.959	281.74
470.396	312.17
470.833	347.28
471.271	358.98
471.708	344.94
472.145	363.66
472.582	387.07
473.019	312.17
473.456	358.98
473.892	309.83
474.329	412.81
474.766	330.89
475.202	321.53
475.639	340.26
476.076	405.79
476.512	335.57
476.949	344.94
477.385	307.49
477.821	363.66
478.258	298.13
478.694	351.96
479.13	319.19
479.566	305.15
480.002	347.28
480.438	272.38
480.874	366
481.31	307.49
481.746	342.6
482.181	312.17
482.617	373.02
483.053	335.57
483.488	309.83
483.924	319.19
484.36	321.53
484.795	337.91
485.23	319.19
485.666	302.81
486.101	344.94
486.536	344.94
486.971	363.66
487.407	265.36
487.842	330.89
488.277	337.91
488.712	305.15
489.146	291.1
489.581	373.02
490.016	312.17
490.451	335.57
490.885	333.23
491.32	298.13
491.755	366
492.189	340.26
492.624	281.74
493.058	366
493.492	351.96
493.927	307.49
494.361	349.62
494.795	284.08
495.229	321.53
495.663	380.04
496.097	286.42
496.531	307.49
496.965	326.21
497.399	335.57
497.833	333.23
498.266	342.6
498.7	281.74
499.134	333.23
499.567	342.6
500.001	351.96
500.434	291.1
500.868	326.21
501.301	361.32
501.734	342.6
502.168	361.32
502.601	349.62
503.034	295.79
503.467	370.68
503.9	300.47
504.333	314.51
504.766	307.49
505.199	314.51
505.632	305.15
506.064	326.21
506.497	291.1
506.93	272.38
507.362	309.83
507.795	291.1
508.227	323.87
508.66	358.98
509.092	340.26
509.524	288.76
509.956	335.57
510.389	309.83
510.821	377.7
511.253	326.21
511.685	291.1
512.117	351.96
512.549	321.53
512.981	293.44
513.412	356.64
513.844	321.53
514.276	309.83
514.707	363.66
515.139	358.98
515.571	302.81
516.002	316.85
516.433	354.3
516.865	333.23
517.296	256
517.727	316.85
518.159	337.91
518.59	384.73
519.021	337.91
519.452	354.3
519.883	300.47
520.314	307.49
520.744	387.07
521.175	330.89
521.606	342.6
522.037	401.11
522.467	347.28
522.898	316.85
523.328	377.7
523.759	309.83
524.189	333.23
524.62	302.81
525.05	347.28
525.48	302.81
525.91	298.13
526.341	351.96
526.771	382.39
527.201	302.81
527.631	298.13
528.061	366
528.49	380.04
528.92	314.51
529.35	340.26
529.78	351.96
530.209	307.49
530.639	309.83
531.068	319.19
531.498	288.76
531.927	328.55
532.357	337.91
532.786	298.13
533.215	321.53
533.644	300.47
534.074	330.89
534.503	330.89
534.932	351.96
535.361	344.94
535.79	326.21
536.218	354.3
536.647	298.13
537.076	319.19
537.505	333.23
537.933	361.32
538.362	366
538.79	347.28
539.219	302.81
539.647	272.38
540.076	356.64
540.504	298.13
540.932	358.98
541.36	302.81
541.788	358.98
542.217	330.89
542.645	291.1
543.073	274.72
543.5	354.3
543.928	368.34
544.356	298.13
544.784	279.4
545.211	344.94
545.639	328.55
546.067	368.34
546.494	351.96
546.922	366
547.349	300.47
547.776	358.98
548.204	316.85
548.631	323.87
549.058	302.81
549.485	340.26
549.912	298.13
550.339	328.55
550.766	309.83
551.193	344.94
551.62	321.53
552.047	366
552.474	274.72
552.9	307.49
553.327	328.55
553.754	288.76
554.18	284.08
554.607	419.83
555.033	314.51
555.459	326.21
555.886	272.38
556.312	274.72
556.738	300.47
557.164	342.6
557.59	323.87
558.016	373.02
558.442	349.62
558.868	344.94
559.294	309.83
559.72	366
560.145	309.83
560.571	321.53
560.997	328.55
561.422	321.53
561.848	363.66
562.273	279.4
562.699	312.17
563.124	307.49
563.549	251.32
563.974	248.97
564.4	309.83
564.825	307.49
565.25	314.51
565.675	389.41
566.1	351.96
566.525	354.3
566.95	361.32
567.374	248.97
567.799	370.68
568.224	356.64
568.648	295.79
569.073	394.09
569.497	314.51
569.922	309.83
570.346	358.98
570.771	328.55
571.195	316.85
571.619	277.06
572.043	312.17
572.467	293.44
572.891	321.53
573.315	333.23
573.739	258.34
574.163	358.98
574.587	349.62
575.011	316.85
575.435	375.36
575.858	337.91
576.282	293.44
576.705	349.62
577.129	309.83
577.552	298.13
577.976	312.17
578.399	316.85
578.822	316.85
579.245	326.21
579.669	328.55
580.092	391.75
580.515	370.68
580.938	333.23
581.361	309.83
581.784	335.57
582.206	258.34
582.629	295.79
583.052	370.68
583.474	274.72
583.897	295.79
584.32	291.1
584.742	328.55
585.165	366
585.587	279.4
586.009	309.83
586.431	340.26
586.854	354.3
587.276	312.17
587.698	295.79
588.12	312.17
588.542	279.4
588.964	333.23
589.386	387.07
589.807	347.28
590.229	316.85
590.651	277.06
591.073	291.1
591.494	340.26
591.916	344.94
592.337	337.91
592.759	333.23
593.18	302.81
593.601	344.94
594.022	337.91
594.444	307.49
594.865	333.23
595.286	340.26
595.707	347.28
596.128	312.17
596.549	337.91
596.97	398.77
597.39	344.94
597.811	298.13
598.232	368.34
598.652	284.08
599.073	342.6
599.494	394.09
599.914	314.51
600.334	302.81
600.755	307.49
601.175	337.91
601.595	312.17
602.015	277.06
602.436	335.57
602.856	351.96
603.276	354.3
603.696	326.21
604.115	309.83
604.535	384.73
604.955	342.6
605.375	333.23
605.794	337.91
606.214	298.13
606.634	307.49
607.053	389.41
607.473	267.7
607.892	344.94
608.311	300.47
608.731	356.64
609.15	267.7
609.569	333.23
609.988	323.87
610.407	326.21
610.826	312.17
611.245	319.19
611.664	342.6
612.083	380.04
612.501	309.83
612.92	274.72
613.339	382.39
613.757	277.06
614.176	281.74
614.594	363.66
615.013	302.81
615.431	309.83
615.85	253.66
616.268	326.21
616.686	309.83
617.104	312.17
617.522	344.94
617.94	335.57
618.358	300.47
618.776	288.76
619.194	335.57
619.612	281.74
620.03	314.51
620.447	316.85
620.865	272.38
621.282	333.23
621.7	340.26
622.117	389.41
622.535	337.91
622.952	298.13
623.369	300.47
623.787	358.98
624.204	333.23
624.621	321.53
625.038	277.06
625.455	344.94
625.872	312.17
626.289	291.1
626.706	265.36
627.123	305.15
627.539	309.83
627.956	274.72
628.373	349.62
628.789	340.26
629.206	291.1
629.622	340.26
630.038	349.62
630.455	293.44
630.871	373.02
631.287	307.49
631.703	260.68
632.12	270.04
632.536	279.4
632.952	281.74
633.368	319.19
633.783	263.02
634.199	333.23
634.615	337.91
635.031	358.98
635.446	354.3
635.862	344.94
636.277	370.68
636.693	340.26
637.108	358.98
637.524	323.87
637.939	422.17
638.354	337.91
638.77	274.72
639.185	293.44
639.6	328.55
640.015	373.02
640.43	326.21
640.845	344.94
641.259	358.98
641.674	293.44
642.089	333.23
642.504	295.79
642.918	230.25
643.333	326.21
643.747	387.07
644.162	281.74
644.576	337.91
644.991	277.06
645.405	314.51
645.819	354.3
646.233	260.68
646.647	293.44
647.061	356.64
647.475	356.64
647.889	351.96
648.303	309.83
648.717	293.44
649.131	298.13
649.545	316.85
649.958	323.87
650.372	335.57
650.785	316.85
651.199	309.83
651.612	267.7
652.026	267.7
652.439	337.91
652.852	342.6
653.266	382.39
653.679	361.32
654.092	295.79
654.505	401.11
654.918	323.87
655.331	384.73
655.744	314.51
656.156	351.96
656.569	342.6
656.982	323.87
657.394	312.17
657.807	356.64
658.22	375.36
658.632	305.15
659.044	323.87
659.457	330.89
659.869	293.44
660.281	335.57
660.693	300.47
661.106	319.19
661.518	349.62
661.93	358.98
662.342	366
662.754	335.57
663.165	349.62
663.577	358.98
663.989	387.07
664.401	270.04
664.812	281.74
665.224	358.98
665.635	307.49
666.047	293.44
666.458	305.15
666.869	344.94
667.281	316.85
667.692	305.15
668.103	344.94
668.514	300.47
668.925	361.32
669.336	337.91
669.747	337.91
670.158	300.47
670.569	354.3
670.979	366
671.39	284.08
671.801	326.21
672.211	349.62
672.622	328.55
673.032	251.32
673.443	326.21
673.853	272.38
674.263	321.53
674.674	396.43
675.084	309.83
675.494	295.79
675.904	312.17
676.314	344.94
676.724	302.81
677.134	358.98
677.544	351.96
677.953	302.81
678.363	342.6
678.773	387.07
679.182	307.49
679.592	333.23
680.001	330.89
680.411	244.29
680.82	302.81
681.23	300.47
681.639	328.55
682.048	321.53
682.457	401.11
682.866	312.17
683.275	354.3
683.684	288.76
684.093	358.98
684.502	370.68
684.911	330.89
685.32	342.6
685.728	333.23
686.137	321.53
686.546	328.55
686.954	321.53
687.363	258.34
687.771	361.32
688.179	335.57
688.588	368.34
688.996	312.17
689.404	323.87
689.812	277.06
690.22	272.38
690.628	358.98
691.036	312.17
691.444	323.87
691.852	281.74
692.26	298.13
692.667	377.7
693.075	340.26
693.483	309.83
693.89	270.04
694.298	295.79
694.705	321.53
695.112	358.98
695.52	307.49
695.927	323.87
696.334	277.06
696.741	260.68
697.148	316.85
697.555	248.97
697.962	380.04
698.369	337.91
698.776	230.25
699.183	291.1
699.59	248.97
699.996	295.79
700.403	335.57
700.81	272.38
701.216	307.49
701.623	370.68
702.029	356.64
702.435	295.79
702.842	326.21
703.248	351.96
703.654	300.47
704.06	326.21
704.466	375.36
704.872	258.34
705.278	342.6
705.684	321.53
706.09	403.45
706.496	302.81
706.901	328.55
707.307	305.15
707.712	274.72
708.118	288.76
708.523	344.94
708.929	246.63
709.334	342.6
709.74	335.57
710.145	356.64
710.55	366
710.955	368.34
711.36	384.73
711.765	356.64
712.17	344.94
712.575	307.49
712.98	799
713.385	335.57
713.789	326.21
714.194	356.64
714.599	328.55
715.003	326.21
715.408	314.51
715.812	319.19
716.217	307.49
716.621	368.34
717.025	342.6
717.429	328.55
717.833	293.44
718.238	300.47
718.642	321.53
719.046	347.28
719.449	326.21
719.853	316.85
720.257	284.08
720.661	312.17
721.065	260.68
721.468	277.06
721.872	309.83
722.275	312.17
722.679	312.17
723.082	300.47
723.485	295.79
723.889	321.53
724.292	307.49
724.695	377.7
725.098	293.44
725.501	323.87
725.904	270.04
726.307	295.79
726.71	312.17
727.113	363.66
727.516	291.1
727.918	337.91
728.321	333.23
728.724	298.13
729.126	347.28
729.529	438.56
729.931	265.36
730.333	408.13
730.736	375.36
731.138	307.49
731.54	351.96
731.942	358.98
732.344	342.6
732.746	349.62
733.148	351.96
733.55	305.15
733.952	340.26
734.354	319.19
734.756	270.04
735.157	305.15
735.559	286.42
735.96	256
736.362	363.66
736.763	384.73
737.165	309.83
737.566	277.06
737.967	321.53
738.368	291.1
738.77	335.57
739.171	298.13
739.572	305.15
739.973	288.76
740.374	368.34
740.774	309.83
741.175	291.1
741.576	248.97
741.977	314.51
742.377	312.17
742.778	293.44
743.178	354.3
743.579	337.91
743.979	333.23
744.379	241.95
744.78	204.5
745.18	319.19
745.58	344.94
745.98	328.55
746.38	319.19
746.78	319.19
747.18	293.44
747.58	356.64
747.98	326.21
748.38	354.3
748.779	321.53
749.179	326.21
749.578	288.76
749.978	314.51
750.377	351.96
750.777	307.49
751.176	263.02
751.575	370.68
751.975	300.47
752.374	291.1
752.773	305.15
753.172	302.81
753.571	351.96
753.97	307.49
754.369	293.44
754.768	286.42
755.166	368.34
755.565	333.23
755.964	309.83
756.362	340.26
756.761	323.87
757.159	307.49
757.558	356.64
757.956	368.34
758.354	377.7
758.753	267.7
759.151	328.55
759.549	256
759.947	307.49
760.345	274.72
760.743	323.87
761.141	340.26
761.539	405.79
761.936	300.47
762.334	326.21
762.732	347.28
763.129	340.26
763.527	358.98
763.924	288.76
764.322	323.87
764.719	307.49
765.117	340.26
765.514	274.72
765.911	351.96
766.308	300.47
