Data from Al_FLMS009871__1127__16-34-12-395.txt Node

Date: Fri Mar 08 16:34:12 CST 2024
User: pe5414po
Spectrometer: FLMS00987
Trigger mode: 0
Integration Time (sec): 1.000000E-1
Scans to average: 1
Electric dark correction enabled: true
Nonlinearity correction enabled: false
Boxcar width: 0
XAxis mode: Wavelengths
Number of Pixels in Spectrum: 2048
>>>>>Begin Spectral Data<<<<<
188.938	-45.06
189.409	-45.06
189.879	-45.06
190.349	-124.63
190.819	-131.66
191.29	-63.78
191.76	-89.53
192.23	-91.87
192.7	-94.21
193.17	-68.46
193.64	-68.46
194.109	-38.03
194.579	25.16
195.049	-2.93
195.519	27.5
195.988	41.54
196.458	43.89
196.927	64.95
197.397	107.08
197.866	86.01
198.336	121.12
198.805	139.85
199.274	160.91
199.744	210.06
200.213	71.97
200.682	146.87
201.151	174.96
201.62	245.17
202.089	270.92
202.558	214.74
203.027	261.55
203.495	299
203.964	249.85
204.433	348.15
204.902	301.34
205.37	320.07
205.839	301.34
206.307	308.37
206.776	348.15
207.244	273.26
207.712	301.34
208.181	240.49
208.649	282.62
209.117	277.94
209.585	301.34
210.053	259.21
210.521	284.96
210.989	306.03
211.457	242.83
211.925	287.3
212.393	284.96
212.861	238.15
213.328	317.73
213.796	291.98
214.264	275.6
214.731	289.64
215.199	242.83
215.666	287.3
216.133	263.9
216.601	299
217.068	329.43
217.535	263.9
218.003	299
218.47	324.75
218.937	254.53
219.404	249.85
219.871	277.94
220.338	231.13
220.805	299
221.271	249.85
221.738	284.96
222.205	261.55
222.671	205.38
223.138	259.21
223.605	275.6
224.071	322.41
224.538	291.98
225.004	254.53
225.47	252.19
225.937	252.19
226.403	289.64
226.869	291.98
227.335	334.11
227.801	291.98
228.267	160.91
228.733	287.3
229.199	282.62
229.665	275.6
230.131	273.26
230.597	240.49
231.062	294.32
231.528	291.98
231.994	336.45
232.459	291.98
232.925	266.24
233.39	280.28
233.856	277.94
234.321	306.03
234.786	221.77
235.252	275.6
235.717	249.85
236.182	299
236.647	242.83
237.112	289.64
237.577	247.51
238.042	345.81
238.507	245.17
238.972	301.34
239.436	301.34
239.901	313.05
240.366	277.94
240.83	259.21
241.295	245.17
241.76	282.62
242.224	341.13
242.688	238.15
243.153	284.96
243.617	282.62
244.081	287.3
244.545	252.19
245.01	331.77
245.474	299
245.938	282.62
246.402	303.68
246.866	277.94
247.33	266.24
247.793	324.75
248.257	245.17
248.721	336.45
249.185	247.51
249.648	261.55
250.112	219.43
250.575	306.03
251.039	296.66
251.502	275.6
251.965	277.94
252.429	336.45
252.892	266.24
253.355	313.05
253.818	200.7
254.281	280.28
254.744	315.39
255.207	228.79
255.67	303.68
256.133	242.83
256.596	291.98
257.059	247.51
257.522	331.77
257.984	289.64
258.447	277.94
258.909	334.11
259.372	252.19
259.834	270.92
260.297	296.66
260.759	364.54
261.221	313.05
261.684	273.26
262.146	282.62
262.608	256.87
263.07	217.08
263.532	252.19
263.994	334.11
264.456	296.66
264.918	327.09
265.38	254.53
265.842	324.75
266.303	313.05
266.765	350.5
267.227	329.43
267.688	259.21
268.15	308.37
268.611	327.09
269.072	280.28
269.534	301.34
269.995	284.96
270.456	291.98
270.918	263.9
271.379	315.39
271.84	343.47
272.301	280.28
272.762	310.71
273.223	226.45
273.684	280.28
274.144	242.83
274.605	296.66
275.066	310.71
275.527	259.21
275.987	226.45
276.448	212.4
276.908	275.6
277.369	306.03
277.829	345.81
278.289	324.75
278.75	299
279.21	313.05
279.67	270.92
280.13	277.94
280.59	411.35
281.05	348.15
281.51	289.64
281.97	259.21
282.43	317.73
282.89	315.39
283.35	240.49
283.809	301.34
284.269	299
284.729	334.11
285.188	299
285.648	275.6
286.107	203.04
286.567	249.85
287.026	317.73
287.485	287.3
287.944	256.87
288.404	327.09
288.863	369.22
289.322	324.75
289.781	322.41
290.24	210.06
290.699	287.3
291.158	317.73
291.616	275.6
292.075	303.68
292.534	345.81
292.992	341.13
293.451	320.07
293.91	317.73
294.368	275.6
294.827	273.26
295.285	289.64
295.743	362.2
296.202	254.53
296.66	238.15
297.118	296.66
297.576	301.34
298.034	327.09
298.492	217.08
298.95	233.47
299.408	270.92
299.866	334.11
300.324	263.9
300.781	273.26
301.239	315.39
301.697	282.62
302.154	336.45
302.612	301.34
303.069	348.15
303.527	303.68
303.984	310.71
304.441	329.43
304.899	320.07
305.356	291.98
305.813	401.99
306.27	310.71
306.727	324.75
307.184	357.52
307.641	320.07
308.098	249.85
308.555	268.58
309.012	280.28
309.468	329.43
309.925	287.3
310.382	280.28
310.838	289.64
311.295	338.79
311.751	320.07
312.208	280.28
312.664	287.3
313.12	348.15
313.577	306.03
314.033	245.17
314.489	357.52
314.945	284.96
315.401	329.43
315.857	327.09
316.313	301.34
316.769	315.39
317.225	289.64
317.681	329.43
318.136	329.43
318.592	268.58
319.048	336.45
319.503	277.94
319.959	301.34
320.414	273.26
320.869	327.09
321.325	240.49
321.78	308.37
322.235	291.98
322.691	277.94
323.146	366.88
323.601	359.86
324.056	306.03
324.511	310.71
324.966	270.92
325.421	207.72
325.875	308.37
326.33	275.6
326.785	306.03
327.24	273.26
327.694	320.07
328.149	334.11
328.603	313.05
329.058	373.9
329.512	268.58
329.966	324.75
330.421	289.64
330.875	341.13
331.329	249.85
331.783	327.09
332.237	261.55
332.691	282.62
333.145	327.09
333.599	303.68
334.053	338.79
334.507	320.07
334.96	352.84
335.414	268.58
335.868	270.92
336.321	306.03
336.775	315.39
337.228	317.73
337.682	275.6
338.135	329.43
338.588	266.24
339.042	317.73
339.495	282.62
339.948	373.9
340.401	320.07
340.854	308.37
341.307	366.88
341.76	338.79
342.213	296.66
342.666	277.94
343.119	357.52
343.571	259.21
344.024	348.15
344.477	327.09
344.929	355.18
345.382	343.47
345.834	336.45
346.287	357.52
346.739	357.52
347.191	254.53
347.644	336.45
348.096	268.58
348.548	343.47
349	296.66
349.452	291.98
349.904	306.03
350.356	336.45
350.808	242.83
351.26	355.18
351.711	338.79
352.163	313.05
352.615	334.11
353.066	310.71
353.518	282.62
353.969	315.39
354.421	280.28
354.872	294.32
355.324	287.3
355.775	310.71
356.226	317.73
356.677	324.75
357.128	299
357.579	392.62
358.03	277.94
358.481	315.39
358.932	256.87
359.383	287.3
359.834	282.62
360.285	294.32
360.735	336.45
361.186	256.87
361.637	383.26
362.087	362.2
362.538	341.13
362.988	366.88
363.438	331.77
363.889	329.43
364.339	270.92
364.789	275.6
365.239	348.15
365.689	299
366.139	371.56
366.589	320.07
367.039	308.37
367.489	385.6
367.939	338.79
368.389	313.05
368.839	352.84
369.288	291.98
369.738	324.75
370.187	357.52
370.637	284.96
371.086	322.41
371.536	334.11
371.985	284.96
372.434	301.34
372.884	270.92
373.333	373.9
373.782	331.77
374.231	317.73
374.68	291.98
375.129	348.15
375.578	385.6
376.027	373.9
376.475	338.79
376.924	329.43
377.373	390.28
377.822	263.9
378.27	334.11
378.719	334.11
379.167	338.79
379.616	345.81
380.064	343.47
380.512	294.32
380.961	336.45
381.409	380.92
381.857	282.62
382.305	369.22
382.753	275.6
383.201	371.56
383.649	331.77
384.097	310.71
384.545	280.28
384.992	350.5
385.44	327.09
385.888	317.73
386.335	263.9
386.783	310.71
387.231	284.96
387.678	320.07
388.125	296.66
388.573	357.52
389.02	320.07
389.467	294.32
389.914	254.53
390.362	219.43
390.809	329.43
391.256	320.07
391.703	275.6
392.15	362.2
392.596	317.73
393.043	277.94
393.49	310.71
393.937	369.22
394.383	294.32
394.83	310.71
395.276	355.18
395.723	320.07
396.169	219.43
396.616	289.64
397.062	296.66
397.508	320.07
397.954	343.47
398.401	294.32
398.847	301.34
399.293	317.73
399.739	320.07
400.185	331.77
400.631	303.68
401.076	329.43
401.522	404.33
401.968	343.47
402.414	327.09
402.859	345.81
403.305	315.39
403.75	315.39
404.196	317.73
404.641	310.71
405.086	324.75
405.532	313.05
405.977	313.05
406.422	366.88
406.867	399.65
407.312	341.13
407.757	303.68
408.202	373.9
408.647	357.52
409.092	359.86
409.537	256.87
409.982	313.05
410.426	315.39
410.871	301.34
411.316	331.77
411.76	299
412.205	317.73
412.649	308.37
413.093	310.71
413.538	313.05
413.982	263.9
414.426	315.39
414.87	263.9
415.314	315.39
415.758	341.13
416.202	324.75
416.646	355.18
417.09	263.9
417.534	331.77
417.978	331.77
418.421	266.24
418.865	320.07
419.309	268.58
419.752	275.6
420.196	317.73
420.639	331.77
421.083	320.07
421.526	266.24
421.969	355.18
422.412	296.66
422.856	289.64
423.299	362.2
423.742	308.37
424.185	287.3
424.628	331.77
425.071	315.39
425.513	308.37
425.956	296.66
426.399	322.41
426.842	303.68
427.284	299
427.727	343.47
428.169	313.05
428.612	313.05
429.054	317.73
429.497	338.79
429.939	261.55
430.381	317.73
430.823	303.68
431.265	315.39
431.707	277.94
432.149	287.3
432.591	380.92
433.033	331.77
433.475	350.5
433.917	322.41
434.359	383.26
434.8	303.68
435.242	266.24
435.684	317.73
436.125	289.64
436.567	277.94
437.008	313.05
437.449	317.73
437.891	273.26
438.332	306.03
438.773	266.24
439.214	294.32
439.656	221.77
440.097	357.52
440.538	359.86
440.978	350.5
441.419	284.96
441.86	299
442.301	263.9
442.742	233.47
443.182	327.09
443.623	289.64
444.063	306.03
444.504	320.07
444.944	329.43
445.385	310.71
445.825	324.75
446.265	364.54
446.706	362.2
447.146	245.17
447.586	231.13
448.026	373.9
448.466	362.2
448.906	331.77
449.346	348.15
449.786	341.13
450.225	329.43
450.665	224.11
451.105	331.77
451.544	352.84
451.984	322.41
452.424	371.56
452.863	273.26
453.302	270.92
453.742	275.6
454.181	336.45
454.62	299
455.059	287.3
455.499	334.11
455.938	345.81
456.377	277.94
456.816	380.92
457.254	341.13
457.693	359.86
458.132	343.47
458.571	364.54
459.01	336.45
459.448	289.64
459.887	256.87
460.325	336.45
460.764	310.71
461.202	352.84
461.641	315.39
462.079	270.92
462.517	343.47
462.955	390.28
463.393	364.54
463.832	355.18
464.27	273.26
464.708	308.37
465.145	256.87
465.583	310.71
466.021	329.43
466.459	310.71
466.897	334.11
467.334	289.64
467.772	310.71
468.209	334.11
468.647	324.75
469.084	313.05
469.522	324.75
469.959	273.26
470.396	355.18
470.833	373.9
471.271	359.86
471.708	289.64
472.145	366.88
472.582	310.71
473.019	301.34
473.456	303.68
473.892	315.39
474.329	310.71
474.766	212.4
475.202	310.71
475.639	299
476.076	387.94
476.512	362.2
476.949	270.92
477.385	291.98
477.821	301.34
478.258	341.13
478.694	266.24
479.13	348.15
479.566	287.3
480.002	343.47
480.438	294.32
480.874	275.6
481.31	320.07
481.746	336.45
482.181	313.05
482.617	355.18
483.053	369.22
483.488	334.11
483.924	338.79
484.36	308.37
484.795	371.56
485.23	317.73
485.666	336.45
486.101	418.37
486.536	273.26
486.971	331.77
487.407	352.84
487.842	315.39
488.277	303.68
488.712	357.52
489.146	355.18
489.581	373.9
490.016	341.13
490.451	233.47
490.885	259.21
491.32	334.11
491.755	329.43
492.189	327.09
492.624	371.56
493.058	317.73
493.492	299
493.927	334.11
494.361	291.98
494.795	317.73
495.229	310.71
495.663	338.79
496.097	392.62
496.531	296.66
496.965	301.34
497.399	306.03
497.833	301.34
498.266	259.21
498.7	369.22
499.134	362.2
499.567	303.68
500.001	254.53
500.434	341.13
500.868	373.9
501.301	308.37
501.734	303.68
502.168	282.62
502.601	308.37
503.034	329.43
503.467	320.07
503.9	355.18
504.333	263.9
504.766	315.39
505.199	329.43
505.632	207.72
506.064	380.92
506.497	263.9
506.93	294.32
507.362	315.39
507.795	296.66
508.227	289.64
508.66	306.03
509.092	373.9
509.524	369.22
509.956	317.73
510.389	324.75
510.821	327.09
511.253	273.26
511.685	355.18
512.117	338.79
512.549	284.96
512.981	357.52
513.412	329.43
513.844	329.43
514.276	334.11
514.707	327.09
515.139	385.6
515.571	282.62
516.002	366.88
516.433	331.77
516.865	282.62
517.296	371.56
517.727	324.75
518.159	348.15
518.59	313.05
519.021	315.39
519.452	331.77
519.883	350.5
520.314	306.03
520.744	289.64
521.175	350.5
521.606	317.73
522.037	378.58
522.467	364.54
522.898	273.26
523.328	303.68
523.759	306.03
524.189	327.09
524.62	320.07
525.05	380.92
525.48	317.73
525.91	275.6
526.341	366.88
526.771	343.47
527.201	345.81
527.631	310.71
528.061	355.18
528.49	235.81
528.92	266.24
529.35	338.79
529.78	282.62
530.209	315.39
530.639	320.07
531.068	284.96
531.498	352.84
531.927	296.66
532.357	270.92
532.786	282.62
533.215	313.05
533.644	280.28
534.074	341.13
534.503	291.98
534.932	291.98
535.361	284.96
535.79	306.03
536.218	322.41
536.647	306.03
537.076	348.15
537.505	284.96
537.933	308.37
538.362	331.77
538.79	317.73
539.219	338.79
539.647	317.73
540.076	282.62
540.504	369.22
540.932	329.43
541.36	315.39
541.788	315.39
542.217	371.56
542.645	289.64
543.073	310.71
543.5	350.5
543.928	341.13
544.356	289.64
544.784	348.15
545.211	334.11
545.639	294.32
546.067	270.92
546.494	324.75
546.922	301.34
547.349	313.05
547.776	313.05
548.204	306.03
548.631	252.19
549.058	343.47
549.485	280.28
549.912	322.41
550.339	345.81
550.766	296.66
551.193	345.81
551.62	334.11
552.047	303.68
552.474	277.94
552.9	345.81
553.327	277.94
553.754	355.18
554.18	294.32
554.607	317.73
555.033	268.58
555.459	364.54
555.886	376.24
556.312	331.77
556.738	287.3
557.164	355.18
557.59	362.2
558.016	306.03
558.442	373.9
558.868	294.32
559.294	324.75
559.72	294.32
560.145	341.13
560.571	277.94
560.997	359.86
561.422	327.09
561.848	359.86
562.273	275.6
562.699	308.37
563.124	313.05
563.549	306.03
563.974	313.05
564.4	322.41
564.825	362.2
565.25	392.62
565.675	289.64
566.1	387.94
566.525	345.81
566.95	317.73
567.374	245.17
567.799	338.79
568.224	317.73
568.648	301.34
569.073	399.65
569.497	291.98
569.922	423.05
570.346	357.52
570.771	334.11
571.195	280.28
571.619	357.52
572.043	329.43
572.467	282.62
572.891	317.73
573.315	352.84
573.739	282.62
574.163	282.62
574.587	334.11
575.011	334.11
575.435	373.9
575.858	320.07
576.282	301.34
576.705	378.58
577.129	392.62
577.552	263.9
577.976	245.17
578.399	343.47
578.822	270.92
579.245	329.43
579.669	287.3
580.092	268.58
580.515	336.45
580.938	301.34
581.361	334.11
581.784	327.09
582.206	261.55
582.629	334.11
583.052	282.62
583.474	280.28
583.897	310.71
584.32	287.3
584.742	280.28
585.165	334.11
585.587	315.39
586.009	287.3
586.431	317.73
586.854	348.15
587.276	294.32
587.698	369.22
588.12	308.37
588.542	357.52
588.964	366.88
589.386	331.77
589.807	317.73
590.229	343.47
590.651	348.15
591.073	320.07
591.494	280.28
591.916	301.34
592.337	373.9
592.759	338.79
593.18	352.84
593.601	315.39
594.022	348.15
594.444	324.75
594.865	310.71
595.286	275.6
595.707	313.05
596.128	362.2
596.549	345.81
596.97	380.92
597.39	270.92
597.811	359.86
598.232	369.22
598.652	277.94
599.073	336.45
599.494	306.03
599.914	313.05
600.334	355.18
600.755	378.58
601.175	338.79
601.595	289.64
602.015	308.37
602.436	306.03
602.856	416.03
603.276	282.62
603.696	301.34
604.115	362.2
604.535	313.05
604.955	327.09
605.375	287.3
605.794	371.56
606.214	289.64
606.634	331.77
607.053	268.58
607.473	355.18
607.892	313.05
608.311	362.2
608.731	327.09
609.15	364.54
609.569	338.79
609.988	336.45
610.407	331.77
610.826	366.88
611.245	352.84
611.664	324.75
612.083	259.21
612.501	308.37
612.92	343.47
613.339	327.09
613.757	331.77
614.176	280.28
614.594	282.62
615.013	355.18
615.431	376.24
615.85	317.73
616.268	282.62
616.686	301.34
617.104	310.71
617.522	348.15
617.94	357.52
618.358	287.3
618.776	324.75
619.194	273.26
619.612	277.94
620.03	301.34
620.447	313.05
620.865	373.9
621.282	306.03
621.7	313.05
622.117	320.07
622.535	378.58
622.952	306.03
623.369	322.41
623.787	355.18
624.204	380.92
624.621	270.92
625.038	299
625.455	355.18
625.872	282.62
626.289	383.26
626.706	366.88
627.123	282.62
627.539	306.03
627.956	334.11
628.373	310.71
628.789	320.07
629.206	324.75
629.622	266.24
630.038	378.58
630.455	352.84
630.871	273.26
631.287	289.64
631.703	299
632.12	308.37
632.536	322.41
632.952	352.84
633.368	348.15
633.783	324.75
634.199	310.71
634.615	322.41
635.031	280.28
635.446	366.88
635.862	355.18
636.277	301.34
636.693	238.15
637.108	324.75
637.524	329.43
637.939	259.21
638.354	348.15
638.77	331.77
639.185	341.13
639.6	376.24
640.015	303.68
640.43	306.03
640.845	303.68
641.259	345.81
641.674	277.94
642.089	387.94
642.504	336.45
642.918	336.45
643.333	315.39
643.747	303.68
644.162	369.22
644.576	329.43
644.991	315.39
645.405	355.18
645.819	359.86
646.233	322.41
646.647	320.07
647.061	308.37
647.475	249.85
647.889	322.41
648.303	308.37
648.717	291.98
649.131	301.34
649.545	289.64
649.958	322.41
650.372	315.39
650.785	310.71
651.199	394.97
651.612	310.71
652.026	275.6
652.439	317.73
652.852	287.3
653.266	296.66
653.679	268.58
654.092	299
654.505	306.03
654.918	313.05
655.331	317.73
655.744	289.64
656.156	315.39
656.569	355.18
656.982	313.05
657.394	310.71
657.807	296.66
658.22	303.68
658.632	301.34
659.044	341.13
659.457	324.75
659.869	299
660.281	303.68
660.693	268.58
661.106	359.86
661.518	308.37
661.93	277.94
662.342	336.45
662.754	331.77
663.165	313.05
663.577	320.07
663.989	261.55
664.401	329.43
664.812	322.41
665.224	242.83
665.635	329.43
666.047	259.21
666.458	296.66
666.869	397.31
667.281	310.71
667.692	320.07
668.103	317.73
668.514	317.73
668.925	317.73
669.336	329.43
669.747	282.62
670.158	296.66
670.569	362.2
670.979	348.15
671.39	296.66
671.801	334.11
672.211	345.81
672.622	327.09
673.032	352.84
673.443	266.24
673.853	275.6
674.263	329.43
674.674	263.9
675.084	364.54
675.494	331.77
675.904	322.41
676.314	362.2
676.724	409.01
677.134	306.03
677.544	317.73
677.953	299
678.363	270.92
678.773	364.54
679.182	341.13
679.592	259.21
680.001	291.98
680.411	357.52
680.82	301.34
681.23	289.64
681.639	322.41
682.048	357.52
682.457	277.94
682.866	277.94
683.275	352.84
683.684	322.41
684.093	343.47
684.502	331.77
684.911	303.68
685.32	341.13
685.728	336.45
686.137	327.09
686.546	284.96
686.954	350.5
687.363	322.41
687.771	282.62
688.179	306.03
688.588	313.05
688.996	355.18
689.404	275.6
689.812	296.66
690.22	308.37
690.628	341.13
691.036	320.07
691.444	341.13
691.852	308.37
692.26	380.92
692.667	345.81
693.075	338.79
693.483	336.45
693.89	301.34
694.298	373.9
694.705	296.66
695.112	287.3
695.52	301.34
695.927	343.47
696.334	334.11
696.741	322.41
697.148	345.81
697.555	310.71
697.962	261.55
698.369	373.9
698.776	299
699.183	338.79
699.59	282.62
699.996	268.58
700.403	334.11
700.81	268.58
701.216	306.03
701.623	343.47
702.029	364.54
702.435	359.86
702.842	345.81
703.248	327.09
703.654	350.5
704.06	343.47
704.466	355.18
704.872	320.07
705.278	320.07
705.684	303.68
706.09	387.94
706.496	259.21
706.901	268.58
707.307	291.98
707.712	317.73
708.118	336.45
708.523	308.37
708.929	303.68
709.334	296.66
709.74	277.94
710.145	273.26
710.55	338.79
710.955	303.68
711.36	299
711.765	313.05
712.17	366.88
712.575	329.43
712.98	884.14
713.385	310.71
713.789	275.6
714.194	296.66
714.599	362.2
715.003	331.77
715.408	287.3
715.812	289.64
716.217	331.77
716.621	369.22
717.025	322.41
717.429	261.55
717.833	249.85
718.238	266.24
718.642	350.5
719.046	378.58
719.449	296.66
719.853	345.81
720.257	289.64
720.661	322.41
721.065	313.05
721.468	336.45
721.872	366.88
722.275	301.34
722.679	350.5
723.082	308.37
723.485	287.3
723.889	348.15
724.292	235.81
724.695	294.32
725.098	357.52
725.501	280.28
725.904	259.21
726.307	287.3
726.71	308.37
727.113	320.07
727.516	277.94
727.918	336.45
728.321	289.64
728.724	287.3
729.126	277.94
729.529	317.73
729.931	324.75
730.333	301.34
730.736	359.86
731.138	359.86
731.54	334.11
731.942	308.37
732.344	362.2
732.746	322.41
733.148	364.54
733.55	252.19
733.952	320.07
734.354	317.73
734.756	317.73
735.157	296.66
735.559	310.71
735.96	306.03
736.362	301.34
736.763	310.71
737.165	373.9
737.566	291.98
737.967	350.5
738.368	320.07
738.77	282.62
739.171	324.75
739.572	240.49
739.973	299
740.374	315.39
740.774	334.11
741.175	411.35
741.576	261.55
741.977	282.62
742.377	266.24
742.778	284.96
743.178	282.62
743.579	329.43
743.979	306.03
744.379	355.18
744.78	313.05
745.18	324.75
745.58	348.15
745.98	294.32
746.38	310.71
746.78	313.05
747.18	299
747.58	310.71
747.98	355.18
748.38	277.94
748.779	336.45
749.179	320.07
749.578	310.71
749.978	282.62
750.377	294.32
750.777	259.21
751.176	334.11
751.575	334.11
751.975	310.71
752.374	359.86
752.773	308.37
753.172	373.9
753.571	378.58
753.97	282.62
754.369	327.09
754.768	338.79
755.166	315.39
755.565	387.94
755.964	334.11
756.362	357.52
756.761	315.39
757.159	238.15
757.558	299
757.956	289.64
758.354	343.47
758.753	327.09
759.151	294.32
759.549	343.47
759.947	287.3
760.345	327.09
760.743	343.47
761.141	383.26
761.539	266.24
761.936	270.92
762.334	273.26
762.732	327.09
763.129	329.43
763.527	359.86
763.924	306.03
764.322	343.47
764.719	287.3
765.117	334.11
765.514	299
765.911	327.09
766.308	336.45
766.705	303.68
767.102	336.45
