Data from Al_FLMS009871__1130__16-34-12-694.txt Node

Date: Fri Mar 08 16:34:12 CST 2024
User: pe5414po
Spectrometer: FLMS00987
Trigger mode: 0
Integration Time (sec): 1.000000E-1
Scans to average: 1
Electric dark correction enabled: true
Nonlinearity correction enabled: false
Boxcar width: 0
XAxis mode: Wavelengths
Number of Pixels in Spectrum: 2048
>>>>>Begin Spectral Data<<<<<
188.938	-104.74
189.409	-104.74
189.879	-104.74
190.349	-135.17
190.819	-170.27
191.29	-160.91
191.76	-107.08
192.23	-36.86
192.7	-57.93
193.17	-20.48
193.64	-39.2
194.109	-6.44
194.579	-36.86
195.049	16.97
195.519	12.29
195.988	63.78
196.458	9.95
196.927	98.89
197.397	59.1
197.866	117.61
198.336	87.18
198.805	178.47
199.274	176.13
199.744	201.87
200.213	255.7
200.682	183.15
201.151	141.02
201.62	255.7
202.089	241.66
202.558	215.91
203.027	213.57
203.495	239.32
203.964	281.45
204.433	199.53
204.902	262.73
205.37	251.02
205.839	269.75
206.307	225.28
206.776	328.26
207.244	262.73
207.712	293.15
208.181	302.51
208.649	300.17
209.117	304.85
209.585	276.77
210.053	290.81
210.521	304.85
210.989	229.96
211.457	302.51
211.925	288.47
212.393	229.96
212.861	297.83
213.328	311.88
213.796	276.77
214.264	325.92
214.731	236.98
215.199	255.7
215.666	244
216.133	339.96
216.601	222.94
217.068	262.73
217.535	197.19
218.003	267.41
218.47	192.51
218.937	269.75
219.404	300.17
219.871	300.17
220.338	251.02
220.805	269.75
221.271	307.2
221.738	286.13
222.205	239.32
222.671	279.11
223.138	236.98
223.605	255.7
224.071	279.11
224.538	260.38
225.004	288.47
225.47	244
225.937	309.54
226.403	241.66
226.869	265.07
227.335	251.02
227.801	323.58
228.267	248.68
228.733	274.43
229.199	206.55
229.665	246.34
230.131	227.62
230.597	241.66
231.062	197.19
231.528	178.47
231.994	239.32
232.459	248.68
232.925	213.57
233.39	225.28
233.856	197.19
234.321	232.3
234.786	246.34
235.252	349.32
235.717	262.73
236.182	225.28
236.647	241.66
237.112	248.68
237.577	300.17
238.042	258.04
238.507	290.81
238.972	265.07
239.436	293.15
239.901	206.55
240.366	316.56
240.83	253.36
241.295	229.96
241.76	258.04
242.224	276.77
242.688	227.62
243.153	337.62
243.617	311.88
244.081	255.7
244.545	288.47
245.01	276.77
245.474	248.68
245.938	272.09
246.402	220.6
246.866	293.15
247.33	311.88
247.793	288.47
248.257	314.22
248.721	265.07
249.185	332.94
249.648	309.54
250.112	297.83
250.575	293.15
251.039	229.96
251.502	236.98
251.965	295.49
252.429	283.79
252.892	272.09
253.355	321.24
253.818	356.35
254.281	241.66
254.744	197.19
255.207	272.09
255.67	300.17
256.133	262.73
256.596	307.2
257.059	272.09
257.522	258.04
257.984	248.68
258.447	253.36
258.909	279.11
259.372	351.67
259.834	330.6
260.297	236.98
260.759	290.81
261.221	236.98
261.684	283.79
262.146	290.81
262.608	318.9
263.07	314.22
263.532	337.62
263.994	304.85
264.456	337.62
264.918	304.85
265.38	297.83
265.842	300.17
266.303	279.11
266.765	328.26
267.227	307.2
267.688	321.24
268.15	286.13
268.611	241.66
269.072	286.13
269.534	279.11
269.995	248.68
270.456	236.98
270.918	321.24
271.379	307.2
271.84	316.56
272.301	335.28
272.762	286.13
273.223	272.09
273.684	251.02
274.144	246.34
274.605	311.88
275.066	274.43
275.527	295.49
275.987	335.28
276.448	248.68
276.908	281.45
277.369	234.64
277.829	218.25
278.289	349.32
278.75	288.47
279.21	272.09
279.67	295.49
280.13	267.41
280.59	328.26
281.05	330.6
281.51	267.41
281.97	349.32
282.43	265.07
282.89	192.51
283.35	309.54
283.809	335.28
284.269	281.45
284.729	229.96
285.188	321.24
285.648	300.17
286.107	246.34
286.567	244
287.026	302.51
287.485	281.45
287.944	272.09
288.404	304.85
288.863	328.26
289.322	248.68
289.781	318.9
290.24	183.15
290.699	325.92
291.158	356.35
291.616	251.02
292.075	286.13
292.534	307.2
292.992	288.47
293.451	342.3
293.91	377.41
294.368	293.15
294.827	227.62
295.285	274.43
295.743	288.47
296.202	187.83
296.66	276.77
297.118	295.49
297.576	304.85
298.034	269.75
298.492	225.28
298.95	222.94
299.408	339.96
299.866	349.32
300.324	302.51
300.781	323.58
301.239	335.28
301.697	258.04
302.154	351.67
302.612	290.81
303.069	307.2
303.527	316.56
303.984	321.24
304.441	283.79
304.899	281.45
305.356	260.38
305.813	311.88
306.27	258.04
306.727	253.36
307.184	314.22
307.641	283.79
308.098	314.22
308.555	293.15
309.012	332.94
309.468	274.43
309.925	332.94
310.382	293.15
310.838	290.81
311.295	321.24
311.751	234.64
312.208	344.64
312.664	309.54
313.12	323.58
313.577	239.32
314.033	314.22
314.489	321.24
314.945	328.26
315.401	283.79
315.857	269.75
316.313	293.15
316.769	318.9
317.225	300.17
317.681	262.73
318.136	283.79
318.592	300.17
319.048	346.98
319.503	262.73
319.959	290.81
320.414	309.54
320.869	295.49
321.325	300.17
321.78	258.04
322.235	328.26
322.691	314.22
323.146	311.88
323.601	248.68
324.056	255.7
324.511	272.09
324.966	302.51
325.421	309.54
325.875	321.24
326.33	276.77
326.785	267.41
327.24	318.9
327.694	304.85
328.149	304.85
328.603	297.83
329.058	372.73
329.512	286.13
329.966	269.75
330.421	325.92
330.875	339.96
331.329	297.83
331.783	283.79
332.237	302.51
332.691	330.6
333.145	290.81
333.599	265.07
334.053	356.35
334.507	248.68
334.96	253.36
335.414	323.58
335.868	267.41
336.321	281.45
336.775	255.7
337.228	295.49
337.682	222.94
338.135	307.2
338.588	309.54
339.042	276.77
339.495	325.92
339.948	288.47
340.401	316.56
340.854	300.17
341.307	297.83
341.76	321.24
342.213	400.82
342.666	302.51
343.119	239.32
343.571	269.75
344.024	323.58
344.477	330.6
344.929	323.58
345.382	321.24
345.834	297.83
346.287	279.11
346.739	300.17
347.191	316.56
347.644	365.71
348.096	293.15
348.548	265.07
349	286.13
349.452	325.92
349.904	346.98
350.356	286.13
350.808	337.62
351.26	344.64
351.711	349.32
352.163	281.45
352.615	246.34
353.066	290.81
353.518	297.83
353.969	290.81
354.421	300.17
354.872	323.58
355.324	290.81
355.775	377.41
356.226	351.67
356.677	314.22
357.128	251.02
357.579	384.43
358.03	304.85
358.481	274.43
358.932	265.07
359.383	349.32
359.834	342.3
360.285	288.47
360.735	300.17
361.186	206.55
361.637	290.81
362.087	382.09
362.538	265.07
362.988	314.22
363.438	290.81
363.889	286.13
364.339	288.47
364.789	295.49
365.239	279.11
365.689	286.13
366.139	297.83
366.589	274.43
367.039	293.15
367.489	396.14
367.939	288.47
368.389	330.6
368.839	295.49
369.288	309.54
369.738	244
370.187	236.98
370.637	267.41
371.086	274.43
371.536	318.9
371.985	290.81
372.434	342.3
372.884	283.79
373.333	309.54
373.782	281.45
374.231	323.58
374.68	330.6
375.129	314.22
375.578	276.77
376.027	295.49
376.475	274.43
376.924	234.64
377.373	283.79
377.822	255.7
378.27	316.56
378.719	309.54
379.167	375.07
379.616	351.67
380.064	309.54
380.512	339.96
380.961	286.13
381.409	286.13
381.857	274.43
382.305	337.62
382.753	323.58
383.201	316.56
383.649	339.96
384.097	290.81
384.545	323.58
384.992	339.96
385.44	363.37
385.888	356.35
386.335	346.98
386.783	358.69
387.231	318.9
387.678	288.47
388.125	403.16
388.573	314.22
389.02	304.85
389.467	258.04
389.914	307.2
390.362	295.49
390.809	316.56
391.256	330.6
391.703	325.92
392.15	283.79
392.596	316.56
393.043	283.79
393.49	295.49
393.937	302.51
394.383	323.58
394.83	307.2
395.276	272.09
395.723	236.98
396.169	323.58
396.616	368.05
397.062	363.37
397.508	346.98
397.954	361.03
398.401	311.88
398.847	267.41
399.293	302.51
399.739	286.13
400.185	260.38
400.631	286.13
401.076	311.88
401.522	332.94
401.968	330.6
402.414	255.7
402.859	311.88
403.305	290.81
403.75	358.69
404.196	318.9
404.641	332.94
405.086	286.13
405.532	337.62
405.977	323.58
406.422	248.68
406.867	405.5
407.312	293.15
407.757	272.09
408.202	311.88
408.647	302.51
409.092	244
409.537	318.9
409.982	304.85
410.426	328.26
410.871	300.17
411.316	351.67
411.76	356.35
412.205	316.56
412.649	300.17
413.093	332.94
413.538	288.47
413.982	295.49
414.426	293.15
414.87	346.98
415.314	372.73
415.758	307.2
416.202	279.11
416.646	304.85
417.09	318.9
417.534	293.15
417.978	297.83
418.421	325.92
418.865	316.56
419.309	258.04
419.752	281.45
420.196	307.2
420.639	382.09
421.083	297.83
421.526	325.92
421.969	309.54
422.412	302.51
422.856	368.05
423.299	297.83
423.742	302.51
424.185	337.62
424.628	290.81
425.071	351.67
425.513	293.15
425.956	290.81
426.399	361.03
426.842	309.54
427.284	302.51
427.727	323.58
428.169	300.17
428.612	330.6
429.054	304.85
429.497	262.73
429.939	260.38
430.381	351.67
430.823	262.73
431.265	241.66
431.707	346.98
432.149	358.69
432.591	330.6
433.033	290.81
433.475	232.3
433.917	332.94
434.359	309.54
434.8	300.17
435.242	379.75
435.684	269.75
436.125	297.83
436.567	286.13
437.008	276.77
437.449	316.56
437.891	307.2
438.332	269.75
438.773	297.83
439.214	344.64
439.656	293.15
440.097	335.28
440.538	307.2
440.978	335.28
441.419	293.15
441.86	295.49
442.301	302.51
442.742	279.11
443.182	311.88
443.623	328.26
444.063	354.01
444.504	300.17
444.944	344.64
445.385	346.98
445.825	300.17
446.265	279.11
446.706	304.85
447.146	307.2
447.586	314.22
448.026	314.22
448.466	325.92
448.906	279.11
449.346	293.15
449.786	279.11
450.225	335.28
450.665	377.41
451.105	321.24
451.544	332.94
451.984	265.07
452.424	321.24
452.863	356.35
453.302	304.85
453.742	354.01
454.181	351.67
454.62	346.98
455.059	346.98
455.499	297.83
455.938	269.75
456.377	377.41
456.816	290.81
457.254	370.39
457.693	372.73
458.132	279.11
458.571	286.13
459.01	262.73
459.448	344.64
459.887	344.64
460.325	260.38
460.764	358.69
461.202	370.39
461.641	372.73
462.079	307.2
462.517	321.24
462.955	318.9
463.393	302.51
463.832	311.88
464.27	349.32
464.708	281.45
465.145	361.03
465.583	309.54
466.021	342.3
466.459	309.54
466.897	286.13
467.334	311.88
467.772	393.8
468.209	307.2
468.647	337.62
469.084	325.92
469.522	342.3
469.959	328.26
470.396	283.79
470.833	295.49
471.271	279.11
471.708	293.15
472.145	356.35
472.582	375.07
473.019	330.6
473.456	316.56
473.892	267.41
474.329	332.94
474.766	356.35
475.202	295.49
475.639	330.6
476.076	330.6
476.512	302.51
476.949	346.98
477.385	335.28
477.821	314.22
478.258	304.85
478.694	290.81
479.13	314.22
479.566	316.56
480.002	293.15
480.438	325.92
480.874	309.54
481.31	288.47
481.746	330.6
482.181	300.17
482.617	354.01
483.053	290.81
483.488	358.69
483.924	346.98
484.36	272.09
484.795	344.64
485.23	272.09
485.666	239.32
486.101	356.35
486.536	295.49
486.971	330.6
487.407	290.81
487.842	302.51
488.277	346.98
488.712	222.94
489.146	295.49
489.581	332.94
490.016	323.58
490.451	300.17
490.885	321.24
491.32	349.32
491.755	279.11
492.189	335.28
492.624	361.03
493.058	332.94
493.492	365.71
493.927	297.83
494.361	330.6
494.795	297.83
495.229	349.32
495.663	365.71
496.097	274.43
496.531	337.62
496.965	297.83
497.399	309.54
497.833	332.94
498.266	365.71
498.7	262.73
499.134	321.24
499.567	286.13
500.001	283.79
500.434	309.54
500.868	253.36
501.301	365.71
501.734	293.15
502.168	281.45
502.601	323.58
503.034	318.9
503.467	314.22
503.9	337.62
504.333	309.54
504.766	274.43
505.199	304.85
505.632	274.43
506.064	323.58
506.497	328.26
506.93	276.77
507.362	302.51
507.795	244
508.227	297.83
508.66	300.17
509.092	311.88
509.524	276.77
509.956	351.67
510.389	236.98
510.821	286.13
511.253	323.58
511.685	354.01
512.117	358.69
512.549	323.58
512.981	330.6
513.412	330.6
513.844	297.83
514.276	318.9
514.707	377.41
515.139	295.49
515.571	356.35
516.002	330.6
516.433	337.62
516.865	328.26
517.296	325.92
517.727	314.22
518.159	332.94
518.59	304.85
519.021	314.22
519.452	321.24
519.883	344.64
520.314	269.75
520.744	325.92
521.175	368.05
521.606	309.54
522.037	307.2
522.467	330.6
522.898	344.64
523.328	267.41
523.759	323.58
524.189	316.56
524.62	276.77
525.05	335.28
525.48	297.83
525.91	321.24
526.341	344.64
526.771	330.6
527.201	293.15
527.631	311.88
528.061	332.94
528.49	279.11
528.92	318.9
529.35	332.94
529.78	304.85
530.209	293.15
530.639	274.43
531.068	346.98
531.498	269.75
531.927	307.2
532.357	356.35
532.786	314.22
533.215	337.62
533.644	344.64
534.074	410.18
534.503	267.41
534.932	344.64
535.361	337.62
535.79	307.2
536.218	339.96
536.647	297.83
537.076	386.77
537.505	393.8
537.933	339.96
538.362	304.85
538.79	325.92
539.219	361.03
539.647	286.13
540.076	318.9
540.504	330.6
540.932	330.6
541.36	330.6
541.788	354.01
542.217	286.13
542.645	281.45
543.073	346.98
543.5	361.03
543.928	358.69
544.356	325.92
544.784	253.36
545.211	267.41
545.639	302.51
546.067	393.8
546.494	330.6
546.922	342.3
547.349	349.32
547.776	309.54
548.204	328.26
548.631	318.9
549.058	269.75
549.485	337.62
549.912	346.98
550.339	272.09
550.766	267.41
551.193	302.51
551.62	309.54
552.047	361.03
552.474	309.54
552.9	316.56
553.327	332.94
553.754	290.81
554.18	265.07
554.607	300.17
555.033	358.69
555.459	297.83
555.886	375.07
556.312	337.62
556.738	295.49
557.164	286.13
557.59	274.43
558.016	332.94
558.442	393.8
558.868	307.2
559.294	316.56
559.72	309.54
560.145	236.98
560.571	267.41
560.997	307.2
561.422	335.28
561.848	314.22
562.273	337.62
562.699	260.38
563.124	325.92
563.549	283.79
563.974	330.6
564.4	370.39
564.825	283.79
565.25	307.2
565.675	314.22
566.1	248.68
566.525	283.79
566.95	323.58
567.374	307.2
567.799	274.43
568.224	255.7
568.648	398.48
569.073	241.66
569.497	293.15
569.922	286.13
570.346	300.17
570.771	339.96
571.195	400.82
571.619	375.07
572.043	288.47
572.467	276.77
572.891	304.85
573.315	302.51
573.739	220.6
574.163	316.56
574.587	321.24
575.011	297.83
575.435	346.98
575.858	293.15
576.282	279.11
576.705	295.49
577.129	325.92
577.552	328.26
577.976	248.68
578.399	349.32
578.822	363.37
579.245	363.37
579.669	290.81
580.092	269.75
580.515	267.41
580.938	382.09
581.361	302.51
581.784	239.32
582.206	330.6
582.629	293.15
583.052	297.83
583.474	314.22
583.897	316.56
584.32	267.41
584.742	262.73
585.165	260.38
585.587	316.56
586.009	283.79
586.431	265.07
586.854	309.54
587.276	288.47
587.698	330.6
588.12	328.26
588.542	314.22
588.964	286.13
589.386	288.47
589.807	361.03
590.229	281.45
590.651	321.24
591.073	335.28
591.494	293.15
591.916	288.47
592.337	286.13
592.759	309.54
593.18	274.43
593.601	351.67
594.022	339.96
594.444	269.75
594.865	332.94
595.286	351.67
595.707	396.14
596.128	290.81
596.549	311.88
596.97	354.01
597.39	279.11
597.811	276.77
598.232	337.62
598.652	346.98
599.073	316.56
599.494	339.96
599.914	330.6
600.334	332.94
600.755	351.67
601.175	302.51
601.595	332.94
602.015	295.49
602.436	265.07
602.856	447.63
603.276	314.22
603.696	330.6
604.115	307.2
604.535	262.73
604.955	274.43
605.375	274.43
605.794	281.45
606.214	311.88
606.634	309.54
607.053	253.36
607.473	309.54
607.892	290.81
608.311	267.41
608.731	370.39
609.15	314.22
609.569	295.49
609.988	300.17
610.407	325.92
610.826	344.64
611.245	316.56
611.664	307.2
612.083	342.3
612.501	269.75
612.92	288.47
613.339	279.11
613.757	218.25
614.176	325.92
614.594	265.07
615.013	335.28
615.431	325.92
615.85	323.58
616.268	222.94
616.686	332.94
617.104	297.83
617.522	255.7
617.94	255.7
618.358	293.15
618.776	325.92
619.194	358.69
619.612	342.3
620.03	323.58
620.447	309.54
620.865	251.02
621.282	370.39
621.7	297.83
622.117	297.83
622.535	323.58
622.952	377.41
623.369	307.2
623.787	321.24
624.204	330.6
624.621	325.92
625.038	346.98
625.455	297.83
625.872	314.22
626.289	332.94
626.706	311.88
627.123	318.9
627.539	302.51
627.956	302.51
628.373	307.2
628.789	309.54
629.206	332.94
629.622	361.03
630.038	323.58
630.455	307.2
630.871	309.54
631.287	297.83
631.703	325.92
632.12	311.88
632.536	307.2
632.952	318.9
633.368	288.47
633.783	325.92
634.199	304.85
634.615	386.77
635.031	342.3
635.446	302.51
635.862	330.6
636.277	339.96
636.693	300.17
637.108	269.75
637.524	300.17
637.939	276.77
638.354	328.26
638.77	332.94
639.185	330.6
639.6	276.77
640.015	330.6
640.43	295.49
640.845	307.2
641.259	323.58
641.674	232.3
642.089	375.07
642.504	302.51
642.918	288.47
643.333	311.88
643.747	293.15
644.162	267.41
644.576	309.54
644.991	344.64
645.405	337.62
645.819	304.85
646.233	302.51
646.647	351.67
647.061	302.51
647.475	300.17
647.889	283.79
648.303	234.64
648.717	274.43
649.131	300.17
649.545	272.09
649.958	323.58
650.372	346.98
650.785	323.58
651.199	346.98
651.612	281.45
652.026	297.83
652.439	276.77
652.852	335.28
653.266	379.75
653.679	314.22
654.092	321.24
654.505	302.51
654.918	311.88
655.331	302.51
655.744	302.51
656.156	262.73
656.569	323.58
656.982	300.17
657.394	304.85
657.807	295.49
658.22	389.11
658.632	363.37
659.044	290.81
659.457	363.37
659.869	208.89
660.281	368.05
660.693	363.37
661.106	323.58
661.518	283.79
661.93	365.71
662.342	276.77
662.754	335.28
663.165	321.24
663.577	225.28
663.989	328.26
664.401	307.2
664.812	354.01
665.224	351.67
665.635	253.36
666.047	295.49
666.458	274.43
666.869	279.11
667.281	330.6
667.692	351.67
668.103	311.88
668.514	323.58
668.925	311.88
669.336	351.67
669.747	213.57
670.158	309.54
670.569	297.83
670.979	272.09
671.39	335.28
671.801	358.69
672.211	276.77
672.622	321.24
673.032	318.9
673.443	283.79
673.853	365.71
674.263	349.32
674.674	337.62
675.084	351.67
675.494	300.17
675.904	300.17
676.314	328.26
676.724	253.36
677.134	274.43
677.544	328.26
677.953	300.17
678.363	337.62
678.773	323.58
679.182	342.3
679.592	276.77
680.001	318.9
680.411	337.62
680.82	293.15
681.23	255.7
681.639	283.79
682.048	276.77
682.457	281.45
682.866	295.49
683.275	304.85
683.684	314.22
684.093	283.79
684.502	361.03
684.911	335.28
685.32	349.32
685.728	307.2
686.137	314.22
686.546	269.75
686.954	279.11
687.363	389.11
687.771	293.15
688.179	293.15
688.588	339.96
688.996	265.07
689.404	311.88
689.812	365.71
690.22	342.3
690.628	276.77
691.036	328.26
691.444	361.03
691.852	309.54
692.26	307.2
692.667	311.88
693.075	318.9
693.483	335.28
693.89	351.67
694.298	325.92
694.705	332.94
695.112	295.49
695.52	283.79
695.927	297.83
696.334	307.2
696.741	302.51
697.148	265.07
697.555	300.17
697.962	325.92
698.369	335.28
698.776	342.3
699.183	328.26
699.59	272.09
699.996	335.28
700.403	316.56
700.81	311.88
701.216	346.98
701.623	318.9
702.029	316.56
702.435	344.64
702.842	309.54
703.248	281.45
703.654	314.22
704.06	354.01
704.466	293.15
704.872	332.94
705.278	342.3
705.684	363.37
706.09	339.96
706.496	365.71
706.901	321.24
707.307	302.51
707.712	283.79
708.118	337.62
708.523	300.17
708.929	304.85
709.334	290.81
709.74	323.58
710.145	318.9
710.55	346.98
710.955	339.96
711.36	328.26
711.765	260.38
712.17	234.64
712.575	295.49
712.98	787.01
713.385	286.13
713.789	316.56
714.194	332.94
714.599	321.24
715.003	272.09
715.408	330.6
715.812	283.79
716.217	316.56
716.621	276.77
717.025	314.22
717.429	314.22
717.833	281.45
718.238	260.38
718.642	339.96
719.046	349.32
719.449	279.11
719.853	290.81
720.257	344.64
720.661	300.17
721.065	351.67
721.468	311.88
721.872	309.54
722.275	368.05
722.679	304.85
723.082	330.6
723.485	281.45
723.889	309.54
724.292	346.98
724.695	344.64
725.098	290.81
725.501	309.54
725.904	318.9
726.307	295.49
726.71	293.15
727.113	267.41
727.516	290.81
727.918	304.85
728.321	279.11
728.724	323.58
729.126	311.88
729.529	309.54
729.931	358.69
730.333	339.96
730.736	288.47
731.138	318.9
731.54	290.81
731.942	276.77
732.344	332.94
732.746	302.51
733.148	323.58
733.55	300.17
733.952	316.56
734.354	307.2
734.756	281.45
735.157	302.51
735.559	267.41
735.96	302.51
736.362	339.96
736.763	356.35
737.165	351.67
737.566	274.43
737.967	318.9
738.368	262.73
738.77	365.71
739.171	279.11
739.572	346.98
739.973	314.22
740.374	248.68
740.774	361.03
741.175	311.88
741.576	267.41
741.977	260.38
742.377	283.79
742.778	330.6
743.178	361.03
743.579	325.92
743.979	321.24
744.379	267.41
744.78	295.49
745.18	325.92
745.58	218.25
745.98	272.09
746.38	251.02
746.78	279.11
747.18	265.07
747.58	276.77
747.98	281.45
748.38	288.47
748.779	321.24
749.179	314.22
749.578	311.88
749.978	328.26
750.377	307.2
750.777	314.22
751.176	297.83
751.575	337.62
751.975	276.77
752.374	330.6
752.773	335.28
753.172	354.01
753.571	314.22
753.97	321.24
754.369	309.54
754.768	358.69
755.166	279.11
755.565	293.15
755.964	258.04
756.362	304.85
756.761	262.73
757.159	283.79
757.558	356.35
757.956	321.24
758.354	330.6
758.753	332.94
759.151	248.68
759.549	337.62
759.947	318.9
760.345	318.9
760.743	344.64
761.141	349.32
761.539	281.45
761.936	361.03
762.334	356.35
762.732	274.43
763.129	328.26
763.527	300.17
763.924	386.77
764.322	258.04
764.719	290.81
765.117	351.67
765.514	295.49
