Data from Al_FLMS009871__451__14-30-12-040.txt Node

Date: Fri Mar 08 14:30:12 CST 2024
User: pe5414po
Spectrometer: FLMS00987
Trigger mode: 0
Integration Time (sec): 1.000000E-1
Scans to average: 1
Electric dark correction enabled: true
Nonlinearity correction enabled: false
Boxcar width: 0
XAxis mode: Wavelengths
Number of Pixels in Spectrum: 2048
>>>>>Begin Spectral Data<<<<<
188.938	-125.8
189.409	-125.8
189.879	-125.8
190.349	-90.7
190.819	-107.08
191.29	-109.42
191.76	-118.78
192.23	-95.38
192.7	-97.72
193.17	-43.89
193.64	-55.59
194.109	-27.5
194.579	-29.84
195.049	-20.48
195.519	19.31
195.988	66.12
196.458	108.25
196.927	110.59
197.397	45.06
197.866	89.53
198.336	159.74
198.805	171.44
199.274	143.36
199.744	232.3
200.213	190.17
200.682	225.28
201.151	229.96
201.62	244
202.089	194.85
202.558	267.41
203.027	244
203.495	260.38
203.964	318.9
204.433	236.98
204.902	236.98
205.37	281.45
205.839	307.2
206.307	318.9
206.776	342.3
207.244	328.26
207.712	290.81
208.181	279.11
208.649	300.17
209.117	302.51
209.585	318.9
210.053	318.9
210.521	260.38
210.989	286.13
211.457	314.22
211.925	229.96
212.393	309.54
212.861	269.75
213.328	269.75
213.796	325.92
214.264	358.69
214.731	201.87
215.199	283.79
215.666	260.38
216.133	274.43
216.601	201.87
217.068	293.15
217.535	318.9
218.003	232.3
218.47	323.58
218.937	297.83
219.404	276.77
219.871	234.64
220.338	279.11
220.805	227.62
221.271	227.62
221.738	246.34
222.205	332.94
222.671	265.07
223.138	239.32
223.605	201.87
224.071	262.73
224.538	321.24
225.004	192.51
225.47	265.07
225.937	265.07
226.403	328.26
226.869	253.36
227.335	302.51
227.801	258.04
228.267	229.96
228.733	290.81
229.199	300.17
229.665	304.85
230.131	311.88
230.597	269.75
231.062	262.73
231.528	239.32
231.994	283.79
232.459	234.64
232.925	279.11
233.39	281.45
233.856	269.75
234.321	258.04
234.786	309.54
235.252	279.11
235.717	286.13
236.182	260.38
236.647	236.98
237.112	258.04
237.577	307.2
238.042	293.15
238.507	302.51
238.972	267.41
239.436	358.69
239.901	260.38
240.366	286.13
240.83	281.45
241.295	283.79
241.76	318.9
242.224	321.24
242.688	269.75
243.153	304.85
243.617	314.22
244.081	281.45
244.545	304.85
245.01	251.02
245.474	269.75
245.938	307.2
246.402	244
246.866	274.43
247.33	222.94
247.793	297.83
248.257	288.47
248.721	300.17
249.185	258.04
249.648	232.3
250.112	283.79
250.575	251.02
251.039	258.04
251.502	283.79
251.965	274.43
252.429	248.68
252.892	339.96
253.355	293.15
253.818	365.71
254.281	281.45
254.744	251.02
255.207	248.68
255.67	272.09
256.133	286.13
256.596	309.54
257.059	265.07
257.522	269.75
257.984	290.81
258.447	255.7
258.909	309.54
259.372	304.85
259.834	297.83
260.297	323.58
260.759	295.49
261.221	314.22
261.684	288.47
262.146	339.96
262.608	269.75
263.07	325.92
263.532	354.01
263.994	311.88
264.456	332.94
264.918	311.88
265.38	283.79
265.842	307.2
266.303	276.77
266.765	377.41
267.227	314.22
267.688	239.32
268.15	269.75
268.611	279.11
269.072	225.28
269.534	283.79
269.995	283.79
270.456	293.15
270.918	316.56
271.379	276.77
271.84	304.85
272.301	300.17
272.762	295.49
273.223	260.38
273.684	311.88
274.144	330.6
274.605	323.58
275.066	293.15
275.527	222.94
275.987	304.85
276.448	309.54
276.908	260.38
277.369	276.77
277.829	251.02
278.289	293.15
278.75	267.41
279.21	274.43
279.67	321.24
280.13	283.79
280.59	267.41
281.05	293.15
281.51	253.36
281.97	300.17
282.43	375.07
282.89	316.56
283.35	258.04
283.809	304.85
284.269	281.45
284.729	314.22
285.188	307.2
285.648	321.24
286.107	354.01
286.567	332.94
287.026	344.64
287.485	241.66
287.944	328.26
288.404	321.24
288.863	307.2
289.322	302.51
289.781	316.56
290.24	300.17
290.699	290.81
291.158	297.83
291.616	314.22
292.075	274.43
292.534	351.67
292.992	309.54
293.451	246.34
293.91	311.88
294.368	309.54
294.827	269.75
295.285	342.3
295.743	304.85
296.202	258.04
296.66	332.94
297.118	265.07
297.576	297.83
298.034	302.51
298.492	293.15
298.95	335.28
299.408	314.22
299.866	321.24
300.324	290.81
300.781	295.49
301.239	354.01
301.697	349.32
302.154	286.13
302.612	295.49
303.069	311.88
303.527	325.92
303.984	300.17
304.441	297.83
304.899	321.24
305.356	244
305.813	311.88
306.27	323.58
306.727	307.2
307.184	318.9
307.641	332.94
308.098	318.9
308.555	325.92
309.012	288.47
309.468	318.9
309.925	316.56
310.382	215.91
310.838	307.2
311.295	368.05
311.751	295.49
312.208	279.11
312.664	276.77
313.12	325.92
313.577	323.58
314.033	283.79
314.489	321.24
314.945	302.51
315.401	325.92
315.857	358.69
316.313	281.45
316.769	337.62
317.225	314.22
317.681	335.28
318.136	318.9
318.592	272.09
319.048	314.22
319.503	297.83
319.959	344.64
320.414	318.9
320.869	403.16
321.325	293.15
321.78	293.15
322.235	260.38
322.691	262.73
323.146	314.22
323.601	314.22
324.056	318.9
324.511	321.24
324.966	262.73
325.421	358.69
325.875	251.02
326.33	267.41
326.785	384.43
327.24	244
327.694	272.09
328.149	335.28
328.603	302.51
329.058	267.41
329.512	290.81
329.966	290.81
330.421	246.34
330.875	318.9
331.329	283.79
331.783	314.22
332.237	337.62
332.691	286.13
333.145	356.35
333.599	295.49
334.053	325.92
334.507	262.73
334.96	321.24
335.414	323.58
335.868	321.24
336.321	302.51
336.775	314.22
337.228	272.09
337.682	255.7
338.135	225.28
338.588	332.94
339.042	386.77
339.495	403.16
339.948	304.85
340.401	328.26
340.854	307.2
341.307	304.85
341.76	309.54
342.213	288.47
342.666	318.9
343.119	302.51
343.571	293.15
344.024	314.22
344.477	288.47
344.929	393.8
345.382	304.85
345.834	286.13
346.287	354.01
346.739	260.38
347.191	286.13
347.644	297.83
348.096	330.6
348.548	265.07
349	288.47
349.452	316.56
349.904	372.73
350.356	323.58
350.808	328.26
351.26	335.28
351.711	344.64
352.163	372.73
352.615	293.15
353.066	361.03
353.518	293.15
353.969	339.96
354.421	302.51
354.872	323.58
355.324	269.75
355.775	323.58
356.226	365.71
356.677	351.67
357.128	288.47
357.579	279.11
358.03	339.96
358.481	318.9
358.932	269.75
359.383	180.81
359.834	302.51
360.285	304.85
360.735	356.35
361.186	316.56
361.637	267.41
362.087	318.9
362.538	330.6
362.988	323.58
363.438	302.51
363.889	316.56
364.339	244
364.789	234.64
365.239	293.15
365.689	365.71
366.139	274.43
366.589	332.94
367.039	248.68
367.489	328.26
367.939	300.17
368.389	328.26
368.839	269.75
369.288	279.11
369.738	342.3
370.187	220.6
370.637	304.85
371.086	302.51
371.536	279.11
371.985	335.28
372.434	396.14
372.884	297.83
373.333	370.39
373.782	302.51
374.231	396.14
374.68	295.49
375.129	265.07
375.578	335.28
376.027	351.67
376.475	300.17
376.924	274.43
377.373	286.13
377.822	265.07
378.27	330.6
378.719	318.9
379.167	318.9
379.616	349.32
380.064	286.13
380.512	332.94
380.961	309.54
381.409	332.94
381.857	276.77
382.305	288.47
382.753	316.56
383.201	295.49
383.649	325.92
384.097	321.24
384.545	307.2
384.992	325.92
385.44	293.15
385.888	344.64
386.335	267.41
386.783	349.32
387.231	316.56
387.678	267.41
388.125	382.09
388.573	311.88
389.02	258.04
389.467	297.83
389.914	236.98
390.362	358.69
390.809	370.39
391.256	269.75
391.703	316.56
392.15	328.26
392.596	267.41
393.043	297.83
393.49	297.83
393.937	283.79
394.383	304.85
394.83	344.64
395.276	325.92
395.723	288.47
396.169	342.3
396.616	335.28
397.062	354.01
397.508	316.56
397.954	368.05
398.401	293.15
398.847	335.28
399.293	288.47
399.739	297.83
400.185	337.62
400.631	248.68
401.076	293.15
401.522	283.79
401.968	293.15
402.414	267.41
402.859	316.56
403.305	272.09
403.75	309.54
404.196	304.85
404.641	335.28
405.086	255.7
405.532	286.13
405.977	295.49
406.422	325.92
406.867	297.83
407.312	286.13
407.757	321.24
408.202	302.51
408.647	335.28
409.092	302.51
409.537	311.88
409.982	281.45
410.426	258.04
410.871	405.5
411.316	295.49
411.76	365.71
412.205	309.54
412.649	311.88
413.093	351.67
413.538	368.05
413.982	332.94
414.426	300.17
414.87	304.85
415.314	363.37
415.758	295.49
416.202	339.96
416.646	332.94
417.09	307.2
417.534	349.32
417.978	321.24
418.421	276.77
418.865	344.64
419.309	325.92
419.752	281.45
420.196	318.9
420.639	325.92
421.083	283.79
421.526	265.07
421.969	332.94
422.412	318.9
422.856	330.6
423.299	342.3
423.742	281.45
424.185	321.24
424.628	318.9
425.071	286.13
425.513	293.15
425.956	337.62
426.399	286.13
426.842	286.13
427.284	307.2
427.727	300.17
428.169	351.67
428.612	302.51
429.054	265.07
429.497	311.88
429.939	346.98
430.381	297.83
430.823	295.49
431.265	379.75
431.707	323.58
432.149	351.67
432.591	335.28
433.033	325.92
433.475	335.28
433.917	354.01
434.359	274.43
434.8	302.51
435.242	297.83
435.684	325.92
436.125	372.73
436.567	272.09
437.008	244
437.449	311.88
437.891	335.28
438.332	377.41
438.773	286.13
439.214	300.17
439.656	304.85
440.097	339.96
440.538	337.62
440.978	339.96
441.419	239.32
441.86	325.92
442.301	323.58
442.742	314.22
443.182	332.94
443.623	316.56
444.063	377.41
444.504	311.88
444.944	307.2
445.385	349.32
445.825	339.96
446.265	309.54
446.706	309.54
447.146	330.6
447.586	337.62
448.026	295.49
448.466	290.81
448.906	384.43
449.346	300.17
449.786	309.54
450.225	307.2
450.665	318.9
451.105	328.26
451.544	328.26
451.984	318.9
452.424	325.92
452.863	314.22
453.302	229.96
453.742	300.17
454.181	328.26
454.62	307.2
455.059	335.28
455.499	335.28
455.938	337.62
456.377	351.67
456.816	344.64
457.254	363.37
457.693	311.88
458.132	314.22
458.571	297.83
459.01	321.24
459.448	354.01
459.887	337.62
460.325	279.11
460.764	335.28
461.202	300.17
461.641	288.47
462.079	337.62
462.517	265.07
462.955	293.15
463.393	328.26
463.832	311.88
464.27	286.13
464.708	356.35
465.145	375.07
465.583	328.26
466.021	314.22
466.459	344.64
466.897	356.35
467.334	300.17
467.772	342.3
468.209	325.92
468.647	260.38
469.084	304.85
469.522	318.9
469.959	349.32
470.396	260.38
470.833	232.3
471.271	307.2
471.708	281.45
472.145	342.3
472.582	339.96
473.019	307.2
473.456	335.28
473.892	328.26
474.329	307.2
474.766	361.03
475.202	358.69
475.639	349.32
476.076	328.26
476.512	316.56
476.949	330.6
477.385	295.49
477.821	365.71
478.258	346.98
478.694	372.73
479.13	328.26
479.566	368.05
480.002	361.03
480.438	346.98
480.874	265.07
481.31	281.45
481.746	276.77
482.181	396.14
482.617	300.17
483.053	304.85
483.488	295.49
483.924	325.92
484.36	351.67
484.795	304.85
485.23	330.6
485.666	349.32
486.101	311.88
486.536	372.73
486.971	321.24
487.407	281.45
487.842	332.94
488.277	314.22
488.712	354.01
489.146	379.75
489.581	276.77
490.016	260.38
490.451	307.2
490.885	311.88
491.32	358.69
491.755	251.02
492.189	260.38
492.624	316.56
493.058	309.54
493.492	328.26
493.927	325.92
494.361	325.92
494.795	274.43
495.229	290.81
495.663	244
496.097	302.51
496.531	204.21
496.965	267.41
497.399	370.39
497.833	318.9
498.266	365.71
498.7	316.56
499.134	307.2
499.567	269.75
500.001	361.03
500.434	290.81
500.868	274.43
501.301	307.2
501.734	330.6
502.168	283.79
502.601	290.81
503.034	328.26
503.467	288.47
503.9	290.81
504.333	314.22
504.766	318.9
505.199	337.62
505.632	316.56
506.064	356.35
506.497	396.14
506.93	309.54
507.362	300.17
507.795	321.24
508.227	267.41
508.66	272.09
509.092	272.09
509.524	426.56
509.956	393.8
510.389	302.51
510.821	304.85
511.253	276.77
511.685	354.01
512.117	309.54
512.549	314.22
512.981	358.69
513.412	297.83
513.844	311.88
514.276	365.71
514.707	316.56
515.139	267.41
515.571	325.92
516.002	323.58
516.433	318.9
516.865	307.2
517.296	316.56
517.727	358.69
518.159	316.56
518.59	314.22
519.021	297.83
519.452	260.38
519.883	351.67
520.314	335.28
520.744	293.15
521.175	358.69
521.606	358.69
522.037	335.28
522.467	265.07
522.898	346.98
523.328	365.71
523.759	314.22
524.189	372.73
524.62	337.62
525.05	309.54
525.48	314.22
525.91	321.24
526.341	325.92
526.771	286.13
527.201	276.77
527.631	344.64
528.061	342.3
528.49	283.79
528.92	307.2
529.35	269.75
529.78	316.56
530.209	321.24
530.639	300.17
531.068	330.6
531.498	293.15
531.927	241.66
532.357	351.67
532.786	337.62
533.215	300.17
533.644	365.71
534.074	316.56
534.503	311.88
534.932	295.49
535.361	370.39
535.79	309.54
536.218	344.64
536.647	262.73
537.076	344.64
537.505	325.92
537.933	346.98
538.362	316.56
538.79	286.13
539.219	321.24
539.647	246.34
540.076	290.81
540.504	358.69
540.932	325.92
541.36	365.71
541.788	328.26
542.217	295.49
542.645	365.71
543.073	339.96
543.5	300.17
543.928	323.58
544.356	274.43
544.784	304.85
545.211	314.22
545.639	304.85
546.067	274.43
546.494	337.62
546.922	354.01
547.349	344.64
547.776	297.83
548.204	332.94
548.631	304.85
549.058	283.79
549.485	283.79
549.912	372.73
550.339	368.05
550.766	344.64
551.193	361.03
551.62	286.13
552.047	344.64
552.474	342.3
552.9	321.24
553.327	321.24
553.754	344.64
554.18	302.51
554.607	297.83
555.033	365.71
555.459	281.45
555.886	339.96
556.312	304.85
556.738	293.15
557.164	346.98
557.59	351.67
558.016	332.94
558.442	339.96
558.868	318.9
559.294	295.49
559.72	288.47
560.145	311.88
560.571	332.94
560.997	384.43
561.422	372.73
561.848	335.28
562.273	393.8
562.699	311.88
563.124	314.22
563.549	279.11
563.974	293.15
564.4	272.09
564.825	361.03
565.25	302.51
565.675	321.24
566.1	267.41
566.525	295.49
566.95	325.92
567.374	290.81
567.799	258.04
568.224	311.88
568.648	325.92
569.073	330.6
569.497	323.58
569.922	325.92
570.346	300.17
570.771	255.7
571.195	314.22
571.619	335.28
572.043	339.96
572.467	361.03
572.891	356.35
573.315	325.92
573.739	339.96
574.163	267.41
574.587	279.11
575.011	351.67
575.435	363.37
575.858	318.9
576.282	339.96
576.705	358.69
577.129	316.56
577.552	293.15
577.976	337.62
578.399	412.52
578.822	328.26
579.245	307.2
579.669	314.22
580.092	281.45
580.515	286.13
580.938	281.45
581.361	307.2
581.784	335.28
582.206	309.54
582.629	321.24
583.052	328.26
583.474	321.24
583.897	307.2
584.32	421.88
584.742	314.22
585.165	309.54
585.587	328.26
586.009	311.88
586.431	244
586.854	307.2
587.276	295.49
587.698	290.81
588.12	314.22
588.542	365.71
588.964	321.24
589.386	325.92
589.807	361.03
590.229	293.15
590.651	328.26
591.073	304.85
591.494	325.92
591.916	293.15
592.337	272.09
592.759	248.68
593.18	321.24
593.601	325.92
594.022	356.35
594.444	253.36
594.865	363.37
595.286	300.17
595.707	269.75
596.128	300.17
596.549	346.98
596.97	316.56
597.39	267.41
597.811	283.79
598.232	323.58
598.652	314.22
599.073	330.6
599.494	316.56
599.914	375.07
600.334	325.92
600.755	368.05
601.175	239.32
601.595	302.51
602.015	295.49
602.436	307.2
602.856	384.43
603.276	255.7
603.696	351.67
604.115	363.37
604.535	297.83
604.955	384.43
605.375	318.9
605.794	279.11
606.214	288.47
606.634	339.96
607.053	286.13
607.473	351.67
607.892	288.47
608.311	372.73
608.731	295.49
609.15	283.79
609.569	274.43
609.988	255.7
610.407	311.88
610.826	302.51
611.245	300.17
611.664	304.85
612.083	314.22
612.501	356.35
612.92	351.67
613.339	365.71
613.757	330.6
614.176	339.96
614.594	337.62
615.013	335.28
615.431	365.71
615.85	314.22
616.268	295.49
616.686	314.22
617.104	330.6
617.522	342.3
617.94	288.47
618.358	349.32
618.776	265.07
619.194	272.09
619.612	288.47
620.03	297.83
620.447	295.49
620.865	403.16
621.282	309.54
621.7	269.75
622.117	307.2
622.535	302.51
622.952	314.22
623.369	300.17
623.787	325.92
624.204	311.88
624.621	323.58
625.038	349.32
625.455	332.94
625.872	321.24
626.289	234.64
626.706	325.92
627.123	295.49
627.539	307.2
627.956	346.98
628.373	356.35
628.789	339.96
629.206	396.14
629.622	311.88
630.038	375.07
630.455	281.45
630.871	276.77
631.287	365.71
631.703	286.13
632.12	351.67
632.536	337.62
632.952	330.6
633.368	337.62
633.783	358.69
634.199	265.07
634.615	328.26
635.031	337.62
635.446	323.58
635.862	332.94
636.277	346.98
636.693	300.17
637.108	328.26
637.524	339.96
637.939	358.69
638.354	286.13
638.77	304.85
639.185	323.58
639.6	361.03
640.015	281.45
640.43	354.01
640.845	358.69
641.259	363.37
641.674	288.47
642.089	318.9
642.504	349.32
642.918	295.49
643.333	307.2
643.747	251.02
644.162	314.22
644.576	318.9
644.991	311.88
645.405	363.37
645.819	377.41
646.233	330.6
646.647	276.77
647.061	258.04
647.475	302.51
647.889	346.98
648.303	300.17
648.717	316.56
649.131	311.88
649.545	276.77
649.958	337.62
650.372	356.35
650.785	325.92
651.199	314.22
651.612	265.07
652.026	286.13
652.439	346.98
652.852	330.6
653.266	260.38
653.679	300.17
654.092	330.6
654.505	323.58
654.918	332.94
655.331	316.56
655.744	286.13
656.156	365.71
656.569	382.09
656.982	311.88
657.394	246.34
657.807	358.69
658.22	276.77
658.632	302.51
659.044	309.54
659.457	295.49
659.869	314.22
660.281	283.79
660.693	332.94
661.106	304.85
661.518	274.43
661.93	335.28
662.342	314.22
662.754	279.11
663.165	288.47
663.577	323.58
663.989	358.69
664.401	339.96
664.812	354.01
665.224	293.15
665.635	316.56
666.047	309.54
666.458	332.94
666.869	293.15
667.281	384.43
667.692	382.09
668.103	379.75
668.514	325.92
668.925	290.81
669.336	351.67
669.747	307.2
670.158	372.73
670.569	316.56
670.979	267.41
671.39	297.83
671.801	302.51
672.211	410.18
672.622	316.56
673.032	311.88
673.443	321.24
673.853	342.3
674.263	307.2
674.674	227.62
675.084	300.17
675.494	346.98
675.904	349.32
676.314	372.73
676.724	258.04
677.134	290.81
677.544	309.54
677.953	318.9
678.363	363.37
678.773	325.92
679.182	290.81
679.592	332.94
680.001	304.85
680.411	344.64
680.82	339.96
681.23	295.49
681.639	316.56
682.048	354.01
682.457	321.24
682.866	286.13
683.275	302.51
683.684	344.64
684.093	302.51
684.502	309.54
684.911	269.75
685.32	281.45
685.728	302.51
686.137	267.41
686.546	290.81
686.954	311.88
687.363	328.26
687.771	290.81
688.179	297.83
688.588	332.94
688.996	332.94
689.404	290.81
689.812	356.35
690.22	297.83
690.628	316.56
691.036	368.05
691.444	309.54
691.852	304.85
692.26	339.96
692.667	339.96
693.075	346.98
693.483	379.75
693.89	325.92
694.298	361.03
694.705	351.67
695.112	304.85
695.52	307.2
695.927	344.64
696.334	339.96
696.741	354.01
697.148	274.43
697.555	302.51
697.962	302.51
698.369	253.36
698.776	274.43
699.183	295.49
699.59	290.81
699.996	314.22
700.403	253.36
700.81	304.85
701.216	260.38
701.623	286.13
702.029	246.34
702.435	272.09
702.842	386.77
703.248	293.15
703.654	251.02
704.06	351.67
704.466	332.94
704.872	248.68
705.278	346.98
705.684	316.56
706.09	283.79
706.496	288.47
706.901	377.41
707.307	295.49
707.712	335.28
708.118	346.98
708.523	344.64
708.929	300.17
709.334	330.6
709.74	321.24
710.145	323.58
710.55	311.88
710.955	309.54
711.36	309.54
711.765	309.54
712.17	335.28
712.575	375.07
712.98	974.25
713.385	384.43
713.789	229.96
714.194	311.88
714.599	314.22
715.003	328.26
715.408	346.98
715.812	293.15
716.217	328.26
716.621	241.66
717.025	351.67
717.429	361.03
717.833	309.54
718.238	332.94
718.642	339.96
719.046	358.69
719.449	307.2
719.853	276.77
720.257	339.96
720.661	267.41
721.065	300.17
721.468	354.01
721.872	251.02
722.275	300.17
722.679	255.7
723.082	332.94
723.485	227.62
723.889	283.79
724.292	323.58
724.695	337.62
725.098	335.28
725.501	309.54
725.904	365.71
726.307	293.15
726.71	290.81
727.113	288.47
727.516	309.54
727.918	304.85
728.321	323.58
728.724	309.54
729.126	344.64
729.529	342.3
729.931	358.69
730.333	274.43
730.736	304.85
731.138	260.38
731.54	349.32
731.942	295.49
732.344	295.49
732.746	325.92
733.148	325.92
733.55	295.49
733.952	386.77
734.354	358.69
734.756	335.28
735.157	302.51
735.559	382.09
735.96	300.17
736.362	332.94
736.763	302.51
737.165	304.85
737.566	354.01
737.967	342.3
738.368	251.02
738.77	304.85
739.171	283.79
739.572	325.92
739.973	283.79
740.374	354.01
740.774	269.75
741.175	342.3
741.576	311.88
741.977	314.22
742.377	288.47
742.778	283.79
743.178	311.88
743.579	304.85
743.979	307.2
744.379	274.43
744.78	328.26
745.18	328.26
745.58	321.24
745.98	321.24
746.38	286.13
746.78	262.73
747.18	314.22
747.58	314.22
747.98	337.62
748.38	307.2
748.779	253.36
749.179	358.69
749.578	279.11
749.978	337.62
750.377	302.51
750.777	323.58
751.176	258.04
751.575	260.38
751.975	328.26
752.374	351.67
752.773	311.88
753.172	288.47
753.571	321.24
753.97	309.54
754.369	363.37
754.768	323.58
755.166	330.6
755.565	267.41
755.964	290.81
756.362	297.83
756.761	325.92
757.159	332.94
757.558	246.34
757.956	370.39
758.354	335.28
758.753	316.56
759.151	297.83
759.549	304.85
759.947	339.96
760.345	311.88
760.743	321.24
761.141	335.28
761.539	349.32
761.936	346.98
762.334	244
762.732	351.67
763.129	391.45
763.527	309.54
763.924	342.3
764.322	314.22
764.719	255.7
765.117	293.15
765.514	314.22
