Data from Al_FLMS009871__447__14-30-11-639.txt Node

Date: Fri Mar 08 14:30:11 CST 2024
User: pe5414po
Spectrometer: FLMS00987
Trigger mode: 0
Integration Time (sec): 1.000000E-1
Scans to average: 1
Electric dark correction enabled: true
Nonlinearity correction enabled: false
Boxcar width: 0
XAxis mode: Wavelengths
Number of Pixels in Spectrum: 2048
>>>>>Begin Spectral Data<<<<<
188.938	-65.83
189.409	-65.83
189.879	-65.83
190.349	-138.38
190.819	-61.15
191.29	-21.36
191.76	-145.41
192.23	-86.89
192.7	-68.17
193.17	-75.19
193.64	-56.47
194.109	-0.29
194.579	-23.7
195.049	-33.06
195.519	-16.68
195.988	20.77
196.458	67.58
196.927	88.65
197.397	65.24
197.866	175.25
198.336	109.71
198.805	105.03
199.274	158.86
199.744	212.7
200.213	182.27
200.682	224.4
201.151	198.65
201.62	278.23
202.089	266.53
202.558	271.21
203.027	320.36
203.495	222.06
203.964	210.36
204.433	313.34
204.902	278.23
205.37	334.4
205.839	289.93
206.307	238.44
206.776	285.25
207.244	266.53
207.712	289.93
208.181	334.4
208.649	243.12
209.117	318.02
209.585	275.89
210.053	292.27
210.521	332.06
210.989	329.72
211.457	268.87
211.925	289.93
212.393	334.4
212.861	327.38
213.328	296.96
213.796	318.02
214.264	296.96
214.731	285.25
215.199	282.91
215.666	308.66
216.133	306.32
216.601	336.74
217.068	280.57
217.535	250.14
218.003	250.14
218.47	318.02
218.937	278.23
219.404	264.19
219.871	327.38
220.338	252.49
220.805	287.59
221.271	303.98
221.738	231.42
222.205	250.14
222.671	278.23
223.138	332.06
223.605	350.79
224.071	285.25
224.538	313.34
225.004	224.4
225.47	308.66
225.937	303.98
226.403	299.3
226.869	299.3
227.335	320.36
227.801	320.36
228.267	238.44
228.733	264.19
229.199	245.46
229.665	287.59
230.131	292.27
230.597	266.53
231.062	259.51
231.528	278.23
231.994	219.72
232.459	311
232.925	215.04
233.39	280.57
233.856	308.66
234.321	261.85
234.786	208.02
235.252	268.87
235.717	268.87
236.182	273.55
236.647	236.1
237.112	245.46
237.577	322.7
238.042	271.21
238.507	278.23
238.972	292.27
239.436	329.72
239.901	318.02
240.366	254.83
240.83	341.43
241.295	329.72
241.76	240.78
242.224	292.27
242.688	278.23
243.153	350.79
243.617	296.96
244.081	271.21
244.545	282.91
245.01	289.93
245.474	313.34
245.938	350.79
246.402	320.36
246.866	325.04
247.33	250.14
247.793	332.06
248.257	280.57
248.721	287.59
249.185	322.7
249.648	252.49
250.112	257.17
250.575	339.09
251.039	266.53
251.502	308.66
251.965	315.68
252.429	257.17
252.892	343.77
253.355	299.3
253.818	325.04
254.281	275.89
254.744	294.61
255.207	303.98
255.67	278.23
256.133	294.61
256.596	355.47
257.059	271.21
257.522	205.67
257.984	275.89
258.447	313.34
258.909	339.09
259.372	348.45
259.834	311
260.297	271.21
260.759	275.89
261.221	250.14
261.684	259.51
262.146	259.51
262.608	273.55
263.07	275.89
263.532	313.34
263.994	233.76
264.456	327.38
264.918	315.68
265.38	289.93
265.842	280.57
266.303	282.91
266.765	278.23
267.227	275.89
267.688	278.23
268.15	325.04
268.611	250.14
269.072	299.3
269.534	266.53
269.995	313.34
270.456	289.93
270.918	350.79
271.379	325.04
271.84	285.25
272.301	299.3
272.762	296.96
273.223	299.3
273.684	308.66
274.144	289.93
274.605	343.77
275.066	243.12
275.527	311
275.987	320.36
276.448	268.87
276.908	388.24
277.369	343.77
277.829	306.32
278.289	320.36
278.75	261.85
279.21	322.7
279.67	336.74
280.13	280.57
280.59	311
281.05	292.27
281.51	336.74
281.97	334.4
282.43	353.13
282.89	376.53
283.35	296.96
283.809	245.46
284.269	313.34
284.729	275.89
285.188	339.09
285.648	280.57
286.107	268.87
286.567	285.25
287.026	275.89
287.485	343.77
287.944	273.55
288.404	350.79
288.863	303.98
289.322	252.49
289.781	327.38
290.24	282.91
290.699	247.8
291.158	346.11
291.616	357.81
292.075	343.77
292.534	315.68
292.992	299.3
293.451	245.46
293.91	315.68
294.368	303.98
294.827	280.57
295.285	292.27
295.743	296.96
296.202	318.02
296.66	360.15
297.118	343.77
297.576	311
298.034	257.17
298.492	311
298.95	280.57
299.408	336.74
299.866	334.4
300.324	303.98
300.781	399.94
301.239	320.36
301.697	311
302.154	299.3
302.612	350.79
303.069	318.02
303.527	306.32
303.984	264.19
304.441	296.96
304.899	318.02
305.356	325.04
305.813	318.02
306.27	282.91
306.727	266.53
307.184	273.55
307.641	327.38
308.098	348.45
308.555	353.13
309.012	289.93
309.468	278.23
309.925	381.21
310.382	278.23
310.838	313.34
311.295	390.58
311.751	275.89
312.208	350.79
312.664	285.25
313.12	318.02
313.577	210.36
314.033	360.15
314.489	303.98
314.945	247.8
315.401	381.21
315.857	378.87
316.313	308.66
316.769	289.93
317.225	289.93
317.681	289.93
318.136	350.79
318.592	296.96
319.048	292.27
319.503	306.32
319.959	301.64
320.414	238.44
320.869	318.02
321.325	329.72
321.78	327.38
322.235	254.83
322.691	280.57
323.146	315.68
323.601	311
324.056	254.83
324.511	334.4
324.966	348.45
325.421	336.74
325.875	301.64
326.33	287.59
326.785	285.25
327.24	306.32
327.694	311
328.149	287.59
328.603	332.06
329.058	289.93
329.512	289.93
329.966	334.4
330.421	350.79
330.875	266.53
331.329	348.45
331.783	343.77
332.237	336.74
332.691	243.12
333.145	294.61
333.599	282.91
334.053	336.74
334.507	357.81
334.96	339.09
335.414	346.11
335.868	287.59
336.321	325.04
336.775	362.49
337.228	371.85
337.682	296.96
338.135	336.74
338.588	346.11
339.042	308.66
339.495	303.98
339.948	308.66
340.401	287.59
340.854	287.59
341.307	353.13
341.76	243.12
342.213	371.85
342.666	336.74
343.119	318.02
343.571	271.21
344.024	282.91
344.477	294.61
344.929	348.45
345.382	376.53
345.834	325.04
346.287	325.04
346.739	332.06
347.191	282.91
347.644	273.55
348.096	266.53
348.548	313.34
349	294.61
349.452	399.94
349.904	348.45
350.356	313.34
350.808	327.38
351.26	313.34
351.711	285.25
352.163	301.64
352.615	341.43
353.066	357.81
353.518	303.98
353.969	299.3
354.421	287.59
354.872	299.3
355.324	311
355.775	336.74
356.226	315.68
356.677	350.79
357.128	334.4
357.579	334.4
358.03	282.91
358.481	285.25
358.932	322.7
359.383	299.3
359.834	229.08
360.285	339.09
360.735	303.98
361.186	303.98
361.637	329.72
362.087	289.93
362.538	329.72
362.988	313.34
363.438	294.61
363.889	250.14
364.339	325.04
364.789	343.77
365.239	327.38
365.689	406.96
366.139	322.7
366.589	350.79
367.039	285.25
367.489	254.83
367.939	294.61
368.389	364.83
368.839	289.93
369.288	308.66
369.738	320.36
370.187	369.51
370.637	306.32
371.086	320.36
371.536	301.64
371.985	259.51
372.434	275.89
372.884	322.7
373.333	343.77
373.782	287.59
374.231	318.02
374.68	327.38
375.129	350.79
375.578	308.66
376.027	318.02
376.475	381.21
376.924	264.19
377.373	257.17
377.822	329.72
378.27	296.96
378.719	299.3
379.167	315.68
379.616	336.74
380.064	325.04
380.512	332.06
380.961	329.72
381.409	285.25
381.857	376.53
382.305	322.7
382.753	341.43
383.201	292.27
383.649	299.3
384.097	353.13
384.545	257.17
384.992	355.47
385.44	311
385.888	348.45
386.335	346.11
386.783	355.47
387.231	334.4
387.678	325.04
388.125	362.49
388.573	287.59
389.02	353.13
389.467	266.53
389.914	341.43
390.362	271.21
390.809	327.38
391.256	355.47
391.703	332.06
392.15	313.34
392.596	385.9
393.043	395.26
393.49	334.4
393.937	299.3
394.383	247.8
394.83	282.91
395.276	334.4
395.723	406.96
396.169	254.83
396.616	308.66
397.062	334.4
397.508	303.98
397.954	397.6
398.401	320.36
398.847	329.72
399.293	327.38
399.739	364.83
400.185	322.7
400.631	371.85
401.076	250.14
401.522	325.04
401.968	296.96
402.414	252.49
402.859	332.06
403.305	336.74
403.75	308.66
404.196	350.79
404.641	306.32
405.086	332.06
405.532	254.83
405.977	348.45
406.422	332.06
406.867	318.02
407.312	350.79
407.757	334.4
408.202	371.85
408.647	332.06
409.092	296.96
409.537	364.83
409.982	332.06
410.426	322.7
410.871	341.43
411.316	327.38
411.76	282.91
412.205	360.15
412.649	355.47
413.093	397.6
413.538	311
413.982	329.72
414.426	341.43
414.87	315.68
415.314	313.34
415.758	278.23
416.202	301.64
416.646	355.47
417.09	341.43
417.534	308.66
417.978	341.43
418.421	339.09
418.865	292.27
419.309	303.98
419.752	320.36
420.196	383.56
420.639	306.32
421.083	296.96
421.526	322.7
421.969	385.9
422.412	329.72
422.856	313.34
423.299	369.51
423.742	336.74
424.185	311
424.628	353.13
425.071	294.61
425.513	318.02
425.956	287.59
426.399	259.51
426.842	346.11
427.284	364.83
427.727	325.04
428.169	369.51
428.612	252.49
429.054	311
429.497	301.64
429.939	289.93
430.381	308.66
430.823	287.59
431.265	353.13
431.707	315.68
432.149	296.96
432.591	348.45
433.033	360.15
433.475	280.57
433.917	285.25
434.359	299.3
434.8	371.85
435.242	327.38
435.684	320.36
436.125	299.3
436.567	385.9
437.008	341.43
437.449	311
437.891	315.68
438.332	385.9
438.773	315.68
439.214	322.7
439.656	301.64
440.097	243.12
440.538	325.04
440.978	285.25
441.419	313.34
441.86	282.91
442.301	296.96
442.742	355.47
443.182	369.51
443.623	285.25
444.063	334.4
444.504	303.98
444.944	353.13
445.385	252.49
445.825	350.79
446.265	299.3
446.706	322.7
447.146	289.93
447.586	343.77
448.026	266.53
448.466	353.13
448.906	327.38
449.346	311
449.786	275.89
450.225	336.74
450.665	360.15
451.105	250.14
451.544	334.4
451.984	336.74
452.424	343.77
452.863	294.61
453.302	289.93
453.742	303.98
454.181	367.17
454.62	261.85
455.059	303.98
455.499	329.72
455.938	369.51
456.377	325.04
456.816	287.59
457.254	322.7
457.693	348.45
458.132	313.34
458.571	285.25
459.01	322.7
459.448	346.11
459.887	320.36
460.325	313.34
460.764	355.47
461.202	322.7
461.641	306.32
462.079	339.09
462.517	327.38
462.955	413.98
463.393	299.3
463.832	303.98
464.27	311
464.708	357.81
465.145	339.09
465.583	353.13
466.021	364.83
466.459	343.77
466.897	301.64
467.334	399.94
467.772	327.38
468.209	282.91
468.647	350.79
469.084	278.23
469.522	332.06
469.959	273.55
470.396	339.09
470.833	313.34
471.271	355.47
471.708	318.02
472.145	362.49
472.582	259.51
473.019	327.38
473.456	315.68
473.892	357.81
474.329	327.38
474.766	275.89
475.202	306.32
475.639	364.83
476.076	278.23
476.512	334.4
476.949	313.34
477.385	341.43
477.821	320.36
478.258	327.38
478.694	341.43
479.13	332.06
479.566	360.15
480.002	371.85
480.438	367.17
480.874	318.02
481.31	318.02
481.746	336.74
482.181	388.24
482.617	339.09
483.053	339.09
483.488	315.68
483.924	273.55
484.36	271.21
484.795	334.4
485.23	329.72
485.666	308.66
486.101	339.09
486.536	325.04
486.971	308.66
487.407	343.77
487.842	343.77
488.277	339.09
488.712	369.51
489.146	306.32
489.581	374.19
490.016	341.43
490.451	343.77
490.885	303.98
491.32	336.74
491.755	315.68
492.189	327.38
492.624	355.47
493.058	336.74
493.492	385.9
493.927	299.3
494.361	339.09
494.795	367.17
495.229	301.64
495.663	268.87
496.097	306.32
496.531	367.17
496.965	334.4
497.399	348.45
497.833	299.3
498.266	299.3
498.7	348.45
499.134	392.92
499.567	311
500.001	376.53
500.434	268.87
500.868	353.13
501.301	404.62
501.734	278.23
502.168	311
502.601	350.79
503.034	374.19
503.467	282.91
503.9	346.11
504.333	282.91
504.766	308.66
505.199	315.68
505.632	325.04
506.064	329.72
506.497	320.36
506.93	343.77
507.362	299.3
507.795	313.34
508.227	311
508.66	320.36
509.092	327.38
509.524	320.36
509.956	341.43
510.389	278.23
510.821	329.72
511.253	348.45
511.685	334.4
512.117	350.79
512.549	303.98
512.981	320.36
513.412	287.59
513.844	289.93
514.276	327.38
514.707	313.34
515.139	362.49
515.571	392.92
516.002	353.13
516.433	320.36
516.865	318.02
517.296	322.7
517.727	334.4
518.159	355.47
518.59	362.49
519.021	339.09
519.452	322.7
519.883	294.61
520.314	292.27
520.744	350.79
521.175	339.09
521.606	332.06
522.037	341.43
522.467	315.68
522.898	318.02
523.328	306.32
523.759	299.3
524.189	374.19
524.62	388.24
525.05	282.91
525.48	299.3
525.91	353.13
526.341	282.91
526.771	289.93
527.201	278.23
527.631	320.36
528.061	346.11
528.49	325.04
528.92	353.13
529.35	327.38
529.78	367.17
530.209	376.53
530.639	378.87
531.068	369.51
531.498	273.55
531.927	334.4
532.357	399.94
532.786	336.74
533.215	229.08
533.644	320.36
534.074	308.66
534.503	383.56
534.932	301.64
535.361	327.38
535.79	292.27
536.218	329.72
536.647	367.17
537.076	376.53
537.505	311
537.933	311
538.362	362.49
538.79	320.36
539.219	353.13
539.647	381.21
540.076	315.68
540.504	303.98
540.932	292.27
541.36	327.38
541.788	308.66
542.217	318.02
542.645	318.02
543.073	315.68
543.5	320.36
543.928	353.13
544.356	339.09
544.784	395.26
545.211	355.47
545.639	301.64
546.067	299.3
546.494	301.64
546.922	226.74
547.349	329.72
547.776	362.49
548.204	311
548.631	259.51
549.058	264.19
549.485	268.87
549.912	308.66
550.339	325.04
550.766	313.34
551.193	325.04
551.62	327.38
552.047	357.81
552.474	313.34
552.9	271.21
553.327	322.7
553.754	306.32
554.18	311
554.607	322.7
555.033	320.36
555.459	355.47
555.886	336.74
556.312	357.81
556.738	327.38
557.164	334.4
557.59	339.09
558.016	325.04
558.442	362.49
558.868	334.4
559.294	332.06
559.72	353.13
560.145	299.3
560.571	275.89
560.997	285.25
561.422	369.51
561.848	383.56
562.273	320.36
562.699	247.8
563.124	327.38
563.549	261.85
563.974	292.27
564.4	325.04
564.825	327.38
565.25	250.14
565.675	385.9
566.1	301.64
566.525	285.25
566.95	292.27
567.374	332.06
567.799	292.27
568.224	325.04
568.648	289.93
569.073	320.36
569.497	313.34
569.922	245.46
570.346	271.21
570.771	306.32
571.195	287.59
571.619	322.7
572.043	376.53
572.467	254.83
572.891	336.74
573.315	322.7
573.739	313.34
574.163	282.91
574.587	343.77
575.011	334.4
575.435	289.93
575.858	374.19
576.282	301.64
576.705	332.06
577.129	303.98
577.552	343.77
577.976	287.59
578.399	320.36
578.822	308.66
579.245	336.74
579.669	392.92
580.092	336.74
580.515	315.68
580.938	334.4
581.361	306.32
581.784	315.68
582.206	325.04
582.629	322.7
583.052	322.7
583.474	355.47
583.897	261.85
584.32	336.74
584.742	308.66
585.165	275.89
585.587	362.49
586.009	325.04
586.431	325.04
586.854	334.4
587.276	402.28
587.698	388.24
588.12	275.89
588.542	360.15
588.964	271.21
589.386	311
589.807	285.25
590.229	332.06
590.651	303.98
591.073	236.1
591.494	282.91
591.916	308.66
592.337	308.66
592.759	360.15
593.18	343.77
593.601	287.59
594.022	301.64
594.444	315.68
594.865	378.87
595.286	275.89
595.707	299.3
596.128	339.09
596.549	350.79
596.97	392.92
597.39	346.11
597.811	287.59
598.232	315.68
598.652	294.61
599.073	329.72
599.494	325.04
599.914	257.17
600.334	285.25
600.755	275.89
601.175	325.04
601.595	318.02
602.015	285.25
602.436	275.89
602.856	425.68
603.276	285.25
603.696	376.53
604.115	327.38
604.535	322.7
604.955	247.8
605.375	322.7
605.794	348.45
606.214	301.64
606.634	336.74
607.053	355.47
607.473	435.05
607.892	325.04
608.311	362.49
608.731	348.45
609.15	376.53
609.569	303.98
609.988	327.38
610.407	308.66
610.826	325.04
611.245	301.64
611.664	327.38
612.083	315.68
612.501	245.46
612.92	322.7
613.339	268.87
613.757	367.17
614.176	257.17
614.594	325.04
615.013	313.34
615.431	341.43
615.85	296.96
616.268	327.38
616.686	332.06
617.104	294.61
617.522	257.17
617.94	369.51
618.358	315.68
618.776	308.66
619.194	336.74
619.612	308.66
620.03	355.47
620.447	392.92
620.865	357.81
621.282	395.26
621.7	311
622.117	306.32
622.535	339.09
622.952	395.26
623.369	311
623.787	282.91
624.204	341.43
624.621	311
625.038	264.19
625.455	287.59
625.872	329.72
626.289	280.57
626.706	296.96
627.123	329.72
627.539	327.38
627.956	306.32
628.373	334.4
628.789	360.15
629.206	339.09
629.622	292.27
630.038	318.02
630.455	346.11
630.871	308.66
631.287	362.49
631.703	282.91
632.12	329.72
632.536	334.4
632.952	395.26
633.368	294.61
633.783	226.74
634.199	264.19
634.615	336.74
635.031	301.64
635.446	280.57
635.862	282.91
636.277	329.72
636.693	320.36
637.108	282.91
637.524	296.96
637.939	390.58
638.354	343.77
638.77	315.68
639.185	315.68
639.6	327.38
640.015	383.56
640.43	332.06
640.845	289.93
641.259	383.56
641.674	320.36
642.089	320.36
642.504	369.51
642.918	353.13
643.333	292.27
643.747	315.68
644.162	339.09
644.576	308.66
644.991	336.74
645.405	357.81
645.819	336.74
646.233	320.36
646.647	287.59
647.061	343.77
647.475	343.77
647.889	320.36
648.303	301.64
648.717	332.06
649.131	303.98
649.545	252.49
649.958	282.91
650.372	282.91
650.785	275.89
651.199	402.28
651.612	362.49
652.026	371.85
652.439	292.27
652.852	327.38
653.266	306.32
653.679	308.66
654.092	285.25
654.505	282.91
654.918	385.9
655.331	289.93
655.744	343.77
656.156	285.25
656.569	296.96
656.982	278.23
657.394	296.96
657.807	289.93
658.22	369.51
658.632	327.38
659.044	285.25
659.457	322.7
659.869	325.04
660.281	308.66
660.693	343.77
661.106	392.92
661.518	261.85
661.93	303.98
662.342	329.72
662.754	308.66
663.165	287.59
663.577	343.77
663.989	289.93
664.401	343.77
664.812	371.85
665.224	397.6
665.635	360.15
666.047	367.17
666.458	327.38
666.869	378.87
667.281	327.38
667.692	303.98
668.103	334.4
668.514	348.45
668.925	350.79
669.336	334.4
669.747	318.02
670.158	388.24
670.569	236.1
670.979	327.38
671.39	346.11
671.801	376.53
672.211	336.74
672.622	306.32
673.032	348.45
673.443	357.81
673.853	320.36
674.263	268.87
674.674	346.11
675.084	259.51
675.494	325.04
675.904	376.53
676.314	364.83
676.724	287.59
677.134	299.3
677.544	308.66
677.953	339.09
678.363	292.27
678.773	374.19
679.182	357.81
679.592	343.77
680.001	282.91
680.411	334.4
680.82	320.36
681.23	329.72
681.639	322.7
682.048	320.36
682.457	308.66
682.866	409.3
683.275	315.68
683.684	271.21
684.093	315.68
684.502	320.36
684.911	383.56
685.32	303.98
685.728	339.09
686.137	318.02
686.546	273.55
686.954	371.85
687.363	355.47
687.771	282.91
688.179	311
688.588	296.96
688.996	280.57
689.404	399.94
689.812	325.04
690.22	329.72
690.628	336.74
691.036	348.45
691.444	318.02
691.852	261.85
692.26	315.68
692.667	339.09
693.075	311
693.483	268.87
693.89	329.72
694.298	327.38
694.705	301.64
695.112	348.45
695.52	360.15
695.927	381.21
696.334	282.91
696.741	282.91
697.148	353.13
697.555	313.34
697.962	355.47
698.369	362.49
698.776	320.36
699.183	364.83
699.59	341.43
699.996	343.77
700.403	289.93
700.81	376.53
701.216	306.32
701.623	280.57
702.029	308.66
702.435	273.55
702.842	367.17
703.248	280.57
703.654	296.96
704.06	348.45
704.466	334.4
704.872	296.96
705.278	301.64
705.684	350.79
706.09	311
706.496	360.15
706.901	318.02
707.307	329.72
707.712	332.06
708.118	320.36
708.523	374.19
708.929	325.04
709.334	311
709.74	341.43
710.145	320.36
710.55	282.91
710.955	336.74
711.36	362.49
711.765	402.28
712.17	395.26
712.575	268.87
712.98	910.18
713.385	378.87
713.789	348.45
714.194	292.27
714.599	327.38
715.003	287.59
715.408	238.44
715.812	306.32
716.217	339.09
716.621	348.45
717.025	318.02
717.429	308.66
717.833	336.74
718.238	311
718.642	334.4
719.046	343.77
719.449	339.09
719.853	325.04
720.257	371.85
720.661	280.57
721.065	355.47
721.468	404.62
721.872	252.49
722.275	341.43
722.679	296.96
723.082	357.81
723.485	315.68
723.889	362.49
724.292	303.98
724.695	341.43
725.098	399.94
725.501	285.25
725.904	341.43
726.307	355.47
726.71	364.83
727.113	271.21
727.516	397.6
727.918	332.06
728.321	236.1
728.724	292.27
729.126	301.64
729.529	289.93
729.931	238.44
730.333	334.4
730.736	385.9
731.138	306.32
731.54	296.96
731.942	318.02
732.344	271.21
732.746	329.72
733.148	322.7
733.55	336.74
733.952	292.27
734.354	329.72
734.756	320.36
735.157	303.98
735.559	306.32
735.96	334.4
736.362	334.4
736.763	268.87
737.165	299.3
737.566	341.43
737.967	313.34
738.368	336.74
738.77	294.61
739.171	268.87
739.572	355.47
739.973	336.74
740.374	385.9
740.774	346.11
741.175	247.8
741.576	381.21
741.977	334.4
742.377	395.26
742.778	329.72
743.178	322.7
743.579	346.11
743.979	341.43
744.379	296.96
744.78	287.59
745.18	318.02
745.58	329.72
745.98	332.06
746.38	364.83
746.78	346.11
747.18	357.81
747.58	311
747.98	271.21
748.38	320.36
748.779	287.59
749.179	399.94
749.578	367.17
749.978	315.68
750.377	381.21
750.777	285.25
751.176	313.34
751.575	315.68
751.975	308.66
752.374	318.02
752.773	294.61
753.172	346.11
753.571	369.51
753.97	428.03
754.369	334.4
754.768	318.02
755.166	311
755.565	383.56
755.964	294.61
756.362	318.02
756.761	301.64
757.159	367.17
757.558	334.4
757.956	313.34
758.354	311
758.753	282.91
759.151	348.45
759.549	313.34
759.947	355.47
760.345	357.81
760.743	334.4
761.141	259.51
761.539	318.02
761.936	273.55
762.334	362.49
762.732	346.11
763.129	294.61
763.527	315.68
763.924	334.4
764.322	332.06
764.719	296.96
765.117	271.21
765.514	318.02
765.911	294.61
766.308	294.61
766.705	322.7
767.102	357.81
767.499	240.78
767.896	360.15
