Data from Al_FLMS009871__459__14-30-12-840.txt Node

Date: Fri Mar 08 14:30:12 CST 2024
User: pe5414po
Spectrometer: FLMS00987
Trigger mode: 0
Integration Time (sec): 1.000000E-1
Scans to average: 1
Electric dark correction enabled: true
Nonlinearity correction enabled: false
Boxcar width: 0
XAxis mode: Wavelengths
Number of Pixels in Spectrum: 2048
>>>>>Begin Spectral Data<<<<<
188.938	-0.88
189.409	-0.88
189.879	-0.88
190.349	-150.67
190.819	-136.63
191.29	-183.44
191.76	-31.3
192.23	-19.6
192.7	-66.41
193.17	-78.12
193.64	-59.39
194.109	-35.99
194.579	-66.41
195.049	-0.88
195.519	43.59
195.988	99.77
196.458	41.25
196.927	45.93
197.397	102.11
197.866	62.32
198.336	146.58
198.805	141.89
199.274	228.49
199.744	148.92
200.213	193.39
200.682	230.84
201.151	237.86
201.62	235.52
202.089	261.26
202.558	169.98
203.027	291.69
203.495	268.28
203.964	298.71
204.433	312.75
204.902	289.35
205.37	233.18
205.839	282.33
206.307	233.18
206.776	301.05
207.244	270.62
207.712	336.16
208.181	256.58
208.649	373.61
209.117	312.75
209.585	265.94
210.053	261.26
210.521	319.78
210.989	275.31
211.457	263.6
211.925	263.6
212.393	345.52
212.861	308.07
213.328	343.18
213.796	261.26
214.264	312.75
214.731	308.07
215.199	270.62
215.666	258.92
216.133	223.81
216.601	240.2
217.068	275.31
217.535	247.22
218.003	277.65
218.47	289.35
218.937	305.73
219.404	244.88
219.871	324.46
220.338	296.37
220.805	308.07
221.271	277.65
221.738	294.03
222.205	249.56
222.671	272.96
223.138	247.22
223.605	301.05
224.071	258.92
224.538	319.78
225.004	336.16
225.47	305.73
225.937	256.58
226.403	249.56
226.869	242.54
227.335	256.58
227.801	282.33
228.267	258.92
228.733	291.69
229.199	247.22
229.665	310.41
230.131	326.8
230.597	315.09
231.062	265.94
231.528	315.09
231.994	331.48
232.459	289.35
232.925	310.41
233.39	249.56
233.856	263.6
234.321	329.14
234.786	251.9
235.252	265.94
235.717	277.65
236.182	251.9
236.647	270.62
237.112	326.8
237.577	212.11
238.042	301.05
238.507	308.07
238.972	289.35
239.436	326.8
239.901	235.52
240.366	350.2
240.83	331.48
241.295	289.35
241.76	326.8
242.224	209.77
242.688	310.41
243.153	329.14
243.617	237.86
244.081	219.13
244.545	315.09
245.01	298.71
245.474	326.8
245.938	291.69
246.402	277.65
246.866	310.41
247.33	251.9
247.793	298.71
248.257	322.12
248.721	240.2
249.185	289.35
249.648	331.48
250.112	312.75
250.575	263.6
251.039	301.05
251.502	322.12
251.965	263.6
252.429	315.09
252.892	265.94
253.355	284.67
253.818	249.56
254.281	326.8
254.744	263.6
255.207	319.78
255.67	282.33
256.133	319.78
256.596	270.62
257.059	228.49
257.522	294.03
257.984	270.62
258.447	354.88
258.909	308.07
259.372	287.01
259.834	305.73
260.297	265.94
260.759	322.12
261.221	289.35
261.684	287.01
262.146	296.37
262.608	272.96
263.07	324.46
263.532	298.71
263.994	380.63
264.456	357.22
264.918	308.07
265.38	310.41
265.842	331.48
266.303	324.46
266.765	256.58
267.227	289.35
267.688	298.71
268.15	315.09
268.611	301.05
269.072	301.05
269.534	308.07
269.995	242.54
270.456	319.78
270.918	303.39
271.379	242.54
271.84	247.22
272.301	322.12
272.762	275.31
273.223	324.46
273.684	279.99
274.144	366.59
274.605	235.52
275.066	277.65
275.527	329.14
275.987	298.71
276.448	242.54
276.908	308.07
277.369	366.59
277.829	308.07
278.289	359.56
278.75	294.03
279.21	322.12
279.67	289.35
280.13	303.39
280.59	305.73
281.05	291.69
281.51	352.54
281.97	298.71
282.43	277.65
282.89	282.33
283.35	294.03
283.809	310.41
284.269	289.35
284.729	282.33
285.188	298.71
285.648	352.54
286.107	275.31
286.567	336.16
287.026	294.03
287.485	284.67
287.944	324.46
288.404	263.6
288.863	336.16
289.322	310.41
289.781	254.24
290.24	352.54
290.699	256.58
291.158	275.31
291.616	331.48
292.075	261.26
292.534	291.69
292.992	282.33
293.451	319.78
293.91	329.14
294.368	312.75
294.827	317.44
295.285	265.94
295.743	354.88
296.202	317.44
296.66	315.09
297.118	284.67
297.576	296.37
298.034	382.97
298.492	298.71
298.95	282.33
299.408	254.24
299.866	296.37
300.324	317.44
300.781	326.8
301.239	298.71
301.697	350.2
302.154	338.5
302.612	270.62
303.069	317.44
303.527	340.84
303.984	296.37
304.441	308.07
304.899	265.94
305.356	308.07
305.813	301.05
306.27	277.65
306.727	350.2
307.184	282.33
307.641	336.16
308.098	326.8
308.555	366.59
309.012	329.14
309.468	275.31
309.925	326.8
310.382	322.12
310.838	294.03
311.295	364.25
311.751	319.78
312.208	350.2
312.664	296.37
313.12	329.14
313.577	345.52
314.033	289.35
314.489	287.01
314.945	315.09
315.401	233.18
315.857	303.39
316.313	284.67
316.769	329.14
317.225	240.2
317.681	373.61
318.136	310.41
318.592	333.82
319.048	303.39
319.503	244.88
319.959	303.39
320.414	308.07
320.869	324.46
321.325	343.18
321.78	308.07
322.235	258.92
322.691	336.16
323.146	258.92
323.601	282.33
324.056	326.8
324.511	301.05
324.966	279.99
325.421	277.65
325.875	331.48
326.33	340.84
326.785	275.31
327.24	322.12
327.694	291.69
328.149	324.46
328.603	315.09
329.058	282.33
329.512	287.01
329.966	312.75
330.421	254.24
330.875	347.86
331.329	359.56
331.783	305.73
332.237	287.01
332.691	317.44
333.145	242.54
333.599	301.05
334.053	324.46
334.507	347.86
334.96	303.39
335.414	317.44
335.868	298.71
336.321	329.14
336.775	303.39
337.228	324.46
337.682	345.52
338.135	331.48
338.588	303.39
339.042	296.37
339.495	361.91
339.948	350.2
340.401	343.18
340.854	347.86
341.307	287.01
341.76	319.78
342.213	319.78
342.666	310.41
343.119	279.99
343.571	301.05
344.024	317.44
344.477	368.93
344.929	298.71
345.382	354.88
345.834	256.58
346.287	345.52
346.739	319.78
347.191	251.9
347.644	256.58
348.096	361.91
348.548	378.29
349	326.8
349.452	322.12
349.904	333.82
350.356	305.73
350.808	338.5
351.26	312.75
351.711	319.78
352.163	296.37
352.615	301.05
353.066	350.2
353.518	324.46
353.969	265.94
354.421	272.96
354.872	256.58
355.324	315.09
355.775	324.46
356.226	268.28
356.677	284.67
357.128	329.14
357.579	338.5
358.03	347.86
358.481	375.95
358.932	254.24
359.383	322.12
359.834	265.94
360.285	270.62
360.735	364.25
361.186	294.03
361.637	338.5
362.087	301.05
362.538	373.61
362.988	373.61
363.438	324.46
363.889	261.26
364.339	317.44
364.789	294.03
365.239	303.39
365.689	347.86
366.139	331.48
366.589	359.56
367.039	347.86
367.489	338.5
367.939	298.71
368.389	305.73
368.839	380.63
369.288	326.8
369.738	336.16
370.187	312.75
370.637	347.86
371.086	324.46
371.536	340.84
371.985	340.84
372.434	338.5
372.884	331.48
373.333	301.05
373.782	296.37
374.231	305.73
374.68	322.12
375.129	394.67
375.578	256.58
376.027	333.82
376.475	305.73
376.924	305.73
377.373	345.52
377.822	329.14
378.27	254.24
378.719	319.78
379.167	305.73
379.616	354.88
380.064	284.67
380.512	406.38
380.961	317.44
381.409	287.01
381.857	279.99
382.305	338.5
382.753	315.09
383.201	326.8
383.649	282.33
384.097	303.39
384.545	289.35
384.992	366.59
385.44	294.03
385.888	303.39
386.335	347.86
386.783	284.67
387.231	279.99
387.678	310.41
388.125	347.86
388.573	350.2
389.02	319.78
389.467	322.12
389.914	308.07
390.362	331.48
390.809	324.46
391.256	331.48
391.703	310.41
392.15	359.56
392.596	268.28
393.043	333.82
393.49	277.65
393.937	331.48
394.383	296.37
394.83	305.73
395.276	343.18
395.723	319.78
396.169	352.54
396.616	343.18
397.062	347.86
397.508	296.37
397.954	345.52
398.401	291.69
398.847	296.37
399.293	261.26
399.739	301.05
400.185	401.69
400.631	331.48
401.076	319.78
401.522	373.61
401.968	350.2
402.414	303.39
402.859	357.22
403.305	359.56
403.75	359.56
404.196	296.37
404.641	296.37
405.086	322.12
405.532	319.78
405.977	333.82
406.422	287.01
406.867	352.54
407.312	352.54
407.757	336.16
408.202	277.65
408.647	287.01
409.092	296.37
409.537	324.46
409.982	326.8
410.426	375.95
410.871	333.82
411.316	324.46
411.76	343.18
412.205	392.33
412.649	378.29
413.093	343.18
413.538	343.18
413.982	319.78
414.426	303.39
414.87	352.54
415.314	375.95
415.758	324.46
416.202	322.12
416.646	319.78
417.09	324.46
417.534	392.33
417.978	333.82
418.421	296.37
418.865	279.99
419.309	343.18
419.752	364.25
420.196	375.95
420.639	361.91
421.083	279.99
421.526	338.5
421.969	326.8
422.412	331.48
422.856	333.82
423.299	354.88
423.742	354.88
424.185	368.93
424.628	324.46
425.071	333.82
425.513	312.75
425.956	322.12
426.399	296.37
426.842	315.09
427.284	282.33
427.727	375.95
428.169	287.01
428.612	343.18
429.054	315.09
429.497	298.71
429.939	322.12
430.381	352.54
430.823	296.37
431.265	352.54
431.707	298.71
432.149	347.86
432.591	347.86
433.033	333.82
433.475	319.78
433.917	294.03
434.359	317.44
434.8	289.35
435.242	324.46
435.684	359.56
436.125	361.91
436.567	284.67
437.008	354.88
437.449	310.41
437.891	352.54
438.332	291.69
438.773	319.78
439.214	279.99
439.656	284.67
440.097	277.65
440.538	308.07
440.978	387.65
441.419	317.44
441.86	282.33
442.301	366.59
442.742	308.07
443.182	305.73
443.623	345.52
444.063	326.8
444.504	331.48
444.944	303.39
445.385	338.5
445.825	336.16
446.265	368.93
446.706	357.22
447.146	310.41
447.586	303.39
448.026	312.75
448.466	324.46
448.906	298.71
449.346	336.16
449.786	375.95
450.225	324.46
450.665	324.46
451.105	364.25
451.544	359.56
451.984	354.88
452.424	324.46
452.863	301.05
453.302	368.93
453.742	315.09
454.181	322.12
454.62	254.24
455.059	340.84
455.499	319.78
455.938	315.09
456.377	343.18
456.816	331.48
457.254	315.09
457.693	317.44
458.132	291.69
458.571	413.4
459.01	291.69
459.448	319.78
459.887	354.88
460.325	336.16
460.764	303.39
461.202	303.39
461.641	373.61
462.079	308.07
462.517	261.26
462.955	357.22
463.393	305.73
463.832	345.52
464.27	354.88
464.708	303.39
465.145	326.8
465.583	319.78
466.021	350.2
466.459	317.44
466.897	296.37
467.334	326.8
467.772	354.88
468.209	319.78
468.647	303.39
469.084	333.82
469.522	303.39
469.959	350.2
470.396	326.8
470.833	329.14
471.271	352.54
471.708	329.14
472.145	347.86
472.582	275.31
473.019	373.61
473.456	324.46
473.892	368.93
474.329	340.84
474.766	249.56
475.202	340.84
475.639	324.46
476.076	324.46
476.512	329.14
476.949	282.33
477.385	361.91
477.821	310.41
478.258	310.41
478.694	289.35
479.13	373.61
479.566	371.27
480.002	336.16
480.438	326.8
480.874	284.67
481.31	340.84
481.746	343.18
482.181	303.39
482.617	322.12
483.053	357.22
483.488	371.27
483.924	347.86
484.36	315.09
484.795	287.01
485.23	275.31
485.666	371.27
486.101	289.35
486.536	347.86
486.971	343.18
487.407	305.73
487.842	333.82
488.277	345.52
488.712	294.03
489.146	347.86
489.581	287.01
490.016	324.46
490.451	303.39
490.885	347.86
491.32	336.16
491.755	324.46
492.189	380.63
492.624	329.14
493.058	387.65
493.492	317.44
493.927	375.95
494.361	343.18
494.795	326.8
495.229	296.37
495.663	373.61
496.097	326.8
496.531	324.46
496.965	373.61
497.399	310.41
497.833	345.52
498.266	265.94
498.7	375.95
499.134	298.71
499.567	303.39
500.001	326.8
500.434	394.67
500.868	326.8
501.301	294.03
501.734	357.22
502.168	331.48
502.601	331.48
503.034	317.44
503.467	324.46
503.9	331.48
504.333	305.73
504.766	338.5
505.199	317.44
505.632	333.82
506.064	305.73
506.497	380.63
506.93	303.39
507.362	289.35
507.795	291.69
508.227	315.09
508.66	399.35
509.092	305.73
509.524	303.39
509.956	256.58
510.389	310.41
510.821	310.41
511.253	324.46
511.685	272.96
512.117	361.91
512.549	350.2
512.981	331.48
513.412	380.63
513.844	345.52
514.276	263.6
514.707	347.86
515.139	333.82
515.571	329.14
516.002	326.8
516.433	303.39
516.865	354.88
517.296	366.59
517.727	340.84
518.159	279.99
518.59	357.22
519.021	378.29
519.452	284.67
519.883	254.24
520.314	270.62
520.744	331.48
521.175	324.46
521.606	338.5
522.037	331.48
522.467	279.99
522.898	380.63
523.328	282.33
523.759	326.8
524.189	338.5
524.62	336.16
525.05	343.18
525.48	406.38
525.91	322.12
526.341	322.12
526.771	331.48
527.201	343.18
527.631	315.09
528.061	287.01
528.49	343.18
528.92	301.05
529.35	296.37
529.78	319.78
530.209	277.65
530.639	301.05
531.068	312.75
531.498	268.28
531.927	373.61
532.357	329.14
532.786	336.16
533.215	324.46
533.644	338.5
534.074	275.31
534.503	308.07
534.932	289.35
535.361	310.41
535.79	284.67
536.218	361.91
536.647	350.2
537.076	322.12
537.505	322.12
537.933	315.09
538.362	291.69
538.79	324.46
539.219	329.14
539.647	375.95
540.076	394.67
540.504	261.26
540.932	268.28
541.36	322.12
541.788	298.71
542.217	364.25
542.645	382.97
543.073	361.91
543.5	357.22
543.928	261.26
544.356	387.65
544.784	326.8
545.211	347.86
545.639	298.71
546.067	279.99
546.494	343.18
546.922	275.31
547.349	275.31
547.776	308.07
548.204	350.2
548.631	329.14
549.058	287.01
549.485	272.96
549.912	368.93
550.339	301.05
550.766	364.25
551.193	296.37
551.62	279.99
552.047	347.86
552.474	364.25
552.9	312.75
553.327	343.18
553.754	350.2
554.18	340.84
554.607	322.12
555.033	347.86
555.459	371.27
555.886	291.69
556.312	366.59
556.738	338.5
557.164	364.25
557.59	315.09
558.016	317.44
558.442	279.99
558.868	326.8
559.294	270.62
559.72	291.69
560.145	312.75
560.571	284.67
560.997	322.12
561.422	322.12
561.848	336.16
562.273	375.95
562.699	357.22
563.124	357.22
563.549	333.82
563.974	322.12
564.4	326.8
564.825	406.38
565.25	354.88
565.675	399.35
566.1	347.86
566.525	312.75
566.95	357.22
567.374	303.39
567.799	315.09
568.224	326.8
568.648	277.65
569.073	275.31
569.497	347.86
569.922	329.14
570.346	345.52
570.771	258.92
571.195	310.41
571.619	429.78
572.043	354.88
572.467	303.39
572.891	291.69
573.315	345.52
573.739	228.49
574.163	340.84
574.587	319.78
575.011	326.8
575.435	317.44
575.858	319.78
576.282	301.05
576.705	298.71
577.129	368.93
577.552	322.12
577.976	359.56
578.399	331.48
578.822	331.48
579.245	310.41
579.669	310.41
580.092	319.78
580.515	352.54
580.938	324.46
581.361	345.52
581.784	336.16
582.206	368.93
582.629	333.82
583.052	324.46
583.474	336.16
583.897	340.84
584.32	291.69
584.742	282.33
585.165	324.46
585.587	256.58
586.009	296.37
586.431	326.8
586.854	336.16
587.276	329.14
587.698	352.54
588.12	258.92
588.542	317.44
588.964	308.07
589.386	373.61
589.807	366.59
590.229	319.78
590.651	322.12
591.073	308.07
591.494	284.67
591.916	308.07
592.337	326.8
592.759	385.31
593.18	322.12
593.601	291.69
594.022	303.39
594.444	275.31
594.865	298.71
595.286	329.14
595.707	289.35
596.128	319.78
596.549	310.41
596.97	289.35
597.39	336.16
597.811	322.12
598.232	401.69
598.652	326.8
599.073	294.03
599.494	275.31
599.914	291.69
600.334	294.03
600.755	326.8
601.175	357.22
601.595	361.91
602.015	457.87
602.436	357.22
602.856	471.91
603.276	317.44
603.696	315.09
604.115	331.48
604.535	345.52
604.955	319.78
605.375	303.39
605.794	315.09
606.214	296.37
606.634	275.31
607.053	326.8
607.473	343.18
607.892	324.46
608.311	343.18
608.731	357.22
609.15	275.31
609.569	296.37
609.988	357.22
610.407	287.01
610.826	368.93
611.245	305.73
611.664	343.18
612.083	368.93
612.501	315.09
612.92	329.14
613.339	305.73
613.757	399.35
614.176	319.78
614.594	333.82
615.013	382.97
615.431	366.59
615.85	305.73
616.268	298.71
616.686	333.82
617.104	350.2
617.522	308.07
617.94	310.41
618.358	312.75
618.776	380.63
619.194	333.82
619.612	340.84
620.03	350.2
620.447	329.14
620.865	352.54
621.282	258.92
621.7	333.82
622.117	282.33
622.535	387.65
622.952	361.91
623.369	361.91
623.787	296.37
624.204	308.07
624.621	371.27
625.038	268.28
625.455	324.46
625.872	291.69
626.289	350.2
626.706	352.54
627.123	357.22
627.539	371.27
627.956	326.8
628.373	301.05
628.789	361.91
629.206	378.29
629.622	347.86
630.038	331.48
630.455	340.84
630.871	310.41
631.287	329.14
631.703	294.03
632.12	427.44
632.536	272.96
632.952	397.01
633.368	289.35
633.783	371.27
634.199	324.46
634.615	289.35
635.031	338.5
635.446	331.48
635.862	371.27
636.277	343.18
636.693	322.12
637.108	279.99
637.524	343.18
637.939	296.37
638.354	301.05
638.77	361.91
639.185	350.2
639.6	324.46
640.015	361.91
640.43	270.62
640.845	352.54
641.259	366.59
641.674	324.46
642.089	361.91
642.504	326.8
642.918	235.52
643.333	322.12
643.747	343.18
644.162	310.41
644.576	378.29
644.991	308.07
645.405	301.05
645.819	324.46
646.233	364.25
646.647	343.18
647.061	284.67
647.475	350.2
647.889	296.37
648.303	322.12
648.717	338.5
649.131	221.47
649.545	347.86
649.958	277.65
650.372	291.69
650.785	279.99
651.199	249.56
651.612	303.39
652.026	244.88
652.439	331.48
652.852	345.52
653.266	305.73
653.679	221.47
654.092	308.07
654.505	287.01
654.918	359.56
655.331	333.82
655.744	319.78
656.156	303.39
656.569	310.41
656.982	389.99
657.394	361.91
657.807	364.25
658.22	305.73
658.632	270.62
659.044	338.5
659.457	338.5
659.869	331.48
660.281	343.18
660.693	439.14
661.106	303.39
661.518	322.12
661.93	310.41
662.342	310.41
662.754	312.75
663.165	315.09
663.577	296.37
663.989	312.75
664.401	336.16
664.812	329.14
665.224	249.56
665.635	254.24
666.047	291.69
666.458	303.39
666.869	294.03
667.281	333.82
667.692	298.71
668.103	378.29
668.514	329.14
668.925	301.05
669.336	310.41
669.747	322.12
670.158	361.91
670.569	359.56
670.979	340.84
671.39	298.71
671.801	305.73
672.211	291.69
672.622	338.5
673.032	277.65
673.443	364.25
673.853	272.96
674.263	350.2
674.674	331.48
675.084	268.28
675.494	378.29
675.904	345.52
676.314	329.14
676.724	291.69
677.134	315.09
677.544	347.86
677.953	331.48
678.363	354.88
678.773	336.16
679.182	338.5
679.592	326.8
680.001	324.46
680.411	289.35
680.82	294.03
681.23	345.52
681.639	294.03
682.048	315.09
682.457	322.12
682.866	371.27
683.275	303.39
683.684	366.59
684.093	329.14
684.502	343.18
684.911	282.33
685.32	310.41
685.728	354.88
686.137	336.16
686.546	324.46
686.954	382.97
687.363	354.88
687.771	265.94
688.179	373.61
688.588	399.35
688.996	308.07
689.404	368.93
689.812	244.88
690.22	289.35
690.628	385.31
691.036	322.12
691.444	338.5
691.852	312.75
692.26	340.84
692.667	373.61
693.075	329.14
693.483	312.75
693.89	315.09
694.298	324.46
694.705	326.8
695.112	368.93
695.52	319.78
695.927	249.56
696.334	315.09
696.741	228.49
697.148	305.73
697.555	354.88
697.962	357.22
698.369	347.86
698.776	338.5
699.183	324.46
699.59	326.8
699.996	289.35
700.403	294.03
700.81	345.52
701.216	333.82
701.623	284.67
702.029	289.35
702.435	305.73
702.842	270.62
703.248	357.22
703.654	291.69
704.06	312.75
704.466	375.95
704.872	336.16
705.278	340.84
705.684	326.8
706.09	296.37
706.496	345.52
706.901	354.88
707.307	319.78
707.712	284.67
708.118	329.14
708.523	331.48
708.929	284.67
709.334	322.12
709.74	333.82
710.145	336.16
710.55	324.46
710.955	305.73
711.36	305.73
711.765	366.59
712.17	331.48
712.575	357.22
712.98	890.87
713.385	315.09
713.789	331.48
714.194	305.73
714.599	284.67
715.003	373.61
715.408	375.95
715.812	305.73
716.217	310.41
716.621	310.41
717.025	359.56
717.429	279.99
717.833	287.01
718.238	364.25
718.642	312.75
719.046	329.14
719.449	303.39
719.853	343.18
720.257	261.26
720.661	347.86
721.065	340.84
721.468	375.95
721.872	296.37
722.275	340.84
722.679	251.9
723.082	319.78
723.485	275.31
723.889	329.14
724.292	310.41
724.695	284.67
725.098	350.2
725.501	408.72
725.904	303.39
726.307	340.84
726.71	347.86
727.113	329.14
727.516	329.14
727.918	282.33
728.321	338.5
728.724	322.12
729.126	322.12
729.529	317.44
729.931	368.93
730.333	406.38
730.736	301.05
731.138	324.46
731.54	303.39
731.942	338.5
732.344	324.46
732.746	378.29
733.148	333.82
733.55	324.46
733.952	354.88
734.354	291.69
734.756	315.09
735.157	361.91
735.559	263.6
735.96	364.25
736.362	373.61
736.763	324.46
737.165	371.27
737.566	354.88
737.967	354.88
738.368	294.03
738.77	277.65
739.171	296.37
739.572	340.84
739.973	294.03
740.374	315.09
740.774	380.63
741.175	352.54
741.576	315.09
741.977	301.05
742.377	296.37
742.778	338.5
743.178	319.78
743.579	202.75
743.979	336.16
744.379	287.01
744.78	336.16
745.18	270.62
745.58	291.69
745.98	364.25
746.38	305.73
746.78	289.35
747.18	359.56
747.58	298.71
747.98	298.71
748.38	258.92
748.779	294.03
749.179	352.54
749.578	340.84
749.978	350.2
750.377	277.65
750.777	310.41
751.176	389.99
751.575	291.69
751.975	333.82
752.374	305.73
752.773	275.31
753.172	338.5
753.571	261.26
753.97	305.73
754.369	385.31
754.768	352.54
755.166	345.52
755.565	265.94
755.964	338.5
756.362	364.25
756.761	287.01
757.159	303.39
757.558	357.22
757.956	308.07
758.354	275.31
758.753	371.27
759.151	324.46
759.549	364.25
759.947	312.75
760.345	301.05
760.743	272.96
761.141	389.99
761.539	382.97
761.936	310.41
762.334	308.07
762.732	340.84
763.129	315.09
763.527	308.07
763.924	345.52
764.322	345.52
764.719	357.22
