Data from Al_FLMS009871__450__14-30-11-940.txt Node

Date: Fri Mar 08 14:30:11 CST 2024
User: pe5414po
Spectrometer: FLMS00987
Trigger mode: 0
Integration Time (sec): 1.000000E-1
Scans to average: 1
Electric dark correction enabled: true
Nonlinearity correction enabled: false
Boxcar width: 0
XAxis mode: Wavelengths
Number of Pixels in Spectrum: 2048
>>>>>Begin Spectral Data<<<<<
188.938	23.84
189.409	23.84
189.879	23.84
190.349	-100.2
190.819	-76.8
191.29	-62.76
191.76	-74.46
192.23	-147.01
192.7	-76.8
193.17	-97.86
193.64	-58.07
194.109	-46.37
194.579	7.46
195.049	5.12
195.519	7.46
195.988	-18.29
196.458	28.53
196.927	94.06
197.397	110.44
197.866	173.64
198.336	154.91
198.805	164.28
199.274	225.13
199.744	183
200.213	250.88
200.682	194.7
201.151	204.07
201.62	215.77
202.089	152.57
202.558	285.98
203.027	304.71
203.495	211.09
203.964	323.43
204.433	250.88
204.902	264.92
205.37	283.64
205.839	260.24
206.307	297.69
206.776	323.43
207.244	307.05
207.712	269.6
208.181	304.71
208.649	248.54
209.117	264.92
209.585	342.16
210.053	271.94
210.521	330.45
210.989	335.14
211.457	283.64
211.925	307.05
212.393	276.62
212.861	255.56
213.328	295.35
213.796	241.51
214.264	271.94
214.731	264.92
215.199	269.6
215.666	325.77
216.133	300.03
216.601	314.07
217.068	241.51
217.535	271.94
218.003	290.67
218.47	281.3
218.937	236.83
219.404	239.17
219.871	234.49
220.338	276.62
220.805	300.03
221.271	349.18
221.738	255.56
222.205	267.26
222.671	274.28
223.138	328.11
223.605	264.92
224.071	218.11
224.538	227.47
225.004	288.32
225.47	262.58
225.937	297.69
226.403	283.64
226.869	339.82
227.335	253.22
227.801	253.22
228.267	314.07
228.733	232.15
229.199	293.01
229.665	229.81
230.131	300.03
230.597	288.32
231.062	276.62
231.528	264.92
231.994	353.86
232.459	314.07
232.925	253.22
233.39	264.92
233.856	325.77
234.321	309.39
234.786	339.82
235.252	314.07
235.717	246.2
236.182	342.16
236.647	342.16
237.112	293.01
237.577	278.96
238.042	236.83
238.507	269.6
238.972	297.69
239.436	293.01
239.901	262.58
240.366	307.05
240.83	248.54
241.295	253.22
241.76	293.01
242.224	309.39
242.688	253.22
243.153	264.92
243.617	323.43
244.081	321.09
244.545	271.94
245.01	253.22
245.474	264.92
245.938	264.92
246.402	316.41
246.866	309.39
247.33	309.39
247.793	311.73
248.257	307.05
248.721	295.35
249.185	346.84
249.648	290.67
250.112	260.24
250.575	290.67
251.039	222.79
251.502	309.39
251.965	332.79
252.429	323.43
252.892	281.3
253.355	281.3
253.818	285.98
254.281	227.47
254.744	311.73
255.207	342.16
255.67	328.11
256.133	339.82
256.596	297.69
257.059	283.64
257.522	283.64
257.984	304.71
258.447	260.24
258.909	257.9
259.372	293.01
259.834	260.24
260.297	302.37
260.759	328.11
261.221	278.96
261.684	307.05
262.146	229.81
262.608	321.09
263.07	271.94
263.532	342.16
263.994	328.11
264.456	311.73
264.918	264.92
265.38	309.39
265.842	208.75
266.303	356.2
266.765	339.82
267.227	293.01
267.688	365.56
268.15	293.01
268.611	323.43
269.072	222.79
269.534	288.32
269.995	281.3
270.456	335.14
270.918	321.09
271.379	234.49
271.84	314.07
272.301	360.88
272.762	295.35
273.223	325.77
273.684	346.84
274.144	349.18
274.605	367.9
275.066	232.15
275.527	356.2
275.987	262.58
276.448	330.45
276.908	311.73
277.369	262.58
277.829	290.67
278.289	337.48
278.75	278.96
279.21	278.96
279.67	323.43
280.13	332.79
280.59	300.03
281.05	295.35
281.51	328.11
281.97	321.09
282.43	307.05
282.89	276.62
283.35	367.9
283.809	285.98
284.269	316.41
284.729	257.9
285.188	335.14
285.648	367.9
286.107	293.01
286.567	323.43
287.026	339.82
287.485	281.3
287.944	321.09
288.404	311.73
288.863	307.05
289.322	381.95
289.781	332.79
290.24	274.28
290.699	316.41
291.158	384.29
291.616	323.43
292.075	330.45
292.534	311.73
292.992	323.43
293.451	318.75
293.91	321.09
294.368	330.45
294.827	288.32
295.285	311.73
295.743	267.26
296.202	278.96
296.66	395.99
297.118	262.58
297.576	311.73
298.034	288.32
298.492	346.84
298.95	307.05
299.408	285.98
299.866	353.86
300.324	276.62
300.781	300.03
301.239	304.71
301.697	363.22
302.154	314.07
302.612	302.37
303.069	300.03
303.527	339.82
303.984	328.11
304.441	335.14
304.899	307.05
305.356	309.39
305.813	297.69
306.27	318.75
306.727	328.11
307.184	267.26
307.641	332.79
308.098	285.98
308.555	318.75
309.012	304.71
309.468	330.45
309.925	288.32
310.382	339.82
310.838	332.79
311.295	395.99
311.751	302.37
312.208	304.71
312.664	316.41
313.12	344.5
313.577	363.22
314.033	358.54
314.489	325.77
314.945	323.43
315.401	346.84
315.857	243.85
316.313	353.86
316.769	300.03
317.225	283.64
317.681	276.62
318.136	276.62
318.592	342.16
319.048	300.03
319.503	316.41
319.959	288.32
320.414	353.86
320.869	335.14
321.325	314.07
321.78	300.03
322.235	290.67
322.691	323.43
323.146	342.16
323.601	349.18
324.056	295.35
324.511	281.3
324.966	264.92
325.421	293.01
325.875	307.05
326.33	311.73
326.785	337.48
327.24	311.73
327.694	330.45
328.149	314.07
328.603	269.6
329.058	248.54
329.512	264.92
329.966	330.45
330.421	250.88
330.875	309.39
331.329	339.82
331.783	307.05
332.237	307.05
332.691	431.1
333.145	323.43
333.599	293.01
334.053	337.48
334.507	220.45
334.96	356.2
335.414	288.32
335.868	307.05
336.321	365.56
336.775	311.73
337.228	314.07
337.682	356.2
338.135	314.07
338.588	360.88
339.042	335.14
339.495	307.05
339.948	351.52
340.401	302.37
340.854	311.73
341.307	262.58
341.76	346.84
342.213	353.86
342.666	321.09
343.119	358.54
343.571	370.24
344.024	328.11
344.477	356.2
344.929	349.18
345.382	278.96
345.834	358.54
346.287	328.11
346.739	370.24
347.191	330.45
347.644	365.56
348.096	363.22
348.548	300.03
349	307.05
349.452	293.01
349.904	337.48
350.356	332.79
350.808	351.52
351.26	342.16
351.711	311.73
352.163	370.24
352.615	311.73
353.066	311.73
353.518	358.54
353.969	274.28
354.421	339.82
354.872	325.77
355.324	325.77
355.775	349.18
356.226	311.73
356.677	283.64
357.128	309.39
357.579	318.75
358.03	358.54
358.481	311.73
358.932	363.22
359.383	323.43
359.834	300.03
360.285	302.37
360.735	344.5
361.186	285.98
361.637	297.69
362.087	346.84
362.538	363.22
362.988	337.48
363.438	391.31
363.889	365.56
364.339	365.56
364.789	304.71
365.239	304.71
365.689	365.56
366.139	370.24
366.589	332.79
367.039	349.18
367.489	349.18
367.939	318.75
368.389	330.45
368.839	307.05
369.288	353.86
369.738	330.45
370.187	342.16
370.637	330.45
371.086	370.24
371.536	285.98
371.985	363.22
372.434	349.18
372.884	335.14
373.333	250.88
373.782	307.05
374.231	300.03
374.68	293.01
375.129	285.98
375.578	300.03
376.027	290.67
376.475	281.3
376.924	321.09
377.373	344.5
377.822	285.98
378.27	271.94
378.719	342.16
379.167	344.5
379.616	318.75
380.064	311.73
380.512	314.07
380.961	344.5
381.409	365.56
381.857	342.16
382.305	335.14
382.753	293.01
383.201	328.11
383.649	314.07
384.097	297.69
384.545	332.79
384.992	321.09
385.44	309.39
385.888	302.37
386.335	267.26
386.783	377.27
387.231	372.58
387.678	314.07
388.125	349.18
388.573	293.01
389.02	255.56
389.467	309.39
389.914	335.14
390.362	358.54
390.809	288.32
391.256	274.28
391.703	346.84
392.15	309.39
392.596	349.18
393.043	285.98
393.49	377.27
393.937	342.16
394.383	332.79
394.83	316.41
395.276	316.41
395.723	335.14
396.169	288.32
396.616	358.54
397.062	323.43
397.508	309.39
397.954	365.56
398.401	323.43
398.847	363.22
399.293	302.37
399.739	267.26
400.185	337.48
400.631	297.69
401.076	276.62
401.522	395.99
401.968	278.96
402.414	356.2
402.859	314.07
403.305	311.73
403.75	325.77
404.196	328.11
404.641	314.07
405.086	330.45
405.532	367.9
405.977	328.11
406.422	295.35
406.867	339.82
407.312	363.22
407.757	339.82
408.202	346.84
408.647	381.95
409.092	330.45
409.537	374.92
409.982	316.41
410.426	342.16
410.871	346.84
411.316	339.82
411.76	300.03
412.205	332.79
412.649	335.14
413.093	342.16
413.538	269.6
413.982	314.07
414.426	288.32
414.87	342.16
415.314	321.09
415.758	342.16
416.202	307.05
416.646	365.56
417.09	269.6
417.534	288.32
417.978	330.45
418.421	403.01
418.865	271.94
419.309	384.29
419.752	440.46
420.196	335.14
420.639	337.48
421.083	323.43
421.526	295.35
421.969	332.79
422.412	351.52
422.856	370.24
423.299	321.09
423.742	377.27
424.185	339.82
424.628	321.09
425.071	335.14
425.513	377.27
425.956	349.18
426.399	386.63
426.842	367.9
427.284	337.48
427.727	293.01
428.169	372.58
428.612	363.22
429.054	349.18
429.497	318.75
429.939	288.32
430.381	356.2
430.823	276.62
431.265	358.54
431.707	314.07
432.149	356.2
432.591	271.94
433.033	307.05
433.475	325.77
433.917	344.5
434.359	271.94
434.8	342.16
435.242	346.84
435.684	309.39
436.125	370.24
436.567	346.84
437.008	386.63
437.449	365.56
437.891	342.16
438.332	325.77
438.773	384.29
439.214	353.86
439.656	346.84
440.097	330.45
440.538	323.43
440.978	342.16
441.419	342.16
441.86	332.79
442.301	302.37
442.742	321.09
443.182	353.86
443.623	307.05
444.063	363.22
444.504	321.09
444.944	381.95
445.385	318.75
445.825	318.75
446.265	318.75
446.706	311.73
447.146	314.07
447.586	276.62
448.026	332.79
448.466	365.56
448.906	358.54
449.346	325.77
449.786	377.27
450.225	349.18
450.665	295.35
451.105	344.5
451.544	346.84
451.984	316.41
452.424	325.77
452.863	395.99
453.302	388.97
453.742	370.24
454.181	285.98
454.62	300.03
455.059	344.5
455.499	349.18
455.938	372.58
456.377	311.73
456.816	332.79
457.254	323.43
457.693	353.86
458.132	314.07
458.571	344.5
459.01	293.01
459.448	349.18
459.887	318.75
460.325	302.37
460.764	314.07
461.202	367.9
461.641	349.18
462.079	281.3
462.517	367.9
462.955	358.54
463.393	311.73
463.832	353.86
464.27	342.16
464.708	311.73
465.145	325.77
465.583	353.86
466.021	342.16
466.459	372.58
466.897	386.63
467.334	360.88
467.772	300.03
468.209	302.37
468.647	342.16
469.084	344.5
469.522	363.22
469.959	337.48
470.396	372.58
470.833	283.64
471.271	365.56
471.708	295.35
472.145	374.92
472.582	337.48
473.019	349.18
473.456	323.43
473.892	335.14
474.329	337.48
474.766	271.94
475.202	330.45
475.639	353.86
476.076	346.84
476.512	332.79
476.949	403.01
477.385	316.41
477.821	365.56
478.258	356.2
478.694	297.69
479.13	332.79
479.566	323.43
480.002	337.48
480.438	407.69
480.874	384.29
481.31	377.27
481.746	339.82
482.181	374.92
482.617	391.31
483.053	276.62
483.488	307.05
483.924	283.64
484.36	314.07
484.795	351.52
485.23	316.41
485.666	365.56
486.101	372.58
486.536	278.96
486.971	288.32
487.407	360.88
487.842	356.2
488.277	328.11
488.712	314.07
489.146	314.07
489.581	353.86
490.016	356.2
490.451	379.61
490.885	330.45
491.32	316.41
491.755	328.11
492.189	342.16
492.624	353.86
493.058	316.41
493.492	323.43
493.927	393.65
494.361	293.01
494.795	360.88
495.229	351.52
495.663	321.09
496.097	412.37
496.531	353.86
496.965	386.63
497.399	316.41
497.833	372.58
498.266	346.84
498.7	342.16
499.134	297.69
499.567	360.88
500.001	309.39
500.434	398.33
500.868	410.03
501.301	342.16
501.734	363.22
502.168	346.84
502.601	316.41
503.034	337.48
503.467	316.41
503.9	342.16
504.333	328.11
504.766	323.43
505.199	318.75
505.632	295.35
506.064	293.01
506.497	365.56
506.93	344.5
507.362	374.92
507.795	358.54
508.227	386.63
508.66	356.2
509.092	351.52
509.524	314.07
509.956	321.09
510.389	274.28
510.821	360.88
511.253	358.54
511.685	325.77
512.117	358.54
512.549	335.14
512.981	344.5
513.412	367.9
513.844	290.67
514.276	293.01
514.707	332.79
515.139	370.24
515.571	381.95
516.002	346.84
516.433	358.54
516.865	302.37
517.296	414.71
517.727	351.52
518.159	328.11
518.59	363.22
519.021	307.05
519.452	377.27
519.883	325.77
520.314	365.56
520.744	300.03
521.175	407.69
521.606	325.77
522.037	379.61
522.467	374.92
522.898	337.48
523.328	372.58
523.759	342.16
524.189	353.86
524.62	314.07
525.05	379.61
525.48	267.26
525.91	372.58
526.341	276.62
526.771	358.54
527.201	335.14
527.631	311.73
528.061	323.43
528.49	311.73
528.92	386.63
529.35	374.92
529.78	316.41
530.209	377.27
530.639	386.63
531.068	353.86
531.498	323.43
531.927	351.52
532.357	316.41
532.786	339.82
533.215	342.16
533.644	353.86
534.074	349.18
534.503	300.03
534.932	311.73
535.361	377.27
535.79	346.84
536.218	391.31
536.647	346.84
537.076	344.5
537.505	353.86
537.933	332.79
538.362	365.56
538.79	332.79
539.219	454.5
539.647	393.65
540.076	330.45
540.504	356.2
540.932	307.05
541.36	250.88
541.788	328.11
542.217	316.41
542.645	337.48
543.073	300.03
543.5	356.2
543.928	342.16
544.356	295.35
544.784	337.48
545.211	374.92
545.639	360.88
546.067	358.54
546.494	316.41
546.922	384.29
547.349	360.88
547.776	307.05
548.204	293.01
548.631	309.39
549.058	365.56
549.485	325.77
549.912	304.71
550.339	353.86
550.766	388.97
551.193	309.39
551.62	328.11
552.047	391.31
552.474	346.84
552.9	353.86
553.327	342.16
553.754	342.16
554.18	346.84
554.607	360.88
555.033	309.39
555.459	283.64
555.886	307.05
556.312	360.88
556.738	344.5
557.164	346.84
557.59	283.64
558.016	304.71
558.442	335.14
558.868	295.35
559.294	295.35
559.72	269.6
560.145	349.18
560.571	314.07
560.997	307.05
561.422	311.73
561.848	328.11
562.273	344.5
562.699	339.82
563.124	295.35
563.549	325.77
563.974	384.29
564.4	342.16
564.825	330.45
565.25	339.82
565.675	295.35
566.1	267.26
566.525	400.67
566.95	325.77
567.374	302.37
567.799	372.58
568.224	307.05
568.648	328.11
569.073	328.11
569.497	353.86
569.922	328.11
570.346	346.84
570.771	403.01
571.195	323.43
571.619	365.56
572.043	328.11
572.467	314.07
572.891	365.56
573.315	339.82
573.739	346.84
574.163	276.62
574.587	321.09
575.011	337.48
575.435	316.41
575.858	370.24
576.282	321.09
576.705	307.05
577.129	374.92
577.552	318.75
577.976	339.82
578.399	344.5
578.822	365.56
579.245	393.65
579.669	346.84
580.092	307.05
580.515	304.71
580.938	318.75
581.361	318.75
581.784	346.84
582.206	365.56
582.629	293.01
583.052	388.97
583.474	267.26
583.897	328.11
584.32	337.48
584.742	349.18
585.165	335.14
585.587	349.18
586.009	271.94
586.431	267.26
586.854	349.18
587.276	295.35
587.698	335.14
588.12	374.92
588.542	358.54
588.964	391.31
589.386	316.41
589.807	360.88
590.229	300.03
590.651	325.77
591.073	323.43
591.494	300.03
591.916	330.45
592.337	351.52
592.759	342.16
593.18	339.82
593.601	379.61
594.022	316.41
594.444	297.69
594.865	311.73
595.286	283.64
595.707	311.73
596.128	384.29
596.549	257.9
596.97	255.56
597.39	311.73
597.811	363.22
598.232	309.39
598.652	353.86
599.073	325.77
599.494	363.22
599.914	300.03
600.334	328.11
600.755	290.67
601.175	304.71
601.595	262.58
602.015	295.35
602.436	328.11
602.856	459.18
603.276	283.64
603.696	342.16
604.115	353.86
604.535	342.16
604.955	314.07
605.375	405.35
605.794	288.32
606.214	290.67
606.634	321.09
607.053	274.28
607.473	302.37
607.892	342.16
608.311	337.48
608.731	325.77
609.15	316.41
609.569	363.22
609.988	363.22
610.407	398.33
610.826	346.84
611.245	342.16
611.664	342.16
612.083	346.84
612.501	391.31
612.92	295.35
613.339	353.86
613.757	363.22
614.176	346.84
614.594	370.24
615.013	311.73
615.431	388.97
615.85	421.74
616.268	276.62
616.686	302.37
617.104	325.77
617.522	349.18
617.94	332.79
618.358	386.63
618.776	297.69
619.194	337.48
619.612	349.18
620.03	391.31
620.447	330.45
620.865	356.2
621.282	337.48
621.7	349.18
622.117	300.03
622.535	428.76
622.952	300.03
623.369	445.14
623.787	311.73
624.204	314.07
624.621	332.79
625.038	323.43
625.455	353.86
625.872	316.41
626.289	363.22
626.706	307.05
627.123	288.32
627.539	314.07
627.956	314.07
628.373	417.05
628.789	318.75
629.206	346.84
629.622	321.09
630.038	302.37
630.455	278.96
630.871	384.29
631.287	328.11
631.703	335.14
632.12	255.56
632.536	332.79
632.952	388.97
633.368	332.79
633.783	356.2
634.199	316.41
634.615	339.82
635.031	321.09
635.446	349.18
635.862	300.03
636.277	337.48
636.693	302.37
637.108	330.45
637.524	367.9
637.939	332.79
638.354	267.26
638.77	344.5
639.185	386.63
639.6	335.14
640.015	330.45
640.43	330.45
640.845	337.48
641.259	283.64
641.674	267.26
642.089	311.73
642.504	344.5
642.918	342.16
643.333	330.45
643.747	288.32
644.162	321.09
644.576	342.16
644.991	377.27
645.405	321.09
645.819	365.56
646.233	283.64
646.647	349.18
647.061	381.95
647.475	353.86
647.889	360.88
648.303	391.31
648.717	293.01
649.131	304.71
649.545	337.48
649.958	363.22
650.372	374.92
650.785	316.41
651.199	386.63
651.612	285.98
652.026	271.94
652.439	318.75
652.852	403.01
653.266	344.5
653.679	391.31
654.092	304.71
654.505	318.75
654.918	304.71
655.331	309.39
655.744	365.56
656.156	316.41
656.569	304.71
656.982	353.86
657.394	309.39
657.807	314.07
658.22	318.75
658.632	316.41
659.044	314.07
659.457	314.07
659.869	307.05
660.281	370.24
660.693	314.07
661.106	241.51
661.518	339.82
661.93	342.16
662.342	363.22
662.754	307.05
663.165	332.79
663.577	316.41
663.989	386.63
664.401	323.43
664.812	318.75
665.224	321.09
665.635	332.79
666.047	325.77
666.458	335.14
666.869	290.67
667.281	297.69
667.692	344.5
668.103	328.11
668.514	267.26
668.925	300.03
669.336	346.84
669.747	356.2
670.158	328.11
670.569	428.76
670.979	337.48
671.39	318.75
671.801	295.35
672.211	290.67
672.622	318.75
673.032	323.43
673.443	337.48
673.853	325.77
674.263	328.11
674.674	356.2
675.084	316.41
675.494	342.16
675.904	342.16
676.314	346.84
676.724	290.67
677.134	337.48
677.544	321.09
677.953	344.5
678.363	374.92
678.773	342.16
679.182	337.48
679.592	307.05
680.001	374.92
680.411	346.84
680.82	302.37
681.23	243.85
681.639	300.03
682.048	346.84
682.457	290.67
682.866	288.32
683.275	314.07
683.684	337.48
684.093	346.84
684.502	285.98
684.911	388.97
685.32	316.41
685.728	332.79
686.137	332.79
686.546	339.82
686.954	353.86
687.363	290.67
687.771	297.69
688.179	344.5
688.588	335.14
688.996	360.88
689.404	337.48
689.812	285.98
690.22	300.03
690.628	365.56
691.036	274.28
691.444	337.48
691.852	372.58
692.26	351.52
692.667	356.2
693.075	297.69
693.483	300.03
693.89	332.79
694.298	316.41
694.705	403.01
695.112	309.39
695.52	285.98
695.927	358.54
696.334	351.52
696.741	248.54
697.148	290.67
697.555	288.32
697.962	339.82
698.369	344.5
698.776	377.27
699.183	314.07
699.59	374.92
699.996	307.05
700.403	356.2
700.81	269.6
701.216	372.58
701.623	318.75
702.029	346.84
702.435	342.16
702.842	342.16
703.248	365.56
703.654	318.75
704.06	304.71
704.466	358.54
704.872	349.18
705.278	351.52
705.684	300.03
706.09	330.45
706.496	339.82
706.901	335.14
707.307	316.41
707.712	351.52
708.118	335.14
708.523	307.05
708.929	323.43
709.334	314.07
709.74	335.14
710.145	337.48
710.55	374.92
710.955	288.32
711.36	302.37
711.765	304.71
712.17	318.75
712.575	285.98
712.98	974.1
713.385	377.27
713.789	302.37
714.194	318.75
714.599	377.27
715.003	346.84
715.408	297.69
715.812	335.14
716.217	295.35
716.621	344.5
717.025	365.56
717.429	337.48
717.833	318.75
718.238	330.45
718.642	318.75
719.046	351.52
719.449	295.35
719.853	271.94
720.257	330.45
720.661	351.52
721.065	288.32
721.468	335.14
721.872	285.98
722.275	311.73
722.679	307.05
723.082	403.01
723.485	262.58
723.889	283.64
724.292	363.22
724.695	323.43
725.098	276.62
725.501	346.84
725.904	335.14
726.307	332.79
726.71	288.32
727.113	255.56
727.516	328.11
727.918	295.35
728.321	335.14
728.724	309.39
729.126	278.96
729.529	346.84
729.931	363.22
730.333	370.24
730.736	309.39
731.138	342.16
731.54	337.48
731.942	285.98
732.344	264.92
732.746	267.26
733.148	344.5
733.55	276.62
733.952	372.58
734.354	288.32
734.756	330.45
735.157	253.22
735.559	316.41
735.96	314.07
736.362	314.07
736.763	293.01
737.165	239.17
737.566	300.03
737.967	377.27
738.368	344.5
738.77	316.41
739.171	349.18
739.572	403.01
739.973	311.73
740.374	295.35
740.774	295.35
741.175	335.14
741.576	323.43
741.977	302.37
742.377	325.77
742.778	339.82
743.178	346.84
743.579	353.86
743.979	344.5
744.379	318.75
744.78	325.77
745.18	342.16
745.58	285.98
745.98	300.03
746.38	314.07
746.78	365.56
747.18	358.54
747.58	325.77
747.98	262.58
748.38	325.77
748.779	360.88
749.179	260.24
749.578	342.16
749.978	314.07
750.377	328.11
750.777	307.05
751.176	300.03
751.575	269.6
751.975	293.01
752.374	374.92
752.773	257.9
753.172	356.2
753.571	356.2
753.97	367.9
754.369	285.98
754.768	363.22
755.166	281.3
755.565	267.26
755.964	339.82
756.362	311.73
756.761	337.48
757.159	276.62
757.558	367.9
757.956	307.05
758.354	339.82
758.753	356.2
759.151	363.22
759.549	302.37
759.947	314.07
760.345	297.69
760.743	323.43
761.141	300.03
761.539	274.28
761.936	377.27
762.334	393.65
762.732	316.41
763.129	314.07
763.527	372.58
763.924	302.37
764.322	393.65
