Data from Al_FLMS009871__231__12-14-44-757.txt Node

Date: Fri Mar 08 12:14:44 CST 2024
User: pe5414po
Spectrometer: FLMS00987
Trigger mode: 0
Integration Time (sec): 1.000000E-1
Scans to average: 1
Electric dark correction enabled: true
Nonlinearity correction enabled: false
Boxcar width: 0
XAxis mode: Wavelengths
Number of Pixels in Spectrum: 2048
>>>>>Begin Spectral Data<<<<<
188.938	24.43
189.409	24.43
189.879	24.43
190.349	-130.05
190.819	-116
191.29	-99.62
191.76	-155.79
192.23	-153.45
192.7	-120.68
193.17	-52.81
193.64	-27.06
194.109	-31.74
194.579	8.05
195.049	15.07
195.519	99.33
195.988	52.52
196.458	40.81
196.927	78.26
197.397	87.62
197.866	139.12
198.336	120.39
198.805	174.22
199.274	127.41
199.744	169.54
200.213	251.46
200.682	181.25
201.151	167.2
201.62	288.91
202.089	249.12
202.558	242.1
203.027	239.76
203.495	260.82
203.964	265.5
204.433	246.78
204.902	293.59
205.37	284.23
205.839	298.27
206.307	314.66
206.776	328.7
207.244	309.97
207.712	309.97
208.181	312.32
208.649	293.59
209.117	328.7
209.585	295.93
210.053	338.06
210.521	295.93
210.989	309.97
211.457	319.34
211.925	232.74
212.393	235.08
212.861	326.36
213.328	267.85
213.796	295.93
214.264	293.59
214.731	309.97
215.199	265.5
215.666	288.91
216.133	284.23
216.601	291.25
217.068	258.48
217.535	300.61
218.003	256.14
218.47	295.93
218.937	267.85
219.404	260.82
219.871	244.44
220.338	305.29
220.805	284.23
221.271	284.23
221.738	223.37
222.205	277.21
222.671	298.27
223.138	291.25
223.605	295.93
224.071	274.87
224.538	331.04
225.004	256.14
225.47	225.72
225.937	293.59
226.403	267.85
226.869	239.76
227.335	305.29
227.801	211.67
228.267	277.21
228.733	279.55
229.199	256.14
229.665	293.59
230.131	302.95
230.597	326.36
231.062	312.32
231.528	314.66
231.994	295.93
232.459	328.7
232.925	293.59
233.39	244.44
233.856	270.19
234.321	302.95
234.786	267.85
235.252	272.53
235.717	230.4
236.182	288.91
236.647	300.61
237.112	284.23
237.577	272.53
238.042	317
238.507	335.72
238.972	314.66
239.436	263.16
239.901	281.89
240.366	302.95
240.83	321.68
241.295	251.46
241.76	347.42
242.224	305.29
242.688	324.02
243.153	338.06
243.617	331.04
244.081	300.61
244.545	251.46
245.01	265.5
245.474	272.53
245.938	281.89
246.402	286.57
246.866	354.44
247.33	328.7
247.793	272.53
248.257	281.89
248.721	293.59
249.185	246.78
249.648	300.61
250.112	281.89
250.575	206.99
251.039	342.74
251.502	263.16
251.965	249.12
252.429	375.51
252.892	305.29
253.355	317
253.818	300.61
254.281	237.42
254.744	281.89
255.207	288.91
255.67	279.55
256.133	253.8
256.596	347.42
257.059	300.61
257.522	251.46
257.984	284.23
258.447	356.79
258.909	295.93
259.372	305.29
259.834	288.91
260.297	277.21
260.759	277.21
261.221	331.04
261.684	354.44
262.146	312.32
262.608	302.95
263.07	265.5
263.532	277.21
263.994	354.44
264.456	309.97
264.918	300.61
265.38	291.25
265.842	349.76
266.303	307.63
266.765	394.23
267.227	319.34
267.688	291.25
268.15	295.93
268.611	326.36
269.072	267.85
269.534	309.97
269.995	272.53
270.456	345.08
270.918	307.63
271.379	256.14
271.84	333.38
272.301	281.89
272.762	335.72
273.223	321.68
273.684	263.16
274.144	274.87
274.605	361.47
275.066	331.04
275.527	309.97
275.987	314.66
276.448	253.8
276.908	354.44
277.369	277.21
277.829	328.7
278.289	302.95
278.75	309.97
279.21	237.42
279.67	331.04
280.13	309.97
280.59	361.47
281.05	309.97
281.51	314.66
281.97	295.93
282.43	356.79
282.89	265.5
283.35	319.34
283.809	335.72
284.269	396.57
284.729	394.23
285.188	324.02
285.648	295.93
286.107	298.27
286.567	352.1
287.026	309.97
287.485	317
287.944	326.36
288.404	293.59
288.863	312.32
289.322	324.02
289.781	317
290.24	317
290.699	319.34
291.158	277.21
291.616	284.23
292.075	279.55
292.534	317
292.992	347.42
293.451	209.33
293.91	272.53
294.368	382.53
294.827	279.55
295.285	314.66
295.743	338.06
296.202	300.61
296.66	326.36
297.118	331.04
297.576	382.53
298.034	333.38
298.492	324.02
298.95	349.76
299.408	352.1
299.866	387.21
300.324	274.87
300.781	321.68
301.239	333.38
301.697	293.59
302.154	319.34
302.612	314.66
303.069	342.74
303.527	302.95
303.984	328.7
304.441	328.7
304.899	321.68
305.356	265.5
305.813	356.79
306.27	328.7
306.727	324.02
307.184	333.38
307.641	328.7
308.098	342.74
308.555	309.97
309.012	209.33
309.468	354.44
309.925	356.79
310.382	317
310.838	309.97
311.295	356.79
311.751	298.27
312.208	295.93
312.664	298.27
313.12	291.25
313.577	324.02
314.033	302.95
314.489	349.76
314.945	317
315.401	249.12
315.857	298.27
316.313	286.57
316.769	300.61
317.225	302.95
317.681	298.27
318.136	298.27
318.592	312.32
319.048	314.66
319.503	305.29
319.959	288.91
320.414	312.32
320.869	253.8
321.325	298.27
321.78	204.65
322.235	349.76
322.691	272.53
323.146	375.51
323.601	326.36
324.056	387.21
324.511	324.02
324.966	267.85
325.421	347.42
325.875	321.68
326.33	370.83
326.785	274.87
327.24	349.76
327.694	342.74
328.149	281.89
328.603	335.72
329.058	352.1
329.512	380.19
329.966	218.69
330.421	235.08
330.875	396.57
331.329	298.27
331.783	321.68
332.237	277.21
332.691	347.42
333.145	356.79
333.599	321.68
334.053	342.74
334.507	321.68
334.96	305.29
335.414	314.66
335.868	384.87
336.321	307.63
336.775	286.57
337.228	345.08
337.682	298.27
338.135	314.66
338.588	302.95
339.042	354.44
339.495	321.68
339.948	340.4
340.401	377.85
340.854	338.06
341.307	312.32
341.76	333.38
342.213	319.34
342.666	263.16
343.119	324.02
343.571	338.06
344.024	321.68
344.477	370.83
344.929	347.42
345.382	345.08
345.834	361.47
346.287	267.85
346.739	298.27
347.191	338.06
347.644	298.27
348.096	317
348.548	302.95
349	270.19
349.452	356.79
349.904	298.27
350.356	302.95
350.808	305.29
351.26	345.08
351.711	356.79
352.163	335.72
352.615	361.47
353.066	326.36
353.518	391.89
353.969	389.55
354.421	345.08
354.872	288.91
355.324	331.04
355.775	335.72
356.226	256.14
356.677	270.19
357.128	312.32
357.579	314.66
358.03	317
358.481	305.29
358.932	298.27
359.383	309.97
359.834	415.3
360.285	312.32
360.735	302.95
361.186	326.36
361.637	305.29
362.087	324.02
362.538	333.38
362.988	253.8
363.438	317
363.889	317
364.339	345.08
364.789	363.81
365.239	319.34
365.689	317
366.139	377.85
366.589	274.87
367.039	321.68
367.489	300.61
367.939	270.19
368.389	291.25
368.839	249.12
369.288	347.42
369.738	291.25
370.187	312.32
370.637	305.29
371.086	312.32
371.536	347.42
371.985	328.7
372.434	249.12
372.884	340.4
373.333	324.02
373.782	380.19
374.231	319.34
374.68	354.44
375.129	319.34
375.578	307.63
376.027	284.23
376.475	295.93
376.924	331.04
377.373	286.57
377.822	312.32
378.27	277.21
378.719	274.87
379.167	319.34
379.616	354.44
380.064	309.97
380.512	331.04
380.961	352.1
381.409	342.74
381.857	331.04
382.305	319.34
382.753	314.66
383.201	302.95
383.649	335.72
384.097	277.21
384.545	277.21
384.992	377.85
385.44	300.61
385.888	340.4
386.335	377.85
386.783	321.68
387.231	366.15
387.678	319.34
388.125	356.79
388.573	338.06
389.02	342.74
389.467	352.1
389.914	361.47
390.362	314.66
390.809	352.1
391.256	302.95
391.703	298.27
392.15	340.4
392.596	410.62
393.043	382.53
393.49	356.79
393.937	335.72
394.383	338.06
394.83	293.59
395.276	321.68
395.723	319.34
396.169	298.27
396.616	352.1
397.062	314.66
397.508	277.21
397.954	370.83
398.401	317
398.847	359.13
399.293	368.49
399.739	331.04
400.185	354.44
400.631	298.27
401.076	300.61
401.522	370.83
401.968	291.25
402.414	368.49
402.859	288.91
403.305	380.19
403.75	363.81
404.196	291.25
404.641	361.47
405.086	331.04
405.532	326.36
405.977	349.76
406.422	319.34
406.867	349.76
407.312	342.74
407.757	298.27
408.202	286.57
408.647	347.42
409.092	347.42
409.537	321.68
409.982	368.49
410.426	293.59
410.871	370.83
411.316	370.83
411.76	309.97
412.205	342.74
412.649	370.83
413.093	349.76
413.538	284.23
413.982	412.96
414.426	335.72
414.87	274.87
415.314	281.89
415.758	235.08
416.202	370.83
416.646	377.85
417.09	356.79
417.534	328.7
417.978	328.7
418.421	377.85
418.865	356.79
419.309	281.89
419.752	380.19
420.196	324.02
420.639	384.87
421.083	384.87
421.526	361.47
421.969	391.89
422.412	419.98
422.856	333.38
423.299	366.15
423.742	312.32
424.185	331.04
424.628	307.63
425.071	298.27
425.513	309.97
425.956	309.97
426.399	408.28
426.842	354.44
427.284	321.68
427.727	436.36
428.169	427
428.612	419.98
429.054	401.26
429.497	300.61
429.939	443.39
430.381	335.72
430.823	434.02
431.265	382.53
431.707	366.15
432.149	394.23
432.591	401.26
433.033	347.42
433.475	471.47
433.917	403.6
434.359	469.13
434.8	508.92
435.242	548.71
435.684	553.39
436.125	558.07
436.567	459.77
437.008	520.62
437.449	457.43
437.891	455.09
438.332	490.2
438.773	464.45
439.214	480.83
439.656	377.85
440.097	401.26
440.538	501.9
440.978	471.47
441.419	478.49
441.86	511.26
442.301	476.15
442.742	541.69
443.182	455.09
443.623	459.77
444.063	522.96
444.504	541.69
444.944	527.64
445.385	485.51
445.825	431.68
446.265	452.75
446.706	546.37
447.146	501.9
447.586	518.28
448.026	544.03
448.466	427
448.906	506.58
449.346	551.05
449.786	483.17
450.225	544.03
450.665	551.05
451.105	525.3
451.544	532.33
451.984	452.75
452.424	534.67
452.863	438.7
453.302	497.22
453.742	438.7
454.181	501.9
454.62	511.26
455.059	457.43
455.499	459.77
455.938	476.15
456.377	434.02
456.816	443.39
457.254	419.98
457.693	464.45
458.132	410.62
458.571	455.09
459.01	441.04
459.448	448.07
459.887	476.15
460.325	504.24
460.764	349.76
461.202	450.41
461.641	480.83
462.079	485.51
462.517	419.98
462.955	398.92
463.393	431.68
463.832	436.36
464.27	462.11
464.708	401.26
465.145	405.94
465.583	436.36
466.021	490.2
466.459	389.55
466.897	354.44
467.334	394.23
467.772	359.13
468.209	483.17
468.647	396.57
469.084	448.07
469.522	370.83
469.959	412.96
470.396	359.13
470.833	394.23
471.271	396.57
471.708	368.49
472.145	328.7
472.582	441.04
473.019	356.79
473.456	427
473.892	356.79
474.329	366.15
474.766	366.15
475.202	309.97
475.639	321.68
476.076	403.6
476.512	408.28
476.949	342.74
477.385	366.15
477.821	417.64
478.258	380.19
478.694	312.32
479.13	363.81
479.566	370.83
480.002	387.21
480.438	405.94
480.874	417.64
481.31	317
481.746	410.62
482.181	436.36
482.617	427
483.053	424.66
483.488	466.79
483.924	438.7
484.36	405.94
484.795	448.07
485.23	398.92
485.666	457.43
486.101	508.92
486.536	422.32
486.971	485.51
487.407	382.53
487.842	466.79
488.277	455.09
488.712	464.45
489.146	466.79
489.581	373.17
490.016	508.92
490.451	448.07
490.885	424.66
491.32	462.11
491.755	419.98
492.189	389.55
492.624	424.66
493.058	427
493.492	455.09
493.927	419.98
494.361	373.17
494.795	427
495.229	424.66
495.663	508.92
496.097	396.57
496.531	429.34
496.965	434.02
497.399	459.77
497.833	408.28
498.266	389.55
498.7	382.53
499.134	398.92
499.567	403.6
500.001	429.34
500.434	405.94
500.868	382.53
501.301	410.62
501.734	366.15
502.168	429.34
502.601	473.81
503.034	410.62
503.467	405.94
503.9	473.81
504.333	354.44
504.766	424.66
505.199	443.39
505.632	431.68
506.064	377.85
506.497	345.08
506.93	427
507.362	445.73
507.795	394.23
508.227	441.04
508.66	391.89
509.092	471.47
509.524	401.26
509.956	403.6
510.389	412.96
510.821	373.17
511.253	389.55
511.685	410.62
512.117	398.92
512.549	459.77
512.981	377.85
513.412	419.98
513.844	466.79
514.276	391.89
514.707	441.04
515.139	441.04
515.571	466.79
516.002	471.47
516.433	415.3
516.865	441.04
517.296	497.22
517.727	462.11
518.159	417.64
518.59	473.81
519.021	412.96
519.452	366.15
519.883	501.9
520.314	438.7
520.744	424.66
521.175	450.41
521.606	464.45
522.037	405.94
522.467	452.75
522.898	427
523.328	431.68
523.759	424.66
524.189	450.41
524.62	431.68
525.05	429.34
525.48	408.28
525.91	427
526.341	366.15
526.771	445.73
527.201	410.62
527.631	415.3
528.061	387.21
528.49	398.92
528.92	434.02
529.35	448.07
529.78	506.58
530.209	398.92
530.639	424.66
531.068	417.64
531.498	391.89
531.927	436.36
532.357	401.26
532.786	445.73
533.215	485.51
533.644	490.2
534.074	382.53
534.503	518.28
534.932	434.02
535.361	405.94
535.79	431.68
536.218	410.62
536.647	427
537.076	417.64
537.505	487.86
537.933	436.36
538.362	485.51
538.79	490.2
539.219	471.47
539.647	459.77
540.076	452.75
540.504	546.37
540.932	623.61
541.36	572.11
541.788	689.14
542.217	745.31
542.645	735.95
543.073	742.97
543.5	792.13
543.928	724.25
544.356	757.02
544.784	789.78
545.211	782.76
545.639	724.25
546.067	750
546.494	621.27
546.922	637.65
547.349	579.14
547.776	520.62
548.204	473.81
548.631	534.67
549.058	459.77
549.485	466.79
549.912	476.15
550.339	546.37
550.766	483.17
551.193	525.3
551.62	532.33
552.047	518.28
552.474	534.67
552.9	466.79
553.327	487.86
553.754	490.2
554.18	422.32
554.607	431.68
555.033	405.94
555.459	464.45
555.886	450.41
556.312	455.09
556.738	403.6
557.164	450.41
557.59	396.57
558.016	431.68
558.442	368.49
558.868	436.36
559.294	450.41
559.72	398.92
560.145	436.36
560.571	431.68
560.997	424.66
561.422	384.87
561.848	476.15
562.273	410.62
562.699	464.45
563.124	436.36
563.549	403.6
563.974	429.34
564.4	457.43
564.825	462.11
565.25	476.15
565.675	469.13
566.1	368.49
566.525	401.26
566.95	469.13
567.374	410.62
567.799	352.1
568.224	487.86
568.648	504.24
569.073	469.13
569.497	419.98
569.922	419.98
570.346	422.32
570.771	471.47
571.195	478.49
571.619	368.49
572.043	424.66
572.467	436.36
572.891	291.25
573.315	417.64
573.739	417.64
574.163	398.92
574.587	429.34
575.011	412.96
575.435	410.62
575.858	448.07
576.282	466.79
576.705	480.83
577.129	483.17
577.552	476.15
577.976	438.7
578.399	396.57
578.822	487.86
579.245	457.43
579.669	494.88
580.092	508.92
580.515	469.13
580.938	398.92
581.361	476.15
581.784	480.83
582.206	436.36
582.629	459.77
583.052	466.79
583.474	508.92
583.897	520.62
584.32	452.75
584.742	455.09
585.165	448.07
585.587	497.22
586.009	462.11
586.431	501.9
586.854	457.43
587.276	471.47
587.698	478.49
588.12	431.68
588.542	513.6
588.964	508.92
589.386	445.73
589.807	469.13
590.229	436.36
590.651	405.94
591.073	380.19
591.494	466.79
591.916	394.23
592.337	368.49
592.759	478.49
593.18	452.75
593.601	443.39
594.022	441.04
594.444	417.64
594.865	455.09
595.286	450.41
595.707	427
596.128	394.23
596.549	466.79
596.97	471.47
597.39	403.6
597.811	462.11
598.232	436.36
598.652	359.13
599.073	450.41
599.494	412.96
599.914	422.32
600.334	349.76
600.755	455.09
601.175	417.64
601.595	384.87
602.015	422.32
602.436	436.36
602.856	532.33
603.276	438.7
603.696	394.23
604.115	384.87
604.535	382.53
604.955	429.34
605.375	387.21
605.794	328.7
606.214	441.04
606.634	382.53
607.053	387.21
607.473	478.49
607.892	427
608.311	483.17
608.731	452.75
609.15	492.54
609.569	614.24
609.988	574.46
610.407	771.06
610.826	820.21
611.245	855.32
611.664	766.38
612.083	665.74
612.501	750
612.92	686.8
613.339	656.37
613.757	522.96
614.176	525.3
614.594	473.81
615.013	497.22
615.431	469.13
615.85	508.92
616.268	455.09
616.686	438.7
617.104	417.64
617.522	422.32
617.94	427
618.358	438.7
618.776	363.81
619.194	354.44
619.612	412.96
620.03	410.62
620.447	429.34
620.865	443.39
621.282	396.57
621.7	436.36
622.117	471.47
622.535	382.53
622.952	431.68
623.369	436.36
623.787	424.66
624.204	356.79
624.621	438.7
625.038	412.96
625.455	424.66
625.872	375.51
626.289	403.6
626.706	452.75
627.123	380.19
627.539	464.45
627.956	394.23
628.373	398.92
628.789	338.06
629.206	401.26
629.622	457.43
630.038	370.83
630.455	368.49
630.871	370.83
631.287	438.7
631.703	359.13
632.12	396.57
632.536	403.6
632.952	368.49
633.368	401.26
633.783	333.38
634.199	380.19
634.615	352.1
635.031	403.6
635.446	298.27
635.862	363.81
636.277	359.13
636.693	349.76
637.108	398.92
637.524	373.17
637.939	349.76
638.354	384.87
638.77	342.74
639.185	321.68
639.6	340.4
640.015	427
640.43	324.02
640.845	307.63
641.259	300.61
641.674	291.25
642.089	373.17
642.504	359.13
642.918	349.76
643.333	384.87
643.747	324.02
644.162	405.94
644.576	408.28
644.991	370.83
645.405	314.66
645.819	349.76
646.233	342.74
646.647	368.49
647.061	382.53
647.475	340.4
647.889	324.02
648.303	345.08
648.717	398.92
649.131	354.44
649.545	366.15
649.958	368.49
650.372	368.49
650.785	321.68
651.199	317
651.612	239.76
652.026	286.57
652.439	319.34
652.852	366.15
653.266	382.53
653.679	302.95
654.092	429.34
654.505	338.06
654.918	403.6
655.331	326.36
655.744	338.06
656.156	340.4
656.569	412.96
656.982	366.15
657.394	307.63
657.807	384.87
658.22	352.1
658.632	300.61
659.044	375.51
659.457	340.4
659.869	333.38
660.281	396.57
660.693	291.25
661.106	375.51
661.518	403.6
661.93	321.68
662.342	342.74
662.754	389.55
663.165	291.25
663.577	300.61
663.989	295.93
664.401	363.81
664.812	317
665.224	380.19
665.635	300.61
666.047	307.63
666.458	321.68
666.869	298.27
667.281	396.57
667.692	291.25
668.103	373.17
668.514	347.42
668.925	368.49
669.336	267.85
669.747	333.38
670.158	349.76
670.569	380.19
670.979	342.74
671.39	424.66
671.801	349.76
672.211	277.21
672.622	331.04
673.032	438.7
673.443	328.7
673.853	375.51
674.263	391.89
674.674	291.25
675.084	317
675.494	356.79
675.904	338.06
676.314	349.76
676.724	352.1
677.134	317
677.544	324.02
677.953	342.74
678.363	352.1
678.773	396.57
679.182	401.26
679.592	363.81
680.001	363.81
680.411	354.44
680.82	366.15
681.23	345.08
681.639	298.27
682.048	443.39
682.457	321.68
682.866	314.66
683.275	279.55
683.684	391.89
684.093	347.42
684.502	328.7
684.911	382.53
685.32	340.4
685.728	293.59
686.137	338.06
686.546	403.6
686.954	373.17
687.363	324.02
687.771	309.97
688.179	342.74
688.588	361.47
688.996	340.4
689.404	354.44
689.812	309.97
690.22	391.89
690.628	307.63
691.036	333.38
691.444	349.76
691.852	380.19
692.26	340.4
692.667	349.76
693.075	340.4
693.483	319.34
693.89	317
694.298	333.38
694.705	352.1
695.112	356.79
695.52	324.02
695.927	396.57
696.334	321.68
696.741	279.55
697.148	361.47
697.555	326.36
697.962	352.1
698.369	352.1
698.776	302.95
699.183	312.32
699.59	354.44
699.996	377.85
700.403	274.87
700.81	305.29
701.216	384.87
701.623	363.81
702.029	347.42
702.435	380.19
702.842	349.76
703.248	319.34
703.654	284.23
704.06	309.97
704.466	363.81
704.872	347.42
705.278	324.02
705.684	417.64
706.09	412.96
706.496	396.57
706.901	352.1
707.307	307.63
707.712	368.49
708.118	375.51
708.523	408.28
708.929	354.44
709.334	307.63
709.74	352.1
710.145	370.83
710.55	312.32
710.955	377.85
711.36	274.87
711.765	331.04
712.17	401.26
712.575	356.79
712.98	895.11
713.385	366.15
713.789	380.19
714.194	340.4
714.599	352.1
715.003	345.08
715.408	328.7
715.812	260.82
716.217	384.87
716.621	317
717.025	359.13
717.429	286.57
717.833	331.04
718.238	281.89
718.642	391.89
719.046	324.02
719.449	293.59
719.853	319.34
720.257	347.42
720.661	363.81
721.065	312.32
721.468	314.66
721.872	347.42
722.275	244.44
722.679	331.04
723.082	319.34
723.485	331.04
723.889	305.29
724.292	370.83
724.695	370.83
725.098	366.15
725.501	291.25
725.904	368.49
726.307	331.04
726.71	331.04
727.113	352.1
727.516	277.21
727.918	281.89
728.321	342.74
728.724	300.61
729.126	377.85
729.529	368.49
729.931	352.1
730.333	368.49
730.736	338.06
731.138	314.66
731.54	281.89
731.942	317
732.344	314.66
732.746	281.89
733.148	349.76
733.55	347.42
733.952	331.04
734.354	284.23
734.756	328.7
735.157	361.47
735.559	333.38
735.96	375.51
736.362	431.68
736.763	324.02
737.165	326.36
737.566	340.4
737.967	342.74
738.368	300.61
738.77	331.04
739.171	317
739.572	352.1
739.973	326.36
740.374	342.74
740.774	366.15
741.175	391.89
741.576	345.08
741.977	396.57
742.377	340.4
742.778	221.03
743.178	354.44
743.579	335.72
743.979	338.06
744.379	338.06
744.78	307.63
745.18	368.49
745.58	317
745.98	347.42
746.38	342.74
746.78	260.82
747.18	291.25
747.58	317
747.98	286.57
748.38	274.87
748.779	274.87
749.179	286.57
749.578	340.4
749.978	317
750.377	361.47
750.777	342.74
751.176	312.32
751.575	333.38
751.975	340.4
752.374	312.32
752.773	349.76
753.172	235.08
753.571	317
753.97	352.1
754.369	375.51
754.768	309.97
755.166	366.15
755.565	335.72
755.964	335.72
756.362	314.66
756.761	333.38
757.159	314.66
757.558	340.4
757.956	345.08
758.354	345.08
758.753	396.57
759.151	363.81
759.549	328.7
759.947	312.32
760.345	288.91
760.743	328.7
761.141	326.36
761.539	384.87
761.936	389.55
762.334	256.14
762.732	263.16
763.129	317
763.527	300.61
763.924	340.4
764.322	328.7
764.719	300.61
765.117	387.21
765.514	277.21
765.911	295.93
766.308	272.53
766.705	352.1
767.102	352.1
767.499	326.36
767.896	307.63
768.293	281.89
