Data from Al_FLMS009871__232__12-14-44-854.txt Node

Date: Fri Mar 08 12:14:44 CST 2024
User: pe5414po
Spectrometer: FLMS00987
Trigger mode: 0
Integration Time (sec): 1.000000E-1
Scans to average: 1
Electric dark correction enabled: true
Nonlinearity correction enabled: false
Boxcar width: 0
XAxis mode: Wavelengths
Number of Pixels in Spectrum: 2048
>>>>>Begin Spectral Data<<<<<
188.938	-129.31
189.409	-129.31
189.879	-129.31
190.349	-94.21
190.819	-105.91
191.29	-59.1
191.76	-143.36
192.23	-145.7
192.7	-14.63
193.17	-84.84
193.64	-66.12
194.109	-61.44
194.579	15.8
195.049	15.8
195.519	8.78
195.988	41.54
196.458	114.1
196.927	46.23
197.397	116.44
197.866	74.31
198.336	142.19
198.805	165.59
199.274	139.85
199.744	170.27
200.213	172.61
200.682	198.36
201.151	219.43
201.62	214.74
202.089	212.4
202.558	226.45
203.027	273.26
203.495	249.85
203.964	247.51
204.433	196.02
204.902	277.94
205.37	343.47
205.839	322.41
206.307	235.81
206.776	275.6
207.244	270.92
207.712	252.19
208.181	301.34
208.649	263.9
209.117	338.79
209.585	261.55
210.053	299
210.521	254.53
210.989	291.98
211.457	418.37
211.925	294.32
212.393	294.32
212.861	306.03
213.328	273.26
213.796	252.19
214.264	399.65
214.731	291.98
215.199	280.28
215.666	310.71
216.133	238.15
216.601	284.96
217.068	263.9
217.535	284.96
218.003	217.08
218.47	287.3
218.937	310.71
219.404	263.9
219.871	282.62
220.338	291.98
220.805	224.11
221.271	263.9
221.738	249.85
222.205	240.49
222.671	287.3
223.138	214.74
223.605	259.21
224.071	228.79
224.538	242.83
225.004	289.64
225.47	289.64
225.937	256.87
226.403	221.77
226.869	153.89
227.335	317.73
227.801	270.92
228.267	287.3
228.733	275.6
229.199	287.3
229.665	270.92
230.131	275.6
230.597	196.02
231.062	217.08
231.528	299
231.994	275.6
232.459	315.39
232.925	331.77
233.39	249.85
233.856	158.57
234.321	273.26
234.786	280.28
235.252	324.75
235.717	322.41
236.182	266.24
236.647	315.39
237.112	322.41
237.577	228.79
238.042	240.49
238.507	217.08
238.972	247.51
239.436	277.94
239.901	315.39
240.366	299
240.83	231.13
241.295	217.08
241.76	228.79
242.224	256.87
242.688	210.06
243.153	247.51
243.617	320.07
244.081	231.13
244.545	259.21
245.01	296.66
245.474	334.11
245.938	240.49
246.402	294.32
246.866	186.66
247.33	270.92
247.793	252.19
248.257	252.19
248.721	334.11
249.185	289.64
249.648	214.74
250.112	322.41
250.575	266.24
251.039	261.55
251.502	294.32
251.965	275.6
252.429	329.43
252.892	334.11
253.355	289.64
253.818	277.94
254.281	254.53
254.744	273.26
255.207	210.06
255.67	327.09
256.133	205.38
256.596	282.62
257.059	306.03
257.522	324.75
257.984	303.68
258.447	270.92
258.909	259.21
259.372	280.28
259.834	252.19
260.297	282.62
260.759	266.24
261.221	252.19
261.684	317.73
262.146	317.73
262.608	254.53
263.07	291.98
263.532	303.68
263.994	256.87
264.456	256.87
264.918	282.62
265.38	310.71
265.842	301.34
266.303	320.07
266.765	259.21
267.227	390.28
267.688	259.21
268.15	296.66
268.611	306.03
269.072	252.19
269.534	247.51
269.995	270.92
270.456	284.96
270.918	181.98
271.379	280.28
271.84	291.98
272.301	266.24
272.762	291.98
273.223	310.71
273.684	238.15
274.144	277.94
274.605	231.13
275.066	268.58
275.527	352.84
275.987	240.49
276.448	336.45
276.908	294.32
277.369	322.41
277.829	275.6
278.289	289.64
278.75	299
279.21	277.94
279.67	282.62
280.13	277.94
280.59	219.43
281.05	308.37
281.51	233.47
281.97	259.21
282.43	355.18
282.89	254.53
283.35	299
283.809	270.92
284.269	303.68
284.729	275.6
285.188	338.79
285.648	289.64
286.107	270.92
286.567	306.03
287.026	348.15
287.485	235.81
287.944	256.87
288.404	303.68
288.863	284.96
289.322	329.43
289.781	376.24
290.24	362.2
290.699	310.71
291.158	273.26
291.616	277.94
292.075	329.43
292.534	373.9
292.992	291.98
293.451	352.84
293.91	280.28
294.368	362.2
294.827	313.05
295.285	301.34
295.743	322.41
296.202	275.6
296.66	275.6
297.118	338.79
297.576	254.53
298.034	226.45
298.492	268.58
298.95	268.58
299.408	296.66
299.866	287.3
300.324	320.07
300.781	252.19
301.239	308.37
301.697	308.37
302.154	308.37
302.612	245.17
303.069	294.32
303.527	294.32
303.984	289.64
304.441	256.87
304.899	310.71
305.356	301.34
305.813	273.26
306.27	280.28
306.727	306.03
307.184	240.49
307.641	315.39
308.098	268.58
308.555	303.68
309.012	228.79
309.468	238.15
309.925	317.73
310.382	294.32
310.838	268.58
311.295	380.92
311.751	263.9
312.208	242.83
312.664	310.71
313.12	294.32
313.577	284.96
314.033	273.26
314.489	308.37
314.945	306.03
315.401	329.43
315.857	324.75
316.313	291.98
316.769	284.96
317.225	322.41
317.681	334.11
318.136	289.64
318.592	291.98
319.048	320.07
319.503	348.15
319.959	275.6
320.414	299
320.869	320.07
321.325	287.3
321.78	324.75
322.235	315.39
322.691	294.32
323.146	343.47
323.601	416.03
324.056	317.73
324.511	275.6
324.966	320.07
325.421	280.28
325.875	296.66
326.33	322.41
326.785	306.03
327.24	357.52
327.694	266.24
328.149	313.05
328.603	334.11
329.058	284.96
329.512	263.9
329.966	315.39
330.421	282.62
330.875	299
331.329	329.43
331.783	334.11
332.237	313.05
332.691	357.52
333.145	308.37
333.599	235.81
334.053	303.68
334.507	357.52
334.96	259.21
335.414	299
335.868	291.98
336.321	306.03
336.775	259.21
337.228	228.79
337.682	430.07
338.135	329.43
338.588	294.32
339.042	392.62
339.495	296.66
339.948	261.55
340.401	343.47
340.854	320.07
341.307	294.32
341.76	256.87
342.213	322.41
342.666	299
343.119	315.39
343.571	296.66
344.024	268.58
344.477	282.62
344.929	294.32
345.382	322.41
345.834	317.73
346.287	299
346.739	324.75
347.191	268.58
347.644	306.03
348.096	331.77
348.548	308.37
349	327.09
349.452	341.13
349.904	238.15
350.356	277.94
350.808	303.68
351.26	294.32
351.711	310.71
352.163	315.39
352.615	303.68
353.066	338.79
353.518	357.52
353.969	296.66
354.421	331.77
354.872	320.07
355.324	338.79
355.775	320.07
356.226	294.32
356.677	310.71
357.128	315.39
357.579	352.84
358.03	254.53
358.481	315.39
358.932	306.03
359.383	299
359.834	256.87
360.285	306.03
360.735	317.73
361.186	308.37
361.637	341.13
362.087	310.71
362.538	299
362.988	289.64
363.438	331.77
363.889	413.69
364.339	287.3
364.789	345.81
365.239	313.05
365.689	306.03
366.139	324.75
366.589	270.92
367.039	266.24
367.489	338.79
367.939	289.64
368.389	345.81
368.839	308.37
369.288	263.9
369.738	310.71
370.187	261.55
370.637	289.64
371.086	322.41
371.536	310.71
371.985	291.98
372.434	317.73
372.884	247.51
373.333	334.11
373.782	348.15
374.231	306.03
374.68	359.86
375.129	334.11
375.578	317.73
376.027	249.85
376.475	284.96
376.924	282.62
377.373	284.96
377.822	317.73
378.27	275.6
378.719	320.07
379.167	338.79
379.616	310.71
380.064	299
380.512	310.71
380.961	324.75
381.409	320.07
381.857	310.71
382.305	341.13
382.753	343.47
383.201	275.6
383.649	320.07
384.097	320.07
384.545	320.07
384.992	303.68
385.44	352.84
385.888	310.71
386.335	357.52
386.783	385.6
387.231	320.07
387.678	303.68
388.125	334.11
388.573	315.39
389.02	329.43
389.467	324.75
389.914	338.79
390.362	364.54
390.809	303.68
391.256	291.98
391.703	270.92
392.15	291.98
392.596	322.41
393.043	306.03
393.49	277.94
393.937	331.77
394.383	343.47
394.83	315.39
395.276	313.05
395.723	336.45
396.169	287.3
396.616	284.96
397.062	280.28
397.508	352.84
397.954	266.24
398.401	303.68
398.847	306.03
399.293	289.64
399.739	275.6
400.185	329.43
400.631	273.26
401.076	336.45
401.522	336.45
401.968	287.3
402.414	334.11
402.859	287.3
403.305	303.68
403.75	355.18
404.196	327.09
404.641	317.73
405.086	327.09
405.532	306.03
405.977	270.92
406.422	383.26
406.867	336.45
407.312	270.92
407.757	345.81
408.202	284.96
408.647	364.54
409.092	322.41
409.537	261.55
409.982	341.13
410.426	310.71
410.871	266.24
411.316	357.52
411.76	359.86
412.205	315.39
412.649	315.39
413.093	301.34
413.538	249.85
413.982	306.03
414.426	369.22
414.87	224.11
415.314	334.11
415.758	355.18
416.202	299
416.646	296.66
417.09	373.9
417.534	420.71
417.978	313.05
418.421	317.73
418.865	331.77
419.309	350.5
419.752	322.41
420.196	352.84
420.639	359.86
421.083	334.11
421.526	334.11
421.969	320.07
422.412	331.77
422.856	334.11
423.299	364.54
423.742	364.54
424.185	399.65
424.628	343.47
425.071	336.45
425.513	341.13
425.956	317.73
426.399	345.81
426.842	336.45
427.284	373.9
427.727	366.88
428.169	364.54
428.612	350.5
429.054	355.18
429.497	322.41
429.939	385.6
430.381	364.54
430.823	366.88
431.265	383.26
431.707	324.75
432.149	394.97
432.591	411.35
433.033	366.88
433.475	397.31
433.917	392.62
434.359	455.82
434.8	486.25
435.242	535.4
435.684	530.72
436.125	458.16
436.567	481.57
437.008	439.44
437.449	423.05
437.891	476.88
438.332	453.48
438.773	451.14
439.214	434.75
439.656	418.37
440.097	420.71
440.538	511.99
440.978	479.22
441.419	465.18
441.86	476.88
442.301	504.97
442.742	519.01
443.182	521.35
443.623	467.52
444.063	472.2
444.504	481.57
444.944	479.22
445.385	467.52
445.825	439.44
446.265	483.91
446.706	474.54
447.146	423.05
447.586	462.84
448.026	519.01
448.466	495.61
448.906	584.55
449.346	563.48
449.786	469.86
450.225	516.67
450.665	537.74
451.105	474.54
451.544	502.63
451.984	469.86
452.424	460.5
452.863	465.18
453.302	392.62
453.742	392.62
454.181	441.78
454.62	479.22
455.059	416.03
455.499	462.84
455.938	397.31
456.377	418.37
456.816	423.05
457.254	404.33
457.693	423.05
458.132	366.88
458.571	458.16
459.01	427.73
459.448	413.69
459.887	399.65
460.325	371.56
460.764	406.67
461.202	519.01
461.641	493.27
462.079	387.94
462.517	411.35
462.955	376.24
463.393	366.88
463.832	434.75
464.27	385.6
464.708	369.22
465.145	390.28
465.583	418.37
466.021	432.41
466.459	399.65
466.897	362.2
467.334	434.75
467.772	420.71
468.209	348.15
468.647	444.12
469.084	401.99
469.522	390.28
469.959	420.71
470.396	380.92
470.833	366.88
471.271	420.71
471.708	401.99
472.145	387.94
472.582	331.77
473.019	371.56
473.456	397.31
473.892	439.44
474.329	343.47
474.766	348.15
475.202	369.22
475.639	427.73
476.076	317.73
476.512	420.71
476.949	371.56
477.385	306.03
477.821	350.5
478.258	345.81
478.694	336.45
479.13	359.86
479.566	378.58
480.002	390.28
480.438	378.58
480.874	383.26
481.31	343.47
481.746	324.75
482.181	341.13
482.617	437.1
483.053	430.07
483.488	416.03
483.924	373.9
484.36	324.75
484.795	369.22
485.23	411.35
485.666	488.59
486.101	406.67
486.536	486.25
486.971	446.46
487.407	425.39
487.842	427.73
488.277	390.28
488.712	467.52
489.146	462.84
489.581	465.18
490.016	439.44
490.451	444.12
490.885	430.07
491.32	479.22
491.755	462.84
492.189	523.69
492.624	409.01
493.058	439.44
493.492	455.82
493.927	427.73
494.361	430.07
494.795	430.07
495.229	369.22
495.663	430.07
496.097	336.45
496.531	406.67
496.965	383.26
497.399	427.73
497.833	383.26
498.266	397.31
498.7	423.05
499.134	467.52
499.567	420.71
500.001	439.44
500.434	455.82
500.868	366.88
501.301	448.8
501.734	411.35
502.168	369.22
502.601	369.22
503.034	371.56
503.467	373.9
503.9	430.07
504.333	371.56
504.766	366.88
505.199	411.35
505.632	345.81
506.064	345.81
506.497	401.99
506.93	352.84
507.362	350.5
507.795	406.67
508.227	434.75
508.66	486.25
509.092	397.31
509.524	329.43
509.956	399.65
510.389	413.69
510.821	401.99
511.253	362.2
511.685	371.56
512.117	434.75
512.549	418.37
512.981	387.94
513.412	462.84
513.844	373.9
514.276	423.05
514.707	476.88
515.139	399.65
515.571	366.88
516.002	401.99
516.433	380.92
516.865	387.94
517.296	387.94
517.727	385.6
518.159	406.67
518.59	439.44
519.021	465.18
519.452	474.54
519.883	380.92
520.314	469.86
520.744	411.35
521.175	425.39
521.606	406.67
522.037	439.44
522.467	394.97
522.898	383.26
523.328	455.82
523.759	446.46
524.189	444.12
524.62	455.82
525.05	345.81
525.48	401.99
525.91	448.8
526.341	427.73
526.771	425.39
527.201	406.67
527.631	467.52
528.061	406.67
528.49	481.57
528.92	423.05
529.35	380.92
529.78	387.94
530.209	418.37
530.639	385.6
531.068	418.37
531.498	448.8
531.927	455.82
532.357	387.94
532.786	399.65
533.215	416.03
533.644	341.13
534.074	420.71
534.503	483.91
534.932	425.39
535.361	409.01
535.79	483.91
536.218	369.22
536.647	462.84
537.076	418.37
537.505	476.88
537.933	411.35
538.362	432.41
538.79	497.95
539.219	467.52
539.647	500.29
540.076	565.82
540.504	516.67
540.932	568.17
541.36	612.64
541.788	657.11
542.217	755.41
542.645	760.09
543.073	776.47
543.5	717.96
543.928	732
544.356	748.39
544.784	727.32
545.211	739.02
545.639	748.39
546.067	722.64
546.494	607.95
546.922	584.55
547.349	575.19
547.776	519.01
548.204	497.95
548.631	533.06
549.058	493.27
549.485	521.35
549.912	535.4
550.339	479.22
550.766	448.8
551.193	467.52
551.62	523.69
552.047	465.18
552.474	385.6
552.9	439.44
553.327	467.52
553.754	401.99
554.18	467.52
554.607	469.86
555.033	467.52
555.459	444.12
555.886	383.26
556.312	500.29
556.738	409.01
557.164	425.39
557.59	418.37
558.016	406.67
558.442	423.05
558.868	434.75
559.294	441.78
559.72	500.29
560.145	427.73
560.571	357.52
560.997	432.41
561.422	446.46
561.848	441.78
562.273	486.25
562.699	427.73
563.124	451.14
563.549	411.35
563.974	432.41
564.4	383.26
564.825	500.29
565.25	423.05
565.675	425.39
566.1	394.97
566.525	416.03
566.95	423.05
567.374	376.24
567.799	380.92
568.224	460.5
568.648	409.01
569.073	418.37
569.497	423.05
569.922	458.16
570.346	380.92
570.771	392.62
571.195	439.44
571.619	423.05
572.043	430.07
572.467	411.35
572.891	439.44
573.315	453.48
573.739	376.24
574.163	425.39
574.587	458.16
575.011	462.84
575.435	446.46
575.858	437.1
576.282	455.82
576.705	476.88
577.129	451.14
577.552	448.8
577.976	444.12
578.399	448.8
578.822	476.88
579.245	465.18
579.669	420.71
580.092	469.86
580.515	448.8
580.938	425.39
581.361	514.33
581.784	458.16
582.206	423.05
582.629	350.5
583.052	460.5
583.474	490.93
583.897	500.29
584.32	483.91
584.742	460.5
585.165	437.1
585.587	394.97
586.009	418.37
586.431	490.93
586.854	493.27
587.276	500.29
587.698	479.22
588.12	439.44
588.542	451.14
588.964	430.07
589.386	460.5
589.807	371.56
590.229	425.39
590.651	413.69
591.073	420.71
591.494	380.92
591.916	425.39
592.337	460.5
592.759	437.1
593.18	476.88
593.601	416.03
594.022	437.1
594.444	432.41
594.865	350.5
595.286	490.93
595.707	404.33
596.128	387.94
596.549	357.52
596.97	399.65
597.39	409.01
597.811	409.01
598.232	423.05
598.652	376.24
599.073	416.03
599.494	416.03
599.914	411.35
600.334	465.18
600.755	385.6
601.175	334.11
601.595	469.86
602.015	458.16
602.436	369.22
602.856	502.63
603.276	336.45
603.696	404.33
604.115	439.44
604.535	432.41
604.955	401.99
605.375	355.18
605.794	446.46
606.214	416.03
606.634	413.69
607.053	406.67
607.473	453.48
607.892	453.48
608.311	441.78
608.731	437.1
609.15	394.97
609.569	544.76
609.988	643.06
610.407	792.86
610.826	771.79
611.245	797.54
611.664	816.26
612.083	762.43
612.501	617.32
612.92	643.06
613.339	596.25
613.757	544.76
614.176	554.12
614.594	476.88
615.013	528.38
615.431	500.29
615.85	479.22
616.268	404.33
616.686	458.16
617.104	474.54
617.522	474.54
617.94	413.69
618.358	343.47
618.776	355.18
619.194	401.99
619.612	453.48
620.03	437.1
620.447	387.94
620.865	425.39
621.282	420.71
621.7	497.95
622.117	434.75
622.535	432.41
622.952	385.6
623.369	397.31
623.787	427.73
624.204	352.84
624.621	446.46
625.038	451.14
625.455	334.11
625.872	406.67
626.289	397.31
626.706	313.05
627.123	338.79
627.539	364.54
627.956	399.65
628.373	413.69
628.789	394.97
629.206	343.47
629.622	350.5
630.038	392.62
630.455	399.65
630.871	371.56
631.287	373.9
631.703	413.69
632.12	420.71
632.536	373.9
632.952	378.58
633.368	387.94
633.783	441.78
634.199	294.32
634.615	317.73
635.031	291.98
635.446	324.75
635.862	357.52
636.277	371.56
636.693	387.94
637.108	357.52
637.524	336.45
637.939	329.43
638.354	345.81
638.77	334.11
639.185	366.88
639.6	327.09
640.015	385.6
640.43	355.18
640.845	387.94
641.259	249.85
641.674	270.92
642.089	362.2
642.504	378.58
642.918	291.98
643.333	317.73
643.747	369.22
644.162	299
644.576	348.15
644.991	329.43
645.405	322.41
645.819	338.79
646.233	373.9
646.647	306.03
647.061	418.37
647.475	329.43
647.889	362.2
648.303	345.81
648.717	308.37
649.131	359.86
649.545	320.07
649.958	359.86
650.372	378.58
650.785	364.54
651.199	291.98
651.612	357.52
652.026	320.07
652.439	343.47
652.852	327.09
653.266	291.98
653.679	348.15
654.092	287.3
654.505	350.5
654.918	392.62
655.331	338.79
655.744	329.43
656.156	369.22
656.569	338.79
656.982	317.73
657.394	324.75
657.807	329.43
658.22	348.15
658.632	385.6
659.044	369.22
659.457	327.09
659.869	329.43
660.281	334.11
660.693	334.11
661.106	320.07
661.518	210.06
661.93	320.07
662.342	289.64
662.754	378.58
663.165	380.92
663.577	324.75
663.989	310.71
664.401	359.86
664.812	287.3
665.224	284.96
665.635	308.37
666.047	366.88
666.458	366.88
666.869	299
667.281	320.07
667.692	331.77
668.103	371.56
668.514	291.98
668.925	308.37
669.336	385.6
669.747	315.39
670.158	252.19
670.569	432.41
670.979	331.77
671.39	301.34
671.801	299
672.211	313.05
672.622	306.03
673.032	315.39
673.443	376.24
673.853	364.54
674.263	352.84
674.674	294.32
675.084	369.22
675.494	324.75
675.904	299
676.314	336.45
676.724	306.03
677.134	343.47
677.544	317.73
677.953	350.5
678.363	359.86
678.773	378.58
679.182	327.09
679.592	345.81
680.001	348.15
680.411	376.24
680.82	282.62
681.23	364.54
681.639	322.41
682.048	324.75
682.457	315.39
682.866	399.65
683.275	317.73
683.684	343.47
684.093	341.13
684.502	345.81
684.911	294.32
685.32	359.86
685.728	289.64
686.137	324.75
686.546	355.18
686.954	366.88
687.363	291.98
687.771	313.05
688.179	369.22
688.588	303.68
688.996	352.84
689.404	329.43
689.812	291.98
690.22	320.07
690.628	296.66
691.036	219.43
691.444	352.84
691.852	282.62
692.26	343.47
692.667	355.18
693.075	348.15
693.483	345.81
693.89	301.34
694.298	289.64
694.705	364.54
695.112	282.62
695.52	275.6
695.927	310.71
696.334	284.96
696.741	303.68
697.148	334.11
697.555	324.75
697.962	235.81
698.369	343.47
698.776	334.11
699.183	369.22
699.59	313.05
699.996	296.66
700.403	350.5
700.81	313.05
701.216	310.71
701.623	306.03
702.029	392.62
702.435	343.47
702.842	320.07
703.248	320.07
703.654	299
704.06	345.81
704.466	369.22
704.872	376.24
705.278	315.39
705.684	364.54
706.09	350.5
706.496	376.24
706.901	371.56
707.307	308.37
707.712	355.18
708.118	390.28
708.523	263.9
708.929	364.54
709.334	345.81
709.74	392.62
710.145	341.13
710.55	338.79
710.955	331.77
711.36	369.22
711.765	322.41
712.17	320.07
712.575	334.11
712.98	788.18
713.385	371.56
713.789	310.71
714.194	324.75
714.599	387.94
715.003	296.66
715.408	275.6
715.812	371.56
716.217	331.77
716.621	329.43
717.025	317.73
717.429	348.15
717.833	289.64
718.238	390.28
718.642	329.43
719.046	350.5
719.449	282.62
719.853	294.32
720.257	336.45
720.661	296.66
721.065	315.39
721.468	348.15
721.872	277.94
722.275	303.68
722.679	303.68
723.082	313.05
723.485	320.07
723.889	266.24
724.292	348.15
724.695	301.34
725.098	310.71
725.501	296.66
725.904	380.92
726.307	240.49
726.71	282.62
727.113	259.21
727.516	261.55
727.918	313.05
728.321	359.86
728.724	277.94
729.126	331.77
729.529	331.77
729.931	329.43
730.333	329.43
730.736	373.9
731.138	320.07
731.54	343.47
731.942	254.53
732.344	315.39
732.746	289.64
733.148	315.39
733.55	289.64
733.952	306.03
734.354	341.13
734.756	341.13
735.157	284.96
735.559	275.6
735.96	299
736.362	315.39
736.763	324.75
737.165	329.43
737.566	306.03
737.967	299
738.368	289.64
738.77	266.24
739.171	380.92
739.572	350.5
739.973	308.37
740.374	256.87
740.774	291.98
741.175	313.05
741.576	277.94
741.977	266.24
742.377	315.39
742.778	296.66
743.178	273.26
743.579	313.05
743.979	329.43
744.379	317.73
744.78	331.77
745.18	329.43
745.58	245.17
745.98	338.79
746.38	317.73
746.78	287.3
747.18	273.26
747.58	366.88
747.98	315.39
748.38	350.5
748.779	294.32
749.179	310.71
749.578	268.58
749.978	313.05
750.377	291.98
750.777	315.39
751.176	329.43
751.575	327.09
751.975	315.39
752.374	263.9
752.773	369.22
753.172	320.07
753.571	308.37
753.97	280.28
754.369	301.34
754.768	268.58
755.166	273.26
755.565	350.5
755.964	336.45
756.362	385.6
756.761	392.62
757.159	343.47
757.558	287.3
757.956	331.77
758.354	310.71
758.753	308.37
759.151	317.73
759.549	270.92
759.947	343.47
760.345	291.98
760.743	233.47
761.141	355.18
761.539	322.41
761.936	303.68
762.334	301.34
762.732	341.13
763.129	289.64
763.527	296.66
763.924	329.43
764.322	306.03
764.719	296.66
765.117	270.92
765.514	284.96
765.911	277.94
766.308	294.32
