Data from Al_FLMS009871__221__12-14-43-754.txt Node

Date: Fri Mar 08 12:14:43 CST 2024
User: pe5414po
Spectrometer: FLMS00987
Trigger mode: 0
Integration Time (sec): 1.000000E-1
Scans to average: 1
Electric dark correction enabled: true
Nonlinearity correction enabled: false
Boxcar width: 0
XAxis mode: Wavelengths
Number of Pixels in Spectrum: 2048
>>>>>Begin Spectral Data<<<<<
188.938	-55.73
189.409	-55.73
189.879	-55.73
190.349	-97.86
190.819	-83.82
191.29	-142.33
191.76	-46.37
192.23	-74.46
192.7	-154.04
193.17	-90.84
193.64	-97.86
194.109	-1.9
194.579	-25.31
195.049	-41.69
195.519	82.36
195.988	47.25
196.458	103.42
196.927	87.04
197.397	51.93
197.866	168.96
198.336	133.85
198.805	194.7
199.274	147.89
199.744	243.85
200.213	227.47
200.682	194.7
201.151	276.62
201.62	300.03
202.089	316.41
202.558	274.28
203.027	262.58
203.495	253.22
203.964	288.32
204.433	346.84
204.902	358.54
205.37	339.82
205.839	293.01
206.307	346.84
206.776	325.77
207.244	297.69
207.712	297.69
208.181	367.9
208.649	274.28
209.117	290.67
209.585	295.35
210.053	300.03
210.521	335.14
210.989	339.82
211.457	250.88
211.925	356.2
212.393	283.64
212.861	332.79
213.328	283.64
213.796	295.35
214.264	297.69
214.731	264.92
215.199	215.77
215.666	325.77
216.133	300.03
216.601	290.67
217.068	297.69
217.535	260.24
218.003	257.9
218.47	307.05
218.937	278.96
219.404	239.17
219.871	239.17
220.338	234.49
220.805	285.98
221.271	257.9
221.738	351.52
222.205	192.36
222.671	236.83
223.138	271.94
223.605	328.11
224.071	267.26
224.538	281.3
225.004	330.45
225.47	335.14
225.937	255.56
226.403	197.04
226.869	283.64
227.335	246.2
227.801	332.79
228.267	316.41
228.733	274.28
229.199	246.2
229.665	293.01
230.131	309.39
230.597	239.17
231.062	274.28
231.528	302.37
231.994	316.41
232.459	330.45
232.925	332.79
233.39	353.86
233.856	316.41
234.321	304.71
234.786	293.01
235.252	234.49
235.717	356.2
236.182	281.3
236.647	346.84
237.112	278.96
237.577	321.09
238.042	307.05
238.507	353.86
238.972	274.28
239.436	323.43
239.901	363.22
240.366	262.58
240.83	285.98
241.295	293.01
241.76	318.75
242.224	337.48
242.688	321.09
243.153	295.35
243.617	302.37
244.081	344.5
244.545	339.82
245.01	250.88
245.474	276.62
245.938	381.95
246.402	271.94
246.866	199.38
247.33	257.9
247.793	328.11
248.257	276.62
248.721	330.45
249.185	311.73
249.648	309.39
250.112	264.92
250.575	356.2
251.039	330.45
251.502	278.96
251.965	330.45
252.429	325.77
252.892	283.64
253.355	307.05
253.818	318.75
254.281	335.14
254.744	304.71
255.207	335.14
255.67	281.3
256.133	288.32
256.596	332.79
257.059	304.71
257.522	281.3
257.984	321.09
258.447	248.54
258.909	342.16
259.372	300.03
259.834	250.88
260.297	293.01
260.759	318.75
261.221	281.3
261.684	297.69
262.146	281.3
262.608	307.05
263.07	335.14
263.532	288.32
263.994	304.71
264.456	260.24
264.918	262.58
265.38	304.71
265.842	285.98
266.303	253.22
266.765	337.48
267.227	316.41
267.688	285.98
268.15	332.79
268.611	311.73
269.072	335.14
269.534	337.48
269.995	328.11
270.456	314.07
270.918	330.45
271.379	314.07
271.84	335.14
272.301	339.82
272.762	323.43
273.223	311.73
273.684	314.07
274.144	328.11
274.605	302.37
275.066	304.71
275.527	283.64
275.987	234.49
276.448	246.2
276.908	307.05
277.369	318.75
277.829	325.77
278.289	260.24
278.75	278.96
279.21	290.67
279.67	316.41
280.13	300.03
280.59	318.75
281.05	290.67
281.51	307.05
281.97	328.11
282.43	367.9
282.89	349.18
283.35	297.69
283.809	304.71
284.269	372.58
284.729	330.45
285.188	274.28
285.648	300.03
286.107	318.75
286.567	285.98
287.026	335.14
287.485	321.09
287.944	307.05
288.404	311.73
288.863	323.43
289.322	276.62
289.781	264.92
290.24	342.16
290.699	349.18
291.158	351.52
291.616	323.43
292.075	339.82
292.534	290.67
292.992	278.96
293.451	285.98
293.91	332.79
294.368	325.77
294.827	335.14
295.285	295.35
295.743	304.71
296.202	309.39
296.66	370.24
297.118	304.71
297.576	318.75
298.034	243.85
298.492	316.41
298.95	267.26
299.408	300.03
299.866	283.64
300.324	339.82
300.781	257.9
301.239	323.43
301.697	255.56
302.154	321.09
302.612	353.86
303.069	300.03
303.527	276.62
303.984	344.5
304.441	274.28
304.899	300.03
305.356	377.27
305.813	243.85
306.27	295.35
306.727	321.09
307.184	349.18
307.641	321.09
308.098	363.22
308.555	290.67
309.012	325.77
309.468	255.56
309.925	335.14
310.382	332.79
310.838	335.14
311.295	323.43
311.751	311.73
312.208	351.52
312.664	243.85
313.12	337.48
313.577	360.88
314.033	321.09
314.489	337.48
314.945	335.14
315.401	269.6
315.857	337.48
316.313	278.96
316.769	377.27
317.225	346.84
317.681	276.62
318.136	297.69
318.592	318.75
319.048	372.58
319.503	316.41
319.959	285.98
320.414	271.94
320.869	325.77
321.325	281.3
321.78	370.24
322.235	318.75
322.691	335.14
323.146	356.2
323.601	283.64
324.056	281.3
324.511	321.09
324.966	356.2
325.421	288.32
325.875	293.01
326.33	293.01
326.785	288.32
327.24	339.82
327.694	328.11
328.149	316.41
328.603	330.45
329.058	328.11
329.512	339.82
329.966	381.95
330.421	332.79
330.875	330.45
331.329	297.69
331.783	260.24
332.237	304.71
332.691	304.71
333.145	307.05
333.599	300.03
334.053	407.69
334.507	384.29
334.96	271.94
335.414	370.24
335.868	349.18
336.321	262.58
336.775	395.99
337.228	349.18
337.682	328.11
338.135	293.01
338.588	311.73
339.042	358.54
339.495	297.69
339.948	381.95
340.401	325.77
340.854	367.9
341.307	414.71
341.76	290.67
342.213	332.79
342.666	300.03
343.119	339.82
343.571	344.5
344.024	358.54
344.477	332.79
344.929	330.45
345.382	339.82
345.834	337.48
346.287	358.54
346.739	360.88
347.191	311.73
347.644	283.64
348.096	321.09
348.548	377.27
349	356.2
349.452	269.6
349.904	297.69
350.356	297.69
350.808	344.5
351.26	325.77
351.711	332.79
352.163	323.43
352.615	309.39
353.066	309.39
353.518	356.2
353.969	328.11
354.421	360.88
354.872	344.5
355.324	339.82
355.775	344.5
356.226	330.45
356.677	304.71
357.128	290.67
357.579	302.37
358.03	332.79
358.481	349.18
358.932	281.3
359.383	278.96
359.834	353.86
360.285	360.88
360.735	302.37
361.186	367.9
361.637	318.75
362.087	346.84
362.538	314.07
362.988	400.67
363.438	372.58
363.889	367.9
364.339	344.5
364.789	314.07
365.239	328.11
365.689	337.48
366.139	344.5
366.589	304.71
367.039	360.88
367.489	339.82
367.939	358.54
368.389	271.94
368.839	356.2
369.288	328.11
369.738	325.77
370.187	316.41
370.637	344.5
371.086	363.22
371.536	278.96
371.985	337.48
372.434	276.62
372.884	351.52
373.333	379.61
373.782	323.43
374.231	330.45
374.68	309.39
375.129	356.2
375.578	314.07
376.027	356.2
376.475	250.88
376.924	288.32
377.373	325.77
377.822	351.52
378.27	344.5
378.719	290.67
379.167	318.75
379.616	407.69
380.064	285.98
380.512	304.71
380.961	264.92
381.409	386.63
381.857	304.71
382.305	281.3
382.753	318.75
383.201	316.41
383.649	264.92
384.097	417.05
384.545	316.41
384.992	316.41
385.44	332.79
385.888	311.73
386.335	332.79
386.783	309.39
387.231	388.97
387.678	309.39
388.125	321.09
388.573	323.43
389.02	335.14
389.467	271.94
389.914	307.05
390.362	288.32
390.809	304.71
391.256	314.07
391.703	321.09
392.15	337.48
392.596	365.56
393.043	365.56
393.49	318.75
393.937	353.86
394.383	339.82
394.83	316.41
395.276	349.18
395.723	353.86
396.169	337.48
396.616	297.69
397.062	370.24
397.508	335.14
397.954	346.84
398.401	321.09
398.847	295.35
399.293	421.74
399.739	337.48
400.185	377.27
400.631	381.95
401.076	337.48
401.522	344.5
401.968	288.32
402.414	316.41
402.859	281.3
403.305	349.18
403.75	304.71
404.196	356.2
404.641	351.52
405.086	372.58
405.532	325.77
405.977	388.97
406.422	297.69
406.867	300.03
407.312	351.52
407.757	332.79
408.202	314.07
408.647	328.11
409.092	293.01
409.537	346.84
409.982	370.24
410.426	314.07
410.871	321.09
411.316	335.14
411.76	274.28
412.205	351.52
412.649	342.16
413.093	344.5
413.538	346.84
413.982	358.54
414.426	407.69
414.87	346.84
415.314	351.52
415.758	321.09
416.202	274.28
416.646	332.79
417.09	302.37
417.534	374.92
417.978	344.5
418.421	344.5
418.865	323.43
419.309	278.96
419.752	316.41
420.196	379.61
420.639	384.29
421.083	300.03
421.526	323.43
421.969	342.16
422.412	421.74
422.856	353.86
423.299	325.77
423.742	314.07
424.185	412.37
424.628	358.54
425.071	323.43
425.513	342.16
425.956	403.01
426.399	349.18
426.842	349.18
427.284	365.56
427.727	393.65
428.169	391.31
428.612	391.31
429.054	339.82
429.497	395.99
429.939	414.71
430.381	388.97
430.823	323.43
431.265	339.82
431.707	419.39
432.149	480.25
432.591	328.11
433.033	449.82
433.475	372.58
433.917	454.5
434.359	531.74
434.8	470.89
435.242	541.1
435.684	627.7
436.125	463.86
436.567	501.31
437.008	480.25
437.449	505.99
437.891	484.93
438.332	520.04
438.773	468.55
439.214	494.29
439.656	513.02
440.097	491.95
440.538	491.95
440.978	452.16
441.419	505.99
441.86	538.76
442.301	505.99
442.742	501.31
443.182	475.57
443.623	447.48
444.063	491.95
444.504	503.65
444.944	543.44
445.385	548.12
445.825	491.95
446.265	552.81
446.706	534.08
447.146	550.46
447.586	515.36
448.026	510.68
448.466	470.89
448.906	545.78
449.346	496.63
449.786	522.38
450.225	459.18
450.665	484.93
451.105	466.21
451.544	517.7
451.984	524.72
452.424	513.02
452.863	412.37
453.302	491.95
453.742	470.89
454.181	517.7
454.62	445.14
455.059	498.97
455.499	431.1
455.938	424.08
456.377	484.93
456.816	459.18
457.254	461.52
457.693	419.39
458.132	484.93
458.571	431.1
459.01	456.84
459.448	400.67
459.887	468.55
460.325	435.78
460.764	442.8
461.202	496.63
461.641	463.86
462.079	414.71
462.517	365.56
462.955	353.86
463.393	475.57
463.832	477.91
464.27	452.16
464.708	433.44
465.145	412.37
465.583	417.05
466.021	391.31
466.459	386.63
466.897	414.71
467.334	405.35
467.772	417.05
468.209	496.63
468.647	367.9
469.084	321.09
469.522	386.63
469.959	384.29
470.396	410.03
470.833	395.99
471.271	395.99
471.708	424.08
472.145	405.35
472.582	318.75
473.019	353.86
473.456	395.99
473.892	400.67
474.329	372.58
474.766	395.99
475.202	360.88
475.639	335.14
476.076	421.74
476.512	388.97
476.949	381.95
477.385	426.42
477.821	346.84
478.258	358.54
478.694	370.24
479.13	412.37
479.566	412.37
480.002	428.76
480.438	414.71
480.874	449.82
481.31	391.31
481.746	358.54
482.181	365.56
482.617	391.31
483.053	424.08
483.488	417.05
483.924	414.71
484.36	405.35
484.795	459.18
485.23	414.71
485.666	468.55
486.101	452.16
486.536	461.52
486.971	438.12
487.407	475.57
487.842	438.12
488.277	377.27
488.712	452.16
489.146	393.65
489.581	477.91
490.016	477.91
490.451	414.71
490.885	452.16
491.32	358.54
491.755	442.8
492.189	405.35
492.624	452.16
493.058	372.58
493.492	484.93
493.927	424.08
494.361	363.22
494.795	452.16
495.229	421.74
495.663	412.37
496.097	424.08
496.531	407.69
496.965	391.31
497.399	344.5
497.833	400.67
498.266	410.03
498.7	417.05
499.134	421.74
499.567	431.1
500.001	356.2
500.434	403.01
500.868	459.18
501.301	358.54
501.734	433.44
502.168	405.35
502.601	456.84
503.034	466.21
503.467	414.71
503.9	367.9
504.333	475.57
504.766	384.29
505.199	360.88
505.632	414.71
506.064	428.76
506.497	435.78
506.93	428.76
507.362	440.46
507.795	405.35
508.227	449.82
508.66	398.33
509.092	426.42
509.524	419.39
509.956	470.89
510.389	433.44
510.821	431.1
511.253	468.55
511.685	421.74
512.117	428.76
512.549	484.93
512.981	395.99
513.412	428.76
513.844	480.25
514.276	440.46
514.707	398.33
515.139	484.93
515.571	445.14
516.002	442.8
516.433	456.84
516.865	379.61
517.296	407.69
517.727	482.59
518.159	466.21
518.59	398.33
519.021	463.86
519.452	454.5
519.883	417.05
520.314	417.05
520.744	468.55
521.175	421.74
521.606	426.42
522.037	482.59
522.467	449.82
522.898	424.08
523.328	447.48
523.759	468.55
524.189	459.18
524.62	400.67
525.05	400.67
525.48	417.05
525.91	414.71
526.341	433.44
526.771	379.61
527.201	384.29
527.631	431.1
528.061	480.25
528.49	395.99
528.92	393.65
529.35	452.16
529.78	452.16
530.209	400.67
530.639	475.57
531.068	386.63
531.498	447.48
531.927	470.89
532.357	445.14
532.786	449.82
533.215	452.16
533.644	459.18
534.074	452.16
534.503	482.59
534.932	391.31
535.361	438.12
535.79	419.39
536.218	405.35
536.647	440.46
537.076	440.46
537.505	463.86
537.933	431.1
538.362	470.89
538.79	536.42
539.219	461.52
539.647	454.5
540.076	522.38
540.504	545.78
540.932	601.96
541.36	653.45
541.788	697.92
542.217	669.83
542.645	742.39
543.073	737.71
543.5	824.31
543.928	726
544.356	754.09
544.784	765.79
545.211	768.13
545.639	737.71
546.067	707.28
546.494	632.38
546.922	594.93
547.349	630.04
547.776	571.53
548.204	576.21
548.631	580.89
549.058	520.04
549.485	541.1
549.912	498.97
550.339	398.33
550.766	527.06
551.193	491.95
551.62	510.68
552.047	438.12
552.474	534.08
552.9	466.21
553.327	463.86
553.754	393.65
554.18	445.14
554.607	447.48
555.033	459.18
555.459	412.37
555.886	410.03
556.312	449.82
556.738	482.59
557.164	484.93
557.59	480.25
558.016	384.29
558.442	391.31
558.868	403.01
559.294	459.18
559.72	442.8
560.145	475.57
560.571	426.42
560.997	386.63
561.422	438.12
561.848	428.76
562.273	477.91
562.699	421.74
563.124	386.63
563.549	421.74
563.974	468.55
564.4	414.71
564.825	456.84
565.25	414.71
565.675	489.61
566.1	438.12
566.525	433.44
566.95	393.65
567.374	503.65
567.799	461.52
568.224	440.46
568.648	414.71
569.073	438.12
569.497	435.78
569.922	419.39
570.346	442.8
570.771	405.35
571.195	440.46
571.619	403.01
572.043	473.23
572.467	438.12
572.891	461.52
573.315	433.44
573.739	442.8
574.163	445.14
574.587	421.74
575.011	367.9
575.435	470.89
575.858	498.97
576.282	459.18
576.705	395.99
577.129	480.25
577.552	442.8
577.976	456.84
578.399	456.84
578.822	503.65
579.245	410.03
579.669	438.12
580.092	435.78
580.515	426.42
580.938	562.17
581.361	482.59
581.784	548.12
582.206	440.46
582.629	398.33
583.052	494.29
583.474	538.76
583.897	421.74
584.32	517.7
584.742	520.04
585.165	477.91
585.587	477.91
586.009	461.52
586.431	414.71
586.854	477.91
587.276	475.57
587.698	475.57
588.12	438.12
588.542	414.71
588.964	470.89
589.386	496.63
589.807	431.1
590.229	454.5
590.651	480.25
591.073	461.52
591.494	395.99
591.916	442.8
592.337	477.91
592.759	447.48
593.18	522.38
593.601	475.57
594.022	470.89
594.444	424.08
594.865	421.74
595.286	417.05
595.707	459.18
596.128	386.63
596.549	428.76
596.97	456.84
597.39	388.97
597.811	456.84
598.232	391.31
598.652	370.24
599.073	412.37
599.494	426.42
599.914	421.74
600.334	468.55
600.755	417.05
601.175	424.08
601.595	346.84
602.015	456.84
602.436	381.95
602.856	501.31
603.276	475.57
603.696	410.03
604.115	388.97
604.535	473.23
604.955	393.65
605.375	356.2
605.794	421.74
606.214	388.97
606.634	417.05
607.053	395.99
607.473	470.89
607.892	386.63
608.311	417.05
608.731	384.29
609.15	456.84
609.569	601.96
609.988	630.04
610.407	721.32
610.826	770.48
611.245	861.76
611.664	803.24
612.083	728.35
612.501	779.84
612.92	733.03
613.339	648.77
613.757	534.08
614.176	548.12
614.594	513.02
615.013	513.02
615.431	531.74
615.85	475.57
616.268	459.18
616.686	482.59
617.104	407.69
617.522	463.86
617.94	365.56
618.358	419.39
618.776	435.78
619.194	440.46
619.612	388.97
620.03	470.89
620.447	403.01
620.865	482.59
621.282	400.67
621.7	459.18
622.117	419.39
622.535	447.48
622.952	403.01
623.369	435.78
623.787	391.31
624.204	388.97
624.621	374.92
625.038	367.9
625.455	510.68
625.872	431.1
626.289	403.01
626.706	391.31
627.123	447.48
627.539	365.56
627.956	367.9
628.373	386.63
628.789	356.2
629.206	295.35
629.622	424.08
630.038	424.08
630.455	400.67
630.871	424.08
631.287	431.1
631.703	414.71
632.12	377.27
632.536	393.65
632.952	377.27
633.368	419.39
633.783	353.86
634.199	410.03
634.615	377.27
635.031	377.27
635.446	393.65
635.862	328.11
636.277	351.52
636.693	386.63
637.108	344.5
637.524	466.21
637.939	321.09
638.354	370.24
638.77	377.27
639.185	356.2
639.6	346.84
640.015	330.45
640.43	421.74
640.845	419.39
641.259	302.37
641.674	405.35
642.089	321.09
642.504	381.95
642.918	342.16
643.333	353.86
643.747	307.05
644.162	391.31
644.576	426.42
644.991	300.03
645.405	351.52
645.819	271.94
646.233	379.61
646.647	374.92
647.061	321.09
647.475	374.92
647.889	344.5
648.303	309.39
648.717	363.22
649.131	395.99
649.545	311.73
649.958	351.52
650.372	358.54
650.785	374.92
651.199	269.6
651.612	288.32
652.026	342.16
652.439	335.14
652.852	283.64
653.266	365.56
653.679	384.29
654.092	332.79
654.505	365.56
654.918	363.22
655.331	344.5
655.744	400.67
656.156	365.56
656.569	307.05
656.982	304.71
657.394	365.56
657.807	379.61
658.22	353.86
658.632	356.2
659.044	281.3
659.457	293.01
659.869	337.48
660.281	374.92
660.693	325.77
661.106	363.22
661.518	311.73
661.93	344.5
662.342	353.86
662.754	398.33
663.165	332.79
663.577	302.37
663.989	379.61
664.401	356.2
664.812	351.52
665.224	342.16
665.635	358.54
666.047	403.01
666.458	311.73
666.869	403.01
667.281	356.2
667.692	330.45
668.103	363.22
668.514	288.32
668.925	339.82
669.336	405.35
669.747	391.31
670.158	351.52
670.569	346.84
670.979	321.09
671.39	358.54
671.801	304.71
672.211	309.39
672.622	363.22
673.032	367.9
673.443	269.6
673.853	379.61
674.263	386.63
674.674	431.1
675.084	353.86
675.494	351.52
675.904	384.29
676.314	321.09
676.724	293.01
677.134	267.26
677.544	370.24
677.953	358.54
678.363	353.86
678.773	377.27
679.182	267.26
679.592	337.48
680.001	419.39
680.411	342.16
680.82	353.86
681.23	309.39
681.639	363.22
682.048	342.16
682.457	332.79
682.866	281.3
683.275	339.82
683.684	304.71
684.093	300.03
684.502	304.71
684.911	367.9
685.32	391.31
685.728	323.43
686.137	344.5
686.546	332.79
686.954	349.18
687.363	356.2
687.771	304.71
688.179	370.24
688.588	304.71
688.996	278.96
689.404	386.63
689.812	332.79
690.22	407.69
690.628	384.29
691.036	328.11
691.444	372.58
691.852	370.24
692.26	304.71
692.667	358.54
693.075	321.09
693.483	388.97
693.89	342.16
694.298	360.88
694.705	330.45
695.112	381.95
695.52	346.84
695.927	332.79
696.334	295.35
696.741	330.45
697.148	342.16
697.555	325.77
697.962	309.39
698.369	407.69
698.776	330.45
699.183	374.92
699.59	290.67
699.996	269.6
700.403	328.11
700.81	278.96
701.216	325.77
701.623	353.86
702.029	332.79
702.435	358.54
702.842	342.16
703.248	360.88
703.654	323.43
704.06	374.92
704.466	344.5
704.872	332.79
705.278	318.75
705.684	356.2
706.09	321.09
706.496	328.11
706.901	346.84
707.307	377.27
707.712	288.32
708.118	358.54
708.523	410.03
708.929	419.39
709.334	358.54
709.74	360.88
710.145	395.99
710.55	314.07
710.955	309.39
711.36	419.39
711.765	328.11
712.17	377.27
712.575	351.52
712.98	943.67
713.385	403.01
713.789	349.18
714.194	358.54
714.599	323.43
715.003	398.33
715.408	321.09
715.812	358.54
716.217	433.44
716.621	342.16
717.025	337.48
717.429	335.14
717.833	349.18
718.238	311.73
718.642	262.58
719.046	372.58
719.449	342.16
719.853	316.41
720.257	344.5
720.661	316.41
721.065	384.29
721.468	337.48
721.872	388.97
722.275	281.3
722.679	323.43
723.082	372.58
723.485	288.32
723.889	332.79
724.292	283.64
724.695	295.35
725.098	360.88
725.501	388.97
725.904	328.11
726.307	307.05
726.71	276.62
727.113	337.48
727.516	323.43
727.918	344.5
728.321	360.88
728.724	314.07
729.126	358.54
729.529	337.48
729.931	388.97
730.333	314.07
730.736	328.11
731.138	311.73
731.54	316.41
731.942	337.48
732.344	370.24
732.746	349.18
733.148	419.39
733.55	365.56
733.952	321.09
734.354	332.79
734.756	363.22
735.157	281.3
735.559	293.01
735.96	283.64
736.362	384.29
736.763	262.58
737.165	307.05
737.566	283.64
737.967	325.77
738.368	344.5
738.77	302.37
739.171	342.16
739.572	302.37
739.973	360.88
740.374	290.67
740.774	311.73
741.175	342.16
741.576	335.14
741.977	388.97
742.377	353.86
742.778	367.9
743.178	309.39
743.579	388.97
743.979	290.67
744.379	314.07
744.78	307.05
745.18	302.37
745.58	328.11
745.98	325.77
746.38	300.03
746.78	304.71
747.18	386.63
747.58	330.45
747.98	300.03
748.38	316.41
748.779	323.43
749.179	325.77
749.578	330.45
749.978	311.73
750.377	360.88
750.777	370.24
751.176	337.48
751.575	391.31
751.975	335.14
752.374	328.11
752.773	365.56
753.172	241.51
753.571	318.75
753.97	309.39
754.369	344.5
754.768	321.09
755.166	337.48
755.565	297.69
755.964	344.5
756.362	393.65
756.761	335.14
757.159	307.05
757.558	388.97
757.956	398.33
758.354	316.41
758.753	426.42
759.151	328.11
759.549	342.16
759.947	346.84
760.345	262.58
760.743	281.3
761.141	339.82
761.539	304.71
761.936	321.09
762.334	330.45
762.732	339.82
763.129	367.9
763.527	393.65
763.924	377.27
764.322	358.54
764.719	363.22
