Data from Al_FLMS009871__731__15-12-40-829.txt Node

Date: Fri Mar 08 15:12:40 CST 2024
User: pe5414po
Spectrometer: FLMS00987
Trigger mode: 0
Integration Time (sec): 1.000000E-1
Scans to average: 1
Electric dark correction enabled: true
Nonlinearity correction enabled: false
Boxcar width: 0
XAxis mode: Wavelengths
Number of Pixels in Spectrum: 2048
>>>>>Begin Spectral Data<<<<<
188.938	-82.65
189.409	-82.65
189.879	-82.65
190.349	-103.71
190.819	-124.78
191.29	-103.71
191.76	-47.54
192.23	-56.9
192.7	-113.08
193.17	-59.24
193.64	-19.46
194.109	-84.99
194.579	-28.82
195.049	22.67
195.519	-3.07
195.988	-5.41
196.458	69.48
196.927	135.02
197.397	57.78
197.866	151.4
198.336	85.87
198.805	132.68
199.274	118.64
199.744	163.11
200.213	149.06
200.682	219.28
201.151	186.51
201.62	259.07
202.089	230.98
202.558	223.96
203.027	240.34
203.495	214.6
203.964	277.79
204.433	240.34
204.902	355.03
205.37	226.3
205.839	252.05
206.307	329.28
206.776	343.33
207.244	294.18
207.712	242.68
208.181	252.05
208.649	252.05
209.117	315.24
209.585	301.2
210.053	233.32
210.521	294.18
210.989	275.45
211.457	310.56
211.925	336.31
212.393	284.81
212.861	268.43
213.328	259.07
213.796	242.68
214.264	252.05
214.731	249.71
215.199	259.07
215.666	273.11
216.133	233.32
216.601	256.73
217.068	226.3
217.535	319.92
218.003	284.81
218.47	308.22
218.937	319.92
219.404	298.86
219.871	266.09
220.338	287.15
220.805	228.64
221.271	280.13
221.738	303.54
222.205	291.84
222.671	240.34
223.138	291.84
223.605	214.6
224.071	254.39
224.538	308.22
225.004	277.79
225.47	242.68
225.937	256.73
226.403	270.77
226.869	256.73
227.335	249.71
227.801	350.35
228.267	259.07
228.733	284.81
229.199	268.43
229.665	282.47
230.131	301.2
230.597	235.66
231.062	301.2
231.528	301.2
231.994	228.64
232.459	233.32
232.925	308.22
233.39	223.96
233.856	247.37
234.321	310.56
234.786	238
235.252	252.05
235.717	284.81
236.182	263.75
236.647	336.31
237.112	254.39
237.577	228.64
238.042	310.56
238.507	303.54
238.972	294.18
239.436	284.81
239.901	291.84
240.366	233.32
240.83	273.11
241.295	277.79
241.76	287.15
242.224	317.58
242.688	219.28
243.153	340.99
243.617	273.11
244.081	282.47
244.545	303.54
245.01	226.3
245.474	310.56
245.938	252.05
246.402	252.05
246.866	324.6
247.33	373.75
247.793	289.5
248.257	275.45
248.721	270.77
249.185	305.88
249.648	205.24
250.112	308.22
250.575	245.02
251.039	280.13
251.502	263.75
251.965	233.32
252.429	256.73
252.892	247.37
253.355	256.73
253.818	303.54
254.281	289.5
254.744	305.88
255.207	343.33
255.67	324.6
256.133	254.39
256.596	275.45
257.059	263.75
257.522	296.52
257.984	277.79
258.447	312.9
258.909	259.07
259.372	252.05
259.834	291.84
260.297	305.88
260.759	291.84
261.221	268.43
261.684	284.81
262.146	247.37
262.608	291.84
263.07	270.77
263.532	282.47
263.994	277.79
264.456	338.65
264.918	238
265.38	256.73
265.842	289.5
266.303	301.2
266.765	266.09
267.227	282.47
267.688	301.2
268.15	350.35
268.611	326.94
269.072	221.62
269.534	308.22
269.995	336.31
270.456	343.33
270.918	266.09
271.379	263.75
271.84	275.45
272.301	261.41
272.762	329.28
273.223	310.56
273.684	289.5
274.144	329.28
274.605	266.09
275.066	308.22
275.527	312.9
275.987	303.54
276.448	336.31
276.908	277.79
277.369	275.45
277.829	268.43
278.289	343.33
278.75	294.18
279.21	357.37
279.67	282.47
280.13	249.71
280.59	240.34
281.05	291.84
281.51	284.81
281.97	284.81
282.43	338.65
282.89	296.52
283.35	326.94
283.809	296.52
284.269	380.78
284.729	289.5
285.188	296.52
285.648	280.13
286.107	362.05
286.567	324.6
287.026	284.81
287.485	287.15
287.944	261.41
288.404	277.79
288.863	324.6
289.322	291.84
289.781	291.84
290.24	238
290.699	319.92
291.158	296.52
291.616	275.45
292.075	284.81
292.534	305.88
292.992	275.45
293.451	348.01
293.91	291.84
294.368	296.52
294.827	343.33
295.285	296.52
295.743	336.31
296.202	326.94
296.66	296.52
297.118	329.28
297.576	305.88
298.034	233.32
298.492	331.62
298.95	305.88
299.408	331.62
299.866	329.28
300.324	331.62
300.781	352.69
301.239	348.01
301.697	324.6
302.154	223.96
302.612	287.15
303.069	221.62
303.527	317.58
303.984	207.58
304.441	312.9
304.899	282.47
305.356	319.92
305.813	261.41
306.27	298.86
306.727	268.43
307.184	350.35
307.641	308.22
308.098	298.86
308.555	326.94
309.012	287.15
309.468	310.56
309.925	270.77
310.382	331.62
310.838	322.26
311.295	268.43
311.751	331.62
312.208	280.13
312.664	319.92
313.12	296.52
313.577	287.15
314.033	310.56
314.489	294.18
314.945	266.09
315.401	277.79
315.857	291.84
316.313	294.18
316.769	310.56
317.225	329.28
317.681	277.79
318.136	308.22
318.592	319.92
319.048	317.58
319.503	303.54
319.959	296.52
320.414	303.54
320.869	298.86
321.325	270.77
321.78	315.24
322.235	310.56
322.691	310.56
323.146	425.25
323.601	326.94
324.056	333.97
324.511	284.81
324.966	312.9
325.421	310.56
325.875	298.86
326.33	296.52
326.785	301.2
327.24	315.24
327.694	266.09
328.149	303.54
328.603	268.43
329.058	298.86
329.512	338.65
329.966	319.92
330.421	301.2
330.875	273.11
331.329	270.77
331.783	340.99
332.237	340.99
332.691	378.44
333.145	275.45
333.599	303.54
334.053	254.39
334.507	362.05
334.96	329.28
335.414	357.37
335.868	291.84
336.321	256.73
336.775	333.97
337.228	280.13
337.682	350.35
338.135	308.22
338.588	315.24
339.042	319.92
339.495	317.58
339.948	376.09
340.401	340.99
340.854	324.6
341.307	378.44
341.76	317.58
342.213	317.58
342.666	291.84
343.119	343.33
343.571	315.24
344.024	345.67
344.477	312.9
344.929	336.31
345.382	305.88
345.834	263.75
346.287	270.77
346.739	338.65
347.191	406.52
347.644	277.79
348.096	289.5
348.548	317.58
349	280.13
349.452	296.52
349.904	245.02
350.356	270.77
350.808	317.58
351.26	355.03
351.711	301.2
352.163	280.13
352.615	280.13
353.066	289.5
353.518	336.31
353.969	312.9
354.421	378.44
354.872	289.5
355.324	326.94
355.775	392.48
356.226	333.97
356.677	263.75
357.128	364.39
357.579	270.77
358.03	266.09
358.481	310.56
358.932	289.5
359.383	345.67
359.834	284.81
360.285	296.52
360.735	308.22
361.186	340.99
361.637	284.81
362.087	305.88
362.538	324.6
362.988	359.71
363.438	287.15
363.889	310.56
364.339	301.2
364.789	268.43
365.239	357.37
365.689	291.84
366.139	289.5
366.589	312.9
367.039	296.52
367.489	364.39
367.939	345.67
368.389	331.62
368.839	324.6
369.288	198.21
369.738	355.03
370.187	326.94
370.637	296.52
371.086	315.24
371.536	247.37
371.985	289.5
372.434	369.07
372.884	333.97
373.333	296.52
373.782	245.02
374.231	336.31
374.68	371.41
375.129	287.15
375.578	333.97
376.027	280.13
376.475	326.94
376.924	319.92
377.373	249.71
377.822	310.56
378.27	256.73
378.719	317.58
379.167	350.35
379.616	301.2
380.064	308.22
380.512	329.28
380.961	364.39
381.409	329.28
381.857	308.22
382.305	303.54
382.753	266.09
383.201	298.86
383.649	326.94
384.097	336.31
384.545	296.52
384.992	273.11
385.44	261.41
385.888	308.22
386.335	326.94
386.783	273.11
387.231	261.41
387.678	312.9
388.125	364.39
388.573	308.22
389.02	317.58
389.467	308.22
389.914	333.97
390.362	289.5
390.809	369.07
391.256	350.35
391.703	275.45
392.15	366.73
392.596	270.77
393.043	324.6
393.49	310.56
393.937	273.11
394.383	289.5
394.83	331.62
395.276	324.6
395.723	373.75
396.169	359.71
396.616	294.18
397.062	287.15
397.508	394.82
397.954	350.35
398.401	352.69
398.847	338.65
399.293	287.15
399.739	252.05
400.185	343.33
400.631	273.11
401.076	266.09
401.522	301.2
401.968	298.86
402.414	338.65
402.859	322.26
403.305	305.88
403.75	322.26
404.196	289.5
404.641	270.77
405.086	291.84
405.532	296.52
405.977	240.34
406.422	331.62
406.867	345.67
407.312	280.13
407.757	305.88
408.202	324.6
408.647	333.97
409.092	312.9
409.537	383.12
409.982	310.56
410.426	319.92
410.871	329.28
411.316	301.2
411.76	284.81
412.205	280.13
412.649	326.94
413.093	336.31
413.538	317.58
413.982	319.92
414.426	345.67
414.87	308.22
415.314	345.67
415.758	317.58
416.202	308.22
416.646	336.31
417.09	355.03
417.534	284.81
417.978	289.5
418.421	298.86
418.865	312.9
419.309	326.94
419.752	329.28
420.196	345.67
420.639	303.54
421.083	315.24
421.526	336.31
421.969	312.9
422.412	340.99
422.856	282.47
423.299	315.24
423.742	312.9
424.185	371.41
424.628	343.33
425.071	275.45
425.513	352.69
425.956	305.88
426.399	399.5
426.842	333.97
427.284	348.01
427.727	305.88
428.169	333.97
428.612	324.6
429.054	315.24
429.497	331.62
429.939	385.46
430.381	273.11
430.823	366.73
431.265	277.79
431.707	277.79
432.149	331.62
432.591	275.45
433.033	284.81
433.475	277.79
433.917	291.84
434.359	333.97
434.8	296.52
435.242	333.97
435.684	268.43
436.125	378.44
436.567	315.24
437.008	235.66
437.449	305.88
437.891	296.52
438.332	319.92
438.773	315.24
439.214	294.18
439.656	319.92
440.097	235.66
440.538	289.5
440.978	357.37
441.419	329.28
441.86	298.86
442.301	359.71
442.742	294.18
443.182	350.35
443.623	345.67
444.063	369.07
444.504	230.98
444.944	385.46
445.385	371.41
445.825	331.62
446.265	277.79
446.706	319.92
447.146	369.07
447.586	277.79
448.026	268.43
448.466	315.24
448.906	350.35
449.346	371.41
449.786	310.56
450.225	254.39
450.665	305.88
451.105	296.52
451.544	287.15
451.984	336.31
452.424	317.58
452.863	319.92
453.302	338.65
453.742	362.05
454.181	331.62
454.62	340.99
455.059	359.71
455.499	331.62
455.938	329.28
456.377	282.47
456.816	296.52
457.254	362.05
457.693	357.37
458.132	350.35
458.571	350.35
459.01	343.33
459.448	348.01
459.887	345.67
460.325	305.88
460.764	291.84
461.202	329.28
461.641	345.67
462.079	280.13
462.517	319.92
462.955	303.54
463.393	336.31
463.832	308.22
464.27	326.94
464.708	275.45
465.145	352.69
465.583	289.5
466.021	308.22
466.459	331.62
466.897	329.28
467.334	287.15
467.772	303.54
468.209	350.35
468.647	329.28
469.084	270.77
469.522	310.56
469.959	333.97
470.396	352.69
470.833	266.09
471.271	298.86
471.708	294.18
472.145	277.79
472.582	348.01
473.019	333.97
473.456	331.62
473.892	301.2
474.329	319.92
474.766	336.31
475.202	277.79
475.639	348.01
476.076	350.35
476.512	284.81
476.949	298.86
477.385	315.24
477.821	298.86
478.258	273.11
478.694	348.01
479.13	308.22
479.566	357.37
480.002	355.03
480.438	355.03
480.874	280.13
481.31	397.16
481.746	369.07
482.181	294.18
482.617	294.18
483.053	275.45
483.488	268.43
483.924	273.11
484.36	263.75
484.795	329.28
485.23	324.6
485.666	348.01
486.101	340.99
486.536	350.35
486.971	228.64
487.407	263.75
487.842	303.54
488.277	338.65
488.712	315.24
489.146	277.79
489.581	322.26
490.016	268.43
490.451	303.54
490.885	357.37
491.32	329.28
491.755	385.46
492.189	324.6
492.624	315.24
493.058	303.54
493.492	252.05
493.927	289.5
494.361	263.75
494.795	301.2
495.229	277.79
495.663	326.94
496.097	247.37
496.531	317.58
496.965	280.13
497.399	268.43
497.833	345.67
498.266	282.47
498.7	322.26
499.134	298.86
499.567	296.52
500.001	350.35
500.434	401.84
500.868	235.66
501.301	317.58
501.734	310.56
502.168	301.2
502.601	336.31
503.034	308.22
503.467	326.94
503.9	252.05
504.333	387.8
504.766	289.5
505.199	340.99
505.632	317.58
506.064	326.94
506.497	324.6
506.93	247.37
507.362	296.52
507.795	303.54
508.227	387.8
508.66	287.15
509.092	291.84
509.524	305.88
509.956	296.52
510.389	291.84
510.821	338.65
511.253	331.62
511.685	324.6
512.117	352.69
512.549	284.81
512.981	350.35
513.412	343.33
513.844	319.92
514.276	343.33
514.707	291.84
515.139	338.65
515.571	287.15
516.002	312.9
516.433	310.56
516.865	289.5
517.296	350.35
517.727	333.97
518.159	343.33
518.59	308.22
519.021	331.62
519.452	333.97
519.883	352.69
520.314	310.56
520.744	266.09
521.175	338.65
521.606	329.28
522.037	296.52
522.467	350.35
522.898	287.15
523.328	355.03
523.759	331.62
524.189	263.75
524.62	324.6
525.05	268.43
525.48	308.22
525.91	315.24
526.341	298.86
526.771	315.24
527.201	291.84
527.631	364.39
528.061	291.84
528.49	331.62
528.92	324.6
529.35	317.58
529.78	355.03
530.209	209.92
530.639	348.01
531.068	259.07
531.498	340.99
531.927	336.31
532.357	348.01
532.786	336.31
533.215	305.88
533.644	291.84
534.074	326.94
534.503	303.54
534.932	350.35
535.361	287.15
535.79	298.86
536.218	373.75
536.647	245.02
537.076	268.43
537.505	310.56
537.933	308.22
538.362	345.67
538.79	294.18
539.219	301.2
539.647	294.18
540.076	312.9
540.504	270.77
540.932	305.88
541.36	284.81
541.788	338.65
542.217	273.11
542.645	270.77
543.073	343.33
543.5	324.6
543.928	331.62
544.356	308.22
544.784	336.31
545.211	348.01
545.639	235.66
546.067	273.11
546.494	345.67
546.922	303.54
547.349	303.54
547.776	298.86
548.204	289.5
548.631	256.73
549.058	348.01
549.485	296.52
549.912	340.99
550.339	294.18
550.766	249.71
551.193	340.99
551.62	338.65
552.047	366.73
552.474	273.11
552.9	338.65
553.327	319.92
553.754	336.31
554.18	345.67
554.607	326.94
555.033	266.09
555.459	247.37
555.886	303.54
556.312	298.86
556.738	326.94
557.164	287.15
557.59	366.73
558.016	305.88
558.442	369.07
558.868	326.94
559.294	287.15
559.72	345.67
560.145	305.88
560.571	333.97
560.997	345.67
561.422	376.09
561.848	298.86
562.273	380.78
562.699	277.79
563.124	303.54
563.549	340.99
563.974	322.26
564.4	329.28
564.825	301.2
565.25	319.92
565.675	329.28
566.1	310.56
566.525	350.35
566.95	378.44
567.374	280.13
567.799	331.62
568.224	294.18
568.648	333.97
569.073	376.09
569.497	280.13
569.922	305.88
570.346	305.88
570.771	319.92
571.195	280.13
571.619	336.31
572.043	366.73
572.467	245.02
572.891	322.26
573.315	340.99
573.739	336.31
574.163	326.94
574.587	280.13
575.011	287.15
575.435	333.97
575.858	326.94
576.282	317.58
576.705	350.35
577.129	324.6
577.552	333.97
577.976	280.13
578.399	355.03
578.822	329.28
579.245	277.79
579.669	282.47
580.092	331.62
580.515	326.94
580.938	308.22
581.361	305.88
581.784	359.71
582.206	254.39
582.629	280.13
583.052	266.09
583.474	291.84
583.897	394.82
584.32	270.77
584.742	280.13
585.165	324.6
585.587	336.31
586.009	340.99
586.431	336.31
586.854	336.31
587.276	282.47
587.698	289.5
588.12	301.2
588.542	336.31
588.964	359.71
589.386	355.03
589.807	336.31
590.229	340.99
590.651	312.9
591.073	319.92
591.494	303.54
591.916	345.67
592.337	362.05
592.759	287.15
593.18	284.81
593.601	273.11
594.022	312.9
594.444	329.28
594.865	371.41
595.286	282.47
595.707	280.13
596.128	343.33
596.549	270.77
596.97	324.6
597.39	322.26
597.811	294.18
598.232	301.2
598.652	275.45
599.073	315.24
599.494	259.07
599.914	291.84
600.334	303.54
600.755	305.88
601.175	310.56
601.595	348.01
602.015	331.62
602.436	273.11
602.856	422.91
603.276	303.54
603.696	298.86
604.115	310.56
604.535	317.58
604.955	294.18
605.375	287.15
605.794	284.81
606.214	298.86
606.634	331.62
607.053	319.92
607.473	357.37
607.892	305.88
608.311	378.44
608.731	329.28
609.15	392.48
609.569	369.07
609.988	324.6
610.407	343.33
610.826	308.22
611.245	369.07
611.664	343.33
612.083	315.24
612.501	324.6
612.92	284.81
613.339	305.88
613.757	319.92
614.176	310.56
614.594	348.01
615.013	357.37
615.431	329.28
615.85	322.26
616.268	317.58
616.686	359.71
617.104	369.07
617.522	270.77
617.94	333.97
618.358	308.22
618.776	287.15
619.194	245.02
619.612	345.67
620.03	282.47
620.447	294.18
620.865	352.69
621.282	317.58
621.7	312.9
622.117	350.35
622.535	287.15
622.952	319.92
623.369	252.05
623.787	282.47
624.204	315.24
624.621	315.24
625.038	308.22
625.455	350.35
625.872	298.86
626.289	380.78
626.706	371.41
627.123	303.54
627.539	338.65
627.956	308.22
628.373	310.56
628.789	324.6
629.206	338.65
629.622	289.5
630.038	383.12
630.455	369.07
630.871	352.69
631.287	331.62
631.703	317.58
632.12	345.67
632.536	357.37
632.952	329.28
633.368	319.92
633.783	336.31
634.199	331.62
634.615	294.18
635.031	355.03
635.446	280.13
635.862	387.8
636.277	263.75
636.693	338.65
637.108	355.03
637.524	355.03
637.939	301.2
638.354	322.26
638.77	312.9
639.185	345.67
639.6	298.86
640.015	317.58
640.43	273.11
640.845	366.73
641.259	280.13
641.674	336.31
642.089	322.26
642.504	312.9
642.918	303.54
643.333	345.67
643.747	326.94
644.162	277.79
644.576	338.65
644.991	324.6
645.405	350.35
645.819	350.35
646.233	282.47
646.647	369.07
647.061	352.69
647.475	338.65
647.889	329.28
648.303	294.18
648.717	329.28
649.131	273.11
649.545	340.99
649.958	312.9
650.372	315.24
650.785	312.9
651.199	336.31
651.612	319.92
652.026	404.18
652.439	329.28
652.852	263.75
653.266	331.62
653.679	331.62
654.092	298.86
654.505	266.09
654.918	308.22
655.331	291.84
655.744	315.24
656.156	294.18
656.569	427.59
656.982	336.31
657.394	312.9
657.807	399.5
658.22	315.24
658.632	324.6
659.044	373.75
659.457	291.84
659.869	333.97
660.281	319.92
660.693	385.46
661.106	326.94
661.518	340.99
661.93	324.6
662.342	326.94
662.754	289.5
663.165	294.18
663.577	296.52
663.989	338.65
664.401	322.26
664.812	350.35
665.224	301.2
665.635	273.11
666.047	308.22
666.458	315.24
666.869	259.07
667.281	308.22
667.692	266.09
668.103	326.94
668.514	301.2
668.925	343.33
669.336	312.9
669.747	352.69
670.158	289.5
670.569	326.94
670.979	329.28
671.39	296.52
671.801	366.73
672.211	312.9
672.622	261.41
673.032	294.18
673.443	259.07
673.853	294.18
674.263	305.88
674.674	355.03
675.084	329.28
675.494	282.47
675.904	282.47
676.314	333.97
676.724	294.18
677.134	345.67
677.544	266.09
677.953	369.07
678.363	348.01
678.773	329.28
679.182	336.31
679.592	357.37
680.001	329.28
680.411	280.13
680.82	275.45
681.23	345.67
681.639	280.13
682.048	373.75
682.457	322.26
682.866	329.28
683.275	359.71
683.684	373.75
684.093	308.22
684.502	310.56
684.911	303.54
685.32	291.84
685.728	308.22
686.137	397.16
686.546	312.9
686.954	343.33
687.363	369.07
687.771	336.31
688.179	301.2
688.588	305.88
688.996	296.52
689.404	287.15
689.812	364.39
690.22	275.45
690.628	268.43
691.036	282.47
691.444	348.01
691.852	322.26
692.26	273.11
692.667	319.92
693.075	331.62
693.483	308.22
693.89	291.84
694.298	294.18
694.705	247.37
695.112	390.14
695.52	233.32
695.927	308.22
696.334	287.15
696.741	385.46
697.148	357.37
697.555	303.54
697.962	289.5
698.369	376.09
698.776	280.13
699.183	340.99
699.59	324.6
699.996	266.09
700.403	298.86
700.81	284.81
701.216	287.15
701.623	324.6
702.029	324.6
702.435	303.54
702.842	333.97
703.248	343.33
703.654	329.28
704.06	329.28
704.466	404.18
704.872	348.01
705.278	268.43
705.684	359.71
706.09	369.07
706.496	340.99
706.901	340.99
707.307	315.24
707.712	310.56
708.118	319.92
708.523	273.11
708.929	310.56
709.334	376.09
709.74	322.26
710.145	415.88
710.55	336.31
710.955	312.9
711.36	303.54
711.765	249.71
712.17	277.79
712.575	364.39
712.98	947.19
713.385	338.65
713.789	305.88
714.194	338.65
714.599	326.94
715.003	345.67
715.408	312.9
715.812	352.69
716.217	322.26
716.621	317.58
717.025	270.77
717.429	329.28
717.833	380.78
718.238	268.43
718.642	392.48
719.046	317.58
719.449	331.62
719.853	277.79
720.257	343.33
720.661	355.03
721.065	256.73
721.468	301.2
721.872	329.28
722.275	254.39
722.679	280.13
723.082	324.6
723.485	312.9
723.889	326.94
724.292	326.94
724.695	298.86
725.098	310.56
725.501	366.73
725.904	317.58
726.307	289.5
726.71	270.77
727.113	289.5
727.516	312.9
727.918	289.5
728.321	312.9
728.724	326.94
729.126	326.94
729.529	348.01
729.931	312.9
730.333	273.11
730.736	350.35
731.138	411.2
731.54	322.26
731.942	329.28
732.344	317.58
732.746	277.79
733.148	326.94
733.55	273.11
733.952	284.81
734.354	256.73
734.756	296.52
735.157	312.9
735.559	303.54
735.96	333.97
736.362	245.02
736.763	296.52
737.165	348.01
737.566	319.92
737.967	259.07
738.368	364.39
738.77	348.01
739.171	266.09
739.572	280.13
739.973	319.92
740.374	270.77
740.774	345.67
741.175	315.24
741.576	322.26
741.977	322.26
742.377	294.18
742.778	294.18
743.178	282.47
743.579	235.66
743.979	343.33
744.379	324.6
744.78	268.43
745.18	355.03
745.58	266.09
745.98	301.2
746.38	268.43
746.78	287.15
747.18	322.26
747.58	315.24
747.98	294.18
748.38	315.24
748.779	315.24
749.179	319.92
749.578	296.52
749.978	329.28
750.377	263.75
750.777	263.75
751.176	303.54
751.575	371.41
751.975	298.86
752.374	317.58
752.773	266.09
753.172	282.47
753.571	263.75
753.97	336.31
754.369	303.54
754.768	263.75
755.166	270.77
755.565	284.81
755.964	373.75
756.362	371.41
756.761	312.9
757.159	247.37
757.558	362.05
757.956	270.77
758.354	296.52
758.753	329.28
759.151	362.05
759.549	291.84
759.947	298.86
760.345	273.11
760.743	275.45
761.141	263.75
761.539	284.81
761.936	322.26
762.334	312.9
762.732	366.73
763.129	326.94
763.527	343.33
763.924	315.24
764.322	352.69
764.719	322.26
765.117	317.58
