Data from Al_FLMS009871__729__15-12-40-629.txt Node

Date: Fri Mar 08 15:12:40 CST 2024
User: pe5414po
Spectrometer: FLMS00987
Trigger mode: 0
Integration Time (sec): 1.000000E-1
Scans to average: 1
Electric dark correction enabled: true
Nonlinearity correction enabled: false
Boxcar width: 0
XAxis mode: Wavelengths
Number of Pixels in Spectrum: 2048
>>>>>Begin Spectral Data<<<<<
188.938	-100.06
189.409	-100.06
189.879	-100.06
190.349	-88.36
190.819	-88.36
191.29	-139.85
191.76	-144.53
192.23	-97.72
192.7	-25.16
193.17	-67.29
193.64	-32.18
194.109	-20.48
194.579	26.33
195.049	19.31
195.519	35.69
195.988	45.06
196.458	16.97
196.927	26.33
197.397	56.76
197.866	157.4
198.336	143.36
198.805	180.81
199.274	176.13
199.744	258.04
200.213	232.3
200.682	309.54
201.151	309.54
201.62	279.11
202.089	288.47
202.558	288.47
203.027	361.03
203.495	258.04
203.964	307.2
204.433	274.43
204.902	335.28
205.37	330.6
205.839	372.73
206.307	410.18
206.776	412.52
207.244	400.82
207.712	431.24
208.181	503.8
208.649	471.03
209.117	482.74
209.585	541.25
210.053	468.69
210.521	592.74
210.989	637.21
211.457	630.19
211.925	644.23
212.393	693.38
212.861	721.47
213.328	623.17
213.796	744.88
214.264	812.75
214.731	833.82
215.199	885.31
215.666	882.97
216.133	1051.49
216.601	1093.62
217.068	1315.97
217.535	1374.48
218.003	1526.61
218.47	1470.44
218.937	1463.42
219.404	1613.21
219.871	1645.98
220.338	1671.73
220.805	1648.32
221.271	1826.2
221.738	1821.52
222.205	1791.09
222.671	1926.85
223.138	2121.11
223.605	2111.75
224.071	2100.05
224.538	1994.72
225.004	2174.94
225.47	2291.97
225.937	2212.39
226.403	2102.39
226.869	2055.58
227.335	1929.19
227.801	1884.72
228.267	1994.72
228.733	1959.61
229.199	1940.89
229.665	2214.73
230.131	2425.38
230.597	2444.1
231.062	2439.42
231.528	2219.41
231.994	2198.35
232.459	2111.75
232.925	2116.43
233.39	2160.9
233.856	2425.38
234.321	2727.31
234.786	3485.64
235.252	4438.24
235.717	5404.88
236.182	5678.72
236.647	5037.42
237.112	3928
237.577	2832.63
238.042	2472.19
238.507	2090.68
238.972	1933.87
239.436	1964.29
239.901	1884.72
240.366	1812.16
240.83	1830.88
241.295	1973.66
241.76	1992.38
242.224	1938.55
242.688	1992.38
243.153	1992.38
243.617	1945.57
244.081	1987.7
244.545	2074.3
245.01	2109.41
245.474	2282.61
245.938	2217.07
246.402	1985.36
246.866	2001.74
247.33	2078.98
247.793	2011.11
248.257	1992.38
248.721	2013.45
249.185	2001.74
249.648	2013.45
250.112	1917.48
250.575	2001.74
251.039	2093.02
251.502	2053.23
251.965	2018.13
252.429	2034.51
252.892	2301.33
253.355	2029.83
253.818	2200.69
254.281	2203.03
254.744	2551.77
255.207	2877.1
255.67	3532.45
256.133	4433.56
256.596	4826.77
257.059	4295.47
257.522	3707.99
257.984	3146.27
258.447	2937.96
258.909	2825.61
259.372	2863.06
259.834	2771.78
260.297	2809.23
260.759	2881.78
261.221	2877.1
261.684	3401.38
262.146	4246.32
262.608	4447.6
263.07	4056.73
263.532	3394.36
263.994	3394.36
264.456	3410.75
264.918	3385
265.38	3422.45
265.842	3040.94
266.303	2610.28
266.765	2284.95
267.227	2100.05
267.688	2071.96
268.15	2109.41
268.611	2123.45
269.072	2069.62
269.534	2107.07
269.995	2144.52
270.456	2050.89
270.918	1992.38
271.379	1980.68
271.84	1877.69
272.301	1840.25
272.762	1961.95
273.223	1964.29
273.684	1917.48
274.144	1940.89
274.605	1992.38
275.066	2067.28
275.527	2039.19
275.987	2268.56
276.448	2654.75
276.908	3064.35
277.369	3841.4
277.829	5966.61
278.289	9489.12
278.75	13269.08
279.21	14488.5
279.67	12073.07
280.13	8978.88
280.59	7263.27
281.05	6394.93
281.51	5545.31
281.97	4262.7
282.43	3150.95
282.89	2600.92
283.35	2336.44
283.809	2458.15
284.269	3005.83
284.729	2947.32
285.188	2629.01
285.648	2334.1
286.107	1922.16
286.567	1793.44
287.026	1903.44
287.485	1908.12
287.944	1723.22
288.404	1779.39
288.863	1786.41
289.322	1835.57
289.781	1842.59
290.24	1849.61
290.699	1849.61
291.158	1912.8
291.616	2121.11
292.075	2277.93
292.534	2530.7
292.992	2727.31
293.451	2631.35
293.91	2394.95
294.368	2181.96
294.827	2036.85
295.285	1793.44
295.743	1690.45
296.202	1763.01
296.66	1662.37
297.118	1599.17
297.576	1660.02
298.034	1613.21
298.492	1727.9
298.95	1608.53
299.408	1627.26
299.866	1751.31
300.324	1784.07
300.781	1753.65
301.239	1734.92
301.697	1898.76
302.154	1882.38
302.612	2076.64
303.069	2116.43
303.527	2205.37
303.984	2483.89
304.441	3188.39
304.899	3925.66
305.356	4377.39
305.813	4403.13
306.27	4176.1
306.727	4379.73
307.184	5894.05
307.641	8218.21
308.098	9737.21
308.555	10753.01
309.012	9936.16
309.468	7867.13
309.925	5264.45
310.382	3553.52
310.838	2849.02
311.295	2270.9
311.751	2177.28
312.208	2064.94
312.664	1997.06
313.12	1929.19
313.577	1753.65
314.033	1744.28
314.489	1678.75
314.945	1657.68
315.401	1648.32
315.857	1517.25
316.313	1540.66
316.769	1578.11
317.225	1573.43
317.681	1564.06
318.136	1470.44
318.592	1458.74
319.048	1500.87
319.503	1493.85
319.959	1442.36
320.414	1432.99
320.869	1505.55
321.325	1414.27
321.78	1458.74
322.235	1461.08
322.691	1404.91
323.146	1491.51
323.601	1685.77
324.056	2001.74
324.511	2224.09
324.966	2121.11
325.421	1840.25
325.875	1493.85
326.33	1650.66
326.785	1875.35
327.24	2039.19
327.694	1828.54
328.149	1566.4
328.603	1423.63
329.058	1409.59
329.512	1407.25
329.966	1442.36
330.421	1447.04
330.875	1372.14
331.329	1421.29
331.783	1442.36
332.237	1517.25
332.691	1514.91
333.145	1660.02
333.599	1543
334.053	1676.41
334.507	1648.32
334.96	1575.77
335.414	1634.28
335.868	1627.26
336.321	1517.25
336.775	1573.43
337.228	1437.67
337.682	1505.55
338.135	1486.83
338.588	1479.8
339.042	1526.61
339.495	1477.46
339.948	1458.74
340.401	1524.27
340.854	1507.89
341.307	1461.08
341.76	1444.7
342.213	1547.68
342.666	1449.38
343.119	1493.85
343.571	1685.77
344.024	1573.43
344.477	1521.93
344.929	1416.61
345.382	1538.32
345.834	1564.06
346.287	1465.76
346.739	1482.14
347.191	1578.11
347.644	1489.17
348.096	1479.8
348.548	1491.51
349	1498.53
349.452	1514.91
349.904	1489.17
350.356	1592.15
350.808	1638.96
351.26	1582.79
351.711	1631.94
352.163	1653
352.615	1695.13
353.066	1835.57
353.518	1868.33
353.969	1947.91
354.421	1851.95
354.872	1961.95
355.324	2214.73
355.775	2362.19
356.226	2640.71
356.677	2994.13
357.128	3757.14
357.579	4665.27
358.03	5772.35
358.481	6263.86
358.932	5990.02
359.383	5234.02
359.834	4311.85
360.285	3752.46
360.735	3464.58
361.186	3115.84
361.637	2916.89
362.087	2511.98
362.538	2160.9
362.988	2102.39
363.438	1861.31
363.889	1805.14
364.339	1713.86
364.789	1730.24
365.239	1650.66
365.689	1538.32
366.139	1585.13
366.589	1596.83
367.039	1608.53
367.489	1531.3
367.939	1465.76
368.389	1409.59
368.839	1482.14
369.288	1388.52
369.738	1463.42
370.187	1486.83
370.637	1524.27
371.086	1437.67
371.536	1531.3
371.985	1550.02
372.434	1608.53
372.884	1617.9
373.333	1566.4
373.782	1486.83
374.231	1538.32
374.68	1496.19
375.129	1519.59
375.578	1531.3
376.027	1538.32
376.475	1517.25
376.924	1416.61
377.373	1376.82
377.822	1411.93
378.27	1447.04
378.719	1367.46
379.167	1479.8
379.616	1451.72
380.064	1454.06
380.512	1491.51
380.961	1573.43
381.409	1727.9
381.857	1624.92
382.305	1905.78
382.753	2270.9
383.201	2537.73
383.649	2713.27
384.097	2446.44
384.545	2109.41
384.992	1772.37
385.44	1620.24
385.888	1510.23
386.335	1596.83
386.783	1423.63
387.231	1540.66
387.678	1470.44
388.125	1526.61
388.573	1552.36
389.02	1479.8
389.467	1566.4
389.914	1418.95
390.362	1615.55
390.809	1561.72
391.256	1610.87
391.703	1667.05
392.15	1753.65
392.596	1926.85
393.043	2212.39
393.49	2823.27
393.937	4513.14
394.383	6652.39
394.83	7913.94
395.276	7017.51
395.723	7019.85
396.169	8866.53
396.616	9547.63
397.062	6797.5
397.508	4047.37
397.954	2994.13
398.401	2411.34
398.847	2188.99
399.293	2186.65
399.739	2083.66
400.185	1968.98
400.631	1753.65
401.076	1772.37
401.522	1688.11
401.968	1678.75
402.414	1685.77
402.859	1821.52
403.305	1835.57
403.75	1994.72
404.196	1741.94
404.641	1657.68
405.086	1650.66
405.532	1624.92
405.977	1578.11
406.422	1643.64
406.867	1751.31
407.312	1587.47
407.757	1608.53
408.202	1622.58
408.647	1585.13
409.092	1587.47
409.537	1561.72
409.982	1557.04
410.426	1601.51
410.871	1507.89
411.316	1486.83
411.76	1580.45
412.205	1512.57
412.649	1545.34
413.093	1428.31
413.538	1477.46
413.982	1416.61
414.426	1355.76
414.87	1381.5
415.314	1425.97
415.758	1425.97
416.202	1507.89
416.646	1416.61
417.09	1440.01
417.534	1475.12
417.978	1437.67
418.421	1414.27
418.865	1512.57
419.309	1472.78
419.752	1458.74
420.196	1388.52
420.639	1404.91
421.083	1425.97
421.526	1367.46
421.969	1351.07
422.412	1386.18
422.856	1418.95
423.299	1372.14
423.742	1475.12
424.185	1428.31
424.628	1428.31
425.071	1458.74
425.513	1379.16
425.956	1416.61
426.399	1290.22
426.842	1369.8
427.284	1313.63
427.727	1414.27
428.169	1423.63
428.612	1355.76
429.054	1273.84
429.497	1283.2
429.939	1264.47
430.381	1222.34
430.823	1238.73
431.265	1241.07
431.707	1344.05
432.149	1344.05
432.591	1304.26
433.033	1301.92
433.475	1304.26
433.917	1271.5
434.359	1346.39
434.8	1250.43
435.242	1330.01
435.684	1339.37
436.125	1215.32
436.567	1299.58
437.008	1299.58
437.449	1339.37
437.891	1315.97
438.332	1266.81
438.773	1365.12
439.214	1243.41
439.656	1311.29
440.097	1379.16
440.538	1334.69
440.978	1285.54
441.419	1271.5
441.86	1339.37
442.301	1404.91
442.742	1388.52
443.182	1451.72
443.623	1435.33
444.063	1442.36
444.504	1592.15
444.944	1526.61
445.385	1573.43
445.825	1531.3
446.265	1535.98
446.706	1526.61
447.146	1629.6
447.586	1690.45
448.026	1706.84
448.466	1741.94
448.906	1727.9
449.346	1587.47
449.786	1641.3
450.225	1521.93
450.665	1615.55
451.105	1585.13
451.544	1669.39
451.984	1634.28
452.424	1744.28
452.863	1683.43
453.302	1718.54
453.742	1746.62
454.181	1664.71
454.62	1615.55
455.059	1599.17
455.499	1594.49
455.938	1449.38
456.377	1440.01
456.816	1454.06
457.254	1425.97
457.693	1418.95
458.132	1365.12
458.571	1411.93
459.01	1423.63
459.448	1372.14
459.887	1411.93
460.325	1337.03
460.764	1402.57
461.202	1358.1
461.641	1383.84
462.079	1440.01
462.517	1557.04
462.955	1496.19
463.393	1517.25
463.832	1580.45
464.27	1524.27
464.708	1606.19
465.145	1547.68
465.583	1699.81
466.021	1711.52
466.459	1674.07
466.897	1903.44
467.334	1915.14
467.772	1856.63
468.209	1753.65
468.647	1613.21
469.084	1540.66
469.522	1505.55
469.959	1414.27
470.396	1465.76
470.833	1432.99
471.271	1486.83
471.708	1383.84
472.145	1381.5
472.582	1411.93
473.019	1367.46
473.456	1388.52
473.892	1393.2
474.329	1238.73
474.766	1332.35
475.202	1353.41
475.639	1400.23
476.076	1351.07
476.512	1386.18
476.949	1390.86
477.385	1425.97
477.821	1374.48
478.258	1423.63
478.694	1479.8
479.13	1528.95
479.566	1465.76
480.002	1449.38
480.438	1451.72
480.874	1535.98
481.31	1493.85
481.746	1435.33
482.181	1440.01
482.617	1535.98
483.053	1507.89
483.488	1458.74
483.924	1400.23
484.36	1477.46
484.795	1447.04
485.23	1517.25
485.666	1674.07
486.101	1650.66
486.536	1608.53
486.971	1636.62
487.407	1601.51
487.842	1547.68
488.277	1578.11
488.712	1528.95
489.146	1500.87
489.581	1517.25
490.016	1531.3
490.451	1510.23
490.885	1568.74
491.32	1484.48
491.755	1442.36
492.189	1557.04
492.624	1493.85
493.058	1496.19
493.492	1500.87
493.927	1564.06
494.361	1521.93
494.795	1482.14
495.229	1477.46
495.663	1470.44
496.097	1517.25
496.531	1468.1
496.965	1531.3
497.399	1528.95
497.833	1540.66
498.266	1587.47
498.7	1683.43
499.134	1585.13
499.567	1835.57
500.001	1973.66
500.434	2090.68
500.868	2226.43
501.301	2186.65
501.734	2069.62
502.168	1954.93
502.601	1798.12
503.034	1748.97
503.467	1688.11
503.9	1606.19
504.333	1664.71
504.766	1770.03
505.199	1875.35
505.632	1961.95
506.064	1786.41
506.497	1688.11
506.93	1587.47
507.362	1793.44
507.795	1674.07
508.227	1538.32
508.66	1545.34
509.092	1594.49
509.524	1552.36
509.956	1411.93
510.389	1507.89
510.821	1568.74
511.253	1578.11
511.685	1533.64
512.117	1547.68
512.549	1479.8
512.981	1435.33
513.412	1482.14
513.844	1561.72
514.276	1540.66
514.707	1535.98
515.139	1690.45
515.571	1695.13
516.002	1720.88
516.433	1851.95
516.865	1858.97
517.296	2006.42
517.727	2032.17
518.159	2315.37
518.59	2296.65
519.021	2409
519.452	2247.5
519.883	2055.58
520.314	1877.69
520.744	1793.44
521.175	1910.46
521.606	1816.84
522.037	1950.25
522.467	2128.13
522.898	2114.09
523.328	1985.36
523.759	2013.45
524.189	2027.49
524.62	2177.28
525.05	2184.3
525.48	2359.85
525.91	2476.87
526.341	2399.63
526.771	2624.33
527.201	2940.3
527.631	3155.63
528.061	3490.32
528.49	4115.25
528.92	4826.77
529.35	6404.29
529.78	12555.22
530.209	56728.15
530.639	63047.6
531.068	63047.6
531.498	63047.6
531.927	63047.6
532.357	63047.6
532.786	63047.6
533.215	63047.6
533.644	63047.6
534.074	63047.6
534.503	34794.99
534.932	15693.88
535.361	9126.33
535.79	6280.24
536.218	5210.62
536.647	4412.49
537.076	3843.74
537.505	3120.52
537.933	2849.02
538.362	2474.53
538.79	2088.34
539.219	1987.7
539.647	1751.31
540.076	1653
540.504	1653
540.932	1493.85
541.36	1582.79
541.788	1484.48
542.217	1444.7
542.645	1505.55
543.073	1407.25
543.5	1367.46
543.928	1318.31
544.356	1330.01
544.784	1351.07
545.211	1315.97
545.639	1273.84
546.067	1332.35
546.494	1231.71
546.922	1255.11
547.349	1149.79
547.776	1180.22
548.204	1362.78
548.631	1243.41
549.058	1156.81
549.485	1163.83
549.912	1245.75
550.339	1191.92
550.766	1201.28
551.193	1187.24
551.62	1217.66
552.047	1170.85
552.474	1124.04
552.9	1250.43
553.327	1168.51
553.754	1203.62
554.18	1250.43
554.607	1287.88
555.033	1224.69
555.459	1196.6
555.886	1149.79
556.312	1196.6
556.738	1173.19
557.164	1210.64
557.59	1154.47
558.016	1196.6
558.442	1163.83
558.868	1124.04
559.294	1217.66
559.72	1208.3
560.145	1187.24
560.571	1180.22
560.997	1287.88
561.422	1166.17
561.848	1105.32
562.273	1163.83
562.699	1208.3
563.124	1220
563.549	1262.13
563.974	1222.34
564.4	1119.36
564.825	1166.17
565.25	1241.07
565.675	1215.32
566.1	1266.81
566.525	1322.99
566.95	1276.18
567.374	1491.51
567.799	1365.12
568.224	1521.93
568.648	1479.8
569.073	1418.95
569.497	1470.44
569.922	1383.84
570.346	1482.14
570.771	1484.48
571.195	1374.48
571.619	1236.39
572.043	1201.28
572.467	1147.45
572.891	1276.18
573.315	1163.83
573.739	1124.04
574.163	1156.81
574.587	1056.17
575.011	1044.46
575.435	1058.51
575.858	983.61
576.282	1014.04
576.705	990.63
577.129	1070.21
577.552	1002.33
577.976	1007.02
578.399	1016.38
578.822	976.59
579.245	955.52
579.669	899.35
580.092	892.33
580.515	887.65
580.938	819.77
581.361	861.9
581.784	866.58
582.206	866.58
582.629	906.37
583.052	864.24
583.474	787.01
583.897	798.71
584.32	854.88
584.742	854.88
585.165	843.18
585.587	824.45
586.009	871.26
586.431	904.03
586.854	819.77
587.276	885.31
587.698	805.73
588.12	829.13
588.542	733.17
588.964	789.35
589.386	831.48
589.807	852.54
590.229	808.07
590.651	819.77
591.073	763.6
591.494	859.56
591.916	815.09
592.337	824.45
592.759	826.79
593.18	817.43
593.601	812.75
594.022	894.67
594.444	885.31
594.865	847.86
595.286	932.12
595.707	873.6
596.128	826.79
596.549	808.07
596.97	845.52
597.39	850.2
597.811	749.56
598.232	791.69
598.652	782.32
599.073	810.41
599.494	822.11
599.914	763.6
600.334	742.53
600.755	714.45
601.175	770.62
601.595	798.71
602.015	789.35
602.436	847.86
602.856	936.8
603.276	768.28
603.696	815.09
604.115	707.43
604.535	840.84
604.955	815.09
605.375	740.19
605.794	833.82
606.214	812.75
606.634	808.07
607.053	791.69
607.473	796.37
607.892	763.6
608.311	742.53
608.731	847.86
609.15	831.48
609.569	833.82
609.988	873.6
610.407	852.54
610.826	934.46
611.245	822.11
611.664	824.45
612.083	819.77
612.501	819.77
612.92	761.26
613.339	798.71
613.757	805.73
614.176	850.2
614.594	798.71
615.013	777.64
615.431	815.09
615.85	885.31
616.268	817.43
616.686	833.82
617.104	805.73
617.522	749.56
617.94	826.79
618.358	763.6
618.776	801.05
619.194	815.09
619.612	852.54
620.03	787.01
620.447	826.79
620.865	803.39
621.282	875.95
621.7	829.13
622.117	922.76
622.535	899.35
622.952	882.97
623.369	957.86
623.787	1046.8
624.204	1056.17
624.621	1039.78
625.038	1039.78
625.455	1147.45
625.872	1196.6
626.289	1023.4
626.706	1147.45
627.123	1110
627.539	1032.76
627.956	1023.4
628.373	950.84
628.789	892.33
629.206	845.52
629.622	885.31
630.038	889.99
630.455	826.79
630.871	833.82
631.287	847.86
631.703	714.45
632.12	805.73
632.536	740.19
632.952	740.19
633.368	751.9
633.783	791.69
634.199	721.47
634.615	679.34
635.031	712.11
635.446	754.24
635.862	728.49
636.277	763.6
636.693	644.23
637.108	665.3
637.524	747.22
637.939	691.04
638.354	681.68
638.77	653.59
639.185	707.43
639.6	747.22
640.015	658.28
640.43	667.64
640.845	644.23
641.259	662.96
641.674	592.74
642.089	698.06
642.504	669.98
642.918	658.28
643.333	672.32
643.747	674.66
644.162	658.28
644.576	648.91
644.991	632.53
645.405	648.91
645.819	651.25
646.233	599.76
646.647	726.15
647.061	672.32
647.475	618.49
647.889	662.96
648.303	576.36
648.717	625.51
649.131	639.55
649.545	599.76
649.958	578.7
650.372	592.74
650.785	606.78
651.199	660.62
651.612	595.08
652.026	578.7
652.439	566.99
652.852	620.83
653.266	588.06
653.679	620.83
654.092	648.91
654.505	606.78
654.918	562.31
655.331	667.64
655.744	637.21
656.156	632.53
656.569	634.87
656.982	716.79
657.394	726.15
657.807	674.66
658.22	751.9
658.632	648.91
659.044	597.42
659.457	625.51
659.869	599.76
660.281	660.62
660.693	618.49
661.106	606.78
661.518	625.51
661.93	618.49
662.342	588.06
662.754	478.05
663.165	634.87
663.577	550.61
663.989	623.17
664.401	578.7
664.812	571.68
665.224	620.83
665.635	592.74
666.047	583.38
666.458	588.06
666.869	534.23
667.281	524.87
667.692	543.59
668.103	552.95
668.514	583.38
668.925	566.99
669.336	576.36
669.747	496.78
670.158	534.23
670.569	576.36
670.979	569.34
671.39	588.06
671.801	478.05
672.211	552.95
672.622	541.25
673.032	527.21
673.443	513.16
673.853	524.87
674.263	515.5
674.674	471.03
675.084	548.27
675.494	489.76
675.904	520.18
676.314	557.63
676.724	562.31
677.134	541.25
677.544	464.01
677.953	480.39
678.363	536.57
678.773	613.81
679.182	545.93
679.592	541.25
680.001	524.87
680.411	487.42
680.82	527.21
681.23	534.23
681.639	522.52
682.048	482.74
682.457	487.42
682.866	440.61
683.275	482.74
683.684	555.29
684.093	545.93
684.502	492.1
684.911	590.4
685.32	522.52
685.728	529.55
686.137	454.65
686.546	531.89
686.954	538.91
687.363	508.48
687.771	428.9
688.179	550.61
688.588	508.48
688.996	461.67
689.404	492.1
689.812	527.21
690.22	578.7
690.628	524.87
691.036	543.59
691.444	494.44
691.852	487.42
692.26	475.71
692.667	538.91
693.075	492.1
693.483	456.99
693.89	482.74
694.298	536.57
694.705	466.35
695.112	508.48
695.52	438.27
695.927	513.16
696.334	468.69
696.741	503.8
697.148	492.1
697.555	541.25
697.962	489.76
698.369	417.2
698.776	466.35
699.183	405.5
699.59	508.48
699.996	454.65
700.403	513.16
700.81	428.9
701.216	562.31
701.623	566.99
702.029	499.12
702.435	559.97
702.842	597.42
703.248	581.04
703.654	634.87
704.06	684.02
704.466	723.81
704.872	747.22
705.278	688.7
705.684	700.41
706.09	707.43
706.496	627.85
706.901	611.46
707.307	559.97
707.712	559.97
708.118	550.61
708.523	496.78
708.929	501.46
709.334	471.03
709.74	442.95
710.145	471.03
710.55	407.84
710.955	452.31
711.36	449.97
711.765	482.74
712.17	435.92
712.575	428.9
712.98	1039.78
713.385	529.55
713.789	485.08
714.194	461.67
714.599	424.22
715.003	389.11
715.408	396.14
715.812	424.22
716.217	417.2
716.621	459.33
717.025	433.58
717.429	421.88
717.833	445.29
718.238	405.5
718.642	501.46
719.046	421.88
719.449	431.24
719.853	438.27
720.257	407.84
720.661	372.73
721.065	431.24
721.468	478.05
721.872	424.22
722.275	447.63
722.679	391.45
723.082	417.2
723.485	468.69
723.889	389.11
724.292	410.18
724.695	447.63
725.098	400.82
725.501	426.56
725.904	391.45
726.307	386.77
726.71	368.05
727.113	391.45
727.516	349.32
727.918	377.41
728.321	407.84
728.724	361.03
729.126	452.31
729.529	478.05
729.931	468.69
730.333	414.86
730.736	405.5
731.138	487.42
731.54	403.16
731.942	393.8
732.344	356.35
732.746	398.48
733.148	370.39
733.55	421.88
733.952	379.75
734.354	342.3
734.756	400.82
735.157	396.14
735.559	393.8
735.96	372.73
736.362	400.82
736.763	428.9
737.165	351.67
737.566	384.43
737.967	438.27
738.368	461.67
738.77	339.96
739.171	410.18
739.572	389.11
739.973	363.37
740.374	417.2
740.774	426.56
741.175	354.01
741.576	405.5
741.977	452.31
742.377	485.08
742.778	419.54
