Data from Al_FLMS009871__736__15-12-41-329.txt Node

Date: Fri Mar 08 15:12:41 CST 2024
User: pe5414po
Spectrometer: FLMS00987
Trigger mode: 0
Integration Time (sec): 1.000000E-1
Scans to average: 1
Electric dark correction enabled: true
Nonlinearity correction enabled: false
Boxcar width: 0
XAxis mode: Wavelengths
Number of Pixels in Spectrum: 2048
>>>>>Begin Spectral Data<<<<<
188.938	-64.51
189.409	-64.51
189.879	-64.51
190.349	-57.49
190.819	-123.02
191.29	-97.28
191.76	-73.87
192.23	-181.54
192.7	-45.79
193.17	-64.51
193.64	-34.08
194.109	-17.7
194.579	-48.13
195.049	-45.79
195.519	24.43
195.988	40.81
196.458	94.65
196.927	61.88
197.397	118.05
197.866	106.35
198.336	162.52
198.805	146.14
199.274	148.48
199.744	143.8
200.213	228.06
200.682	260.82
201.151	157.84
201.62	258.48
202.089	214.01
202.558	246.78
203.027	192.95
203.495	300.61
203.964	298.27
204.433	244.44
204.902	242.1
205.37	312.32
205.839	277.21
206.307	286.57
206.776	281.89
207.244	300.61
207.712	345.08
208.181	293.59
208.649	317
209.117	263.16
209.585	239.76
210.053	253.8
210.521	288.91
210.989	319.34
211.457	286.57
211.925	279.55
212.393	328.7
212.861	324.02
213.328	263.16
213.796	298.27
214.264	239.76
214.731	267.85
215.199	307.63
215.666	267.85
216.133	305.29
216.601	228.06
217.068	274.87
217.535	230.4
218.003	265.5
218.47	293.59
218.937	279.55
219.404	260.82
219.871	298.27
220.338	251.46
220.805	279.55
221.271	239.76
221.738	286.57
222.205	225.72
222.671	225.72
223.138	272.53
223.605	214.01
224.071	288.91
224.538	291.25
225.004	342.74
225.47	309.97
225.937	253.8
226.403	253.8
226.869	258.48
227.335	214.01
227.801	253.8
228.267	235.08
228.733	272.53
229.199	265.5
229.665	277.21
230.131	249.12
230.597	235.08
231.062	253.8
231.528	312.32
231.994	246.78
232.459	326.36
232.925	314.66
233.39	267.85
233.856	288.91
234.321	317
234.786	263.16
235.252	321.68
235.717	279.55
236.182	235.08
236.647	295.93
237.112	333.38
237.577	307.63
238.042	319.34
238.507	267.85
238.972	260.82
239.436	284.23
239.901	333.38
240.366	333.38
240.83	265.5
241.295	239.76
241.76	270.19
242.224	321.68
242.688	251.46
243.153	270.19
243.617	298.27
244.081	244.44
244.545	312.32
245.01	305.29
245.474	314.66
245.938	319.34
246.402	244.44
246.866	260.82
247.33	284.23
247.793	326.36
248.257	286.57
248.721	281.89
249.185	309.97
249.648	265.5
250.112	263.16
250.575	228.06
251.039	300.61
251.502	281.89
251.965	265.5
252.429	291.25
252.892	331.04
253.355	309.97
253.818	305.29
254.281	288.91
254.744	295.93
255.207	331.04
255.67	239.76
256.133	265.5
256.596	324.02
257.059	246.78
257.522	265.5
257.984	279.55
258.447	312.32
258.909	321.68
259.372	335.72
259.834	307.63
260.297	309.97
260.759	274.87
261.221	331.04
261.684	309.97
262.146	309.97
262.608	281.89
263.07	293.59
263.532	284.23
263.994	221.03
264.456	277.21
264.918	342.74
265.38	307.63
265.842	274.87
266.303	354.44
266.765	270.19
267.227	270.19
267.688	253.8
268.15	321.68
268.611	216.35
269.072	272.53
269.534	272.53
269.995	314.66
270.456	284.23
270.918	314.66
271.379	295.93
271.84	356.79
272.301	312.32
272.762	256.14
273.223	302.95
273.684	209.33
274.144	286.57
274.605	260.82
275.066	270.19
275.527	331.04
275.987	288.91
276.448	340.4
276.908	291.25
277.369	305.29
277.829	279.55
278.289	324.02
278.75	317
279.21	300.61
279.67	368.49
280.13	305.29
280.59	284.23
281.05	277.21
281.51	253.8
281.97	284.23
282.43	317
282.89	335.72
283.35	274.87
283.809	319.34
284.269	288.91
284.729	295.93
285.188	295.93
285.648	298.27
286.107	319.34
286.567	305.29
287.026	293.59
287.485	265.5
287.944	277.21
288.404	267.85
288.863	331.04
289.322	317
289.781	373.17
290.24	246.78
290.699	284.23
291.158	260.82
291.616	286.57
292.075	300.61
292.534	368.49
292.992	326.36
293.451	319.34
293.91	307.63
294.368	309.97
294.827	298.27
295.285	286.57
295.743	300.61
296.202	258.48
296.66	319.34
297.118	277.21
297.576	274.87
298.034	225.72
298.492	317
298.95	281.89
299.408	302.95
299.866	256.14
300.324	300.61
300.781	295.93
301.239	319.34
301.697	260.82
302.154	359.13
302.612	295.93
303.069	256.14
303.527	300.61
303.984	277.21
304.441	288.91
304.899	363.81
305.356	321.68
305.813	300.61
306.27	340.4
306.727	286.57
307.184	342.74
307.641	317
308.098	403.6
308.555	265.5
309.012	293.59
309.468	359.13
309.925	258.48
310.382	319.34
310.838	307.63
311.295	396.57
311.751	270.19
312.208	307.63
312.664	286.57
313.12	314.66
313.577	340.4
314.033	347.42
314.489	249.12
314.945	288.91
315.401	326.36
315.857	335.72
316.313	324.02
316.769	326.36
317.225	305.29
317.681	398.92
318.136	324.02
318.592	288.91
319.048	314.66
319.503	293.59
319.959	288.91
320.414	321.68
320.869	314.66
321.325	279.55
321.78	326.36
322.235	338.06
322.691	345.08
323.146	293.59
323.601	314.66
324.056	305.29
324.511	263.16
324.966	239.76
325.421	288.91
325.875	302.95
326.33	312.32
326.785	225.72
327.24	274.87
327.694	328.7
328.149	312.32
328.603	312.32
329.058	253.8
329.512	279.55
329.966	347.42
330.421	242.1
330.875	354.44
331.329	281.89
331.783	305.29
332.237	314.66
332.691	366.15
333.145	324.02
333.599	333.38
334.053	284.23
334.507	256.14
334.96	309.97
335.414	331.04
335.868	274.87
336.321	251.46
336.775	345.08
337.228	309.97
337.682	368.49
338.135	331.04
338.588	235.08
339.042	328.7
339.495	324.02
339.948	359.13
340.401	335.72
340.854	328.7
341.307	300.61
341.76	284.23
342.213	321.68
342.666	300.61
343.119	309.97
343.571	272.53
344.024	321.68
344.477	363.81
344.929	305.29
345.382	375.51
345.834	263.16
346.287	345.08
346.739	286.57
347.191	312.32
347.644	314.66
348.096	324.02
348.548	328.7
349	359.13
349.452	307.63
349.904	293.59
350.356	326.36
350.808	286.57
351.26	321.68
351.711	305.29
352.163	284.23
352.615	356.79
353.066	331.04
353.518	274.87
353.969	321.68
354.421	298.27
354.872	342.74
355.324	284.23
355.775	335.72
356.226	284.23
356.677	277.21
357.128	274.87
357.579	331.04
358.03	300.61
358.481	284.23
358.932	307.63
359.383	274.87
359.834	284.23
360.285	305.29
360.735	331.04
361.186	347.42
361.637	302.95
362.087	326.36
362.538	340.4
362.988	335.72
363.438	356.79
363.889	359.13
364.339	286.57
364.789	326.36
365.239	319.34
365.689	328.7
366.139	317
366.589	345.08
367.039	333.38
367.489	291.25
367.939	333.38
368.389	356.79
368.839	361.47
369.288	368.49
369.738	300.61
370.187	331.04
370.637	300.61
371.086	293.59
371.536	326.36
371.985	286.57
372.434	302.95
372.884	286.57
373.333	279.55
373.782	300.61
374.231	349.76
374.68	335.72
375.129	340.4
375.578	267.85
376.027	263.16
376.475	307.63
376.924	324.02
377.373	317
377.822	331.04
378.27	333.38
378.719	324.02
379.167	345.08
379.616	338.06
380.064	345.08
380.512	331.04
380.961	321.68
381.409	286.57
381.857	324.02
382.305	309.97
382.753	349.76
383.201	321.68
383.649	387.21
384.097	410.62
384.545	281.89
384.992	349.76
385.44	298.27
385.888	335.72
386.335	324.02
386.783	403.6
387.231	307.63
387.678	342.74
388.125	328.7
388.573	359.13
389.02	295.93
389.467	370.83
389.914	274.87
390.362	417.64
390.809	349.76
391.256	284.23
391.703	317
392.15	331.04
392.596	317
393.043	270.19
393.49	359.13
393.937	286.57
394.383	293.59
394.83	394.23
395.276	328.7
395.723	298.27
396.169	288.91
396.616	307.63
397.062	338.06
397.508	319.34
397.954	253.8
398.401	361.47
398.847	272.53
399.293	305.29
399.739	328.7
400.185	291.25
400.631	326.36
401.076	281.89
401.522	340.4
401.968	319.34
402.414	277.21
402.859	319.34
403.305	300.61
403.75	284.23
404.196	324.02
404.641	321.68
405.086	324.02
405.532	324.02
405.977	326.36
406.422	279.55
406.867	260.82
407.312	317
407.757	373.17
408.202	314.66
408.647	309.97
409.092	314.66
409.537	361.47
409.982	291.25
410.426	340.4
410.871	384.87
411.316	302.95
411.76	335.72
412.205	352.1
412.649	396.57
413.093	338.06
413.538	317
413.982	352.1
414.426	340.4
414.87	363.81
415.314	328.7
415.758	333.38
416.202	293.59
416.646	368.49
417.09	300.61
417.534	291.25
417.978	312.32
418.421	326.36
418.865	368.49
419.309	338.06
419.752	319.34
420.196	345.08
420.639	314.66
421.083	284.23
421.526	342.74
421.969	286.57
422.412	356.79
422.856	345.08
423.299	312.32
423.742	317
424.185	312.32
424.628	347.42
425.071	305.29
425.513	260.82
425.956	277.21
426.399	302.95
426.842	324.02
427.284	302.95
427.727	394.23
428.169	354.44
428.612	312.32
429.054	312.32
429.497	317
429.939	267.85
430.381	277.21
430.823	302.95
431.265	312.32
431.707	309.97
432.149	302.95
432.591	331.04
433.033	307.63
433.475	270.19
433.917	324.02
434.359	312.32
434.8	349.76
435.242	295.93
435.684	305.29
436.125	391.89
436.567	312.32
437.008	345.08
437.449	312.32
437.891	340.4
438.332	216.35
438.773	312.32
439.214	300.61
439.656	317
440.097	363.81
440.538	314.66
440.978	298.27
441.419	305.29
441.86	356.79
442.301	347.42
442.742	298.27
443.182	333.38
443.623	317
444.063	314.66
444.504	314.66
444.944	309.97
445.385	270.19
445.825	370.83
446.265	298.27
446.706	331.04
447.146	295.93
447.586	338.06
448.026	317
448.466	291.25
448.906	387.21
449.346	270.19
449.786	342.74
450.225	324.02
450.665	328.7
451.105	274.87
451.544	295.93
451.984	307.63
452.424	331.04
452.863	352.1
453.302	251.46
453.742	312.32
454.181	328.7
454.62	345.08
455.059	368.49
455.499	291.25
455.938	317
456.377	333.38
456.816	309.97
457.254	363.81
457.693	286.57
458.132	361.47
458.571	387.21
459.01	338.06
459.448	305.29
459.887	335.72
460.325	326.36
460.764	307.63
461.202	281.89
461.641	363.81
462.079	356.79
462.517	338.06
462.955	319.34
463.393	338.06
463.832	333.38
464.27	338.06
464.708	309.97
465.145	356.79
465.583	375.51
466.021	279.55
466.459	272.53
466.897	291.25
467.334	347.42
467.772	361.47
468.209	314.66
468.647	342.74
469.084	272.53
469.522	352.1
469.959	373.17
470.396	312.32
470.833	326.36
471.271	319.34
471.708	335.72
472.145	272.53
472.582	288.91
473.019	394.23
473.456	295.93
473.892	319.34
474.329	394.23
474.766	370.83
475.202	338.06
475.639	279.55
476.076	347.42
476.512	384.87
476.949	288.91
477.385	324.02
477.821	324.02
478.258	295.93
478.694	342.74
479.13	263.16
479.566	340.4
480.002	302.95
480.438	312.32
480.874	251.46
481.31	295.93
481.746	298.27
482.181	298.27
482.617	288.91
483.053	239.76
483.488	345.08
483.924	366.15
484.36	291.25
484.795	300.61
485.23	307.63
485.666	342.74
486.101	394.23
486.536	272.53
486.971	333.38
487.407	314.66
487.842	293.59
488.277	319.34
488.712	277.21
489.146	307.63
489.581	373.17
490.016	321.68
490.451	324.02
490.885	288.91
491.32	342.74
491.755	356.79
492.189	405.94
492.624	359.13
493.058	338.06
493.492	307.63
493.927	324.02
494.361	345.08
494.795	326.36
495.229	277.21
495.663	281.89
496.097	307.63
496.531	319.34
496.965	333.38
497.399	284.23
497.833	324.02
498.266	319.34
498.7	342.74
499.134	345.08
499.567	363.81
500.001	284.23
500.434	309.97
500.868	279.55
501.301	324.02
501.734	286.57
502.168	335.72
502.601	338.06
503.034	286.57
503.467	363.81
503.9	345.08
504.333	328.7
504.766	347.42
505.199	363.81
505.632	309.97
506.064	324.02
506.497	361.47
506.93	361.47
507.362	305.29
507.795	286.57
508.227	410.62
508.66	359.13
509.092	317
509.524	354.44
509.956	307.63
510.389	272.53
510.821	354.44
511.253	417.64
511.685	328.7
512.117	277.21
512.549	366.15
512.981	319.34
513.412	354.44
513.844	324.02
514.276	326.36
514.707	319.34
515.139	263.16
515.571	324.02
516.002	284.23
516.433	314.66
516.865	263.16
517.296	300.61
517.727	302.95
518.159	317
518.59	321.68
519.021	319.34
519.452	380.19
519.883	335.72
520.314	291.25
520.744	340.4
521.175	281.89
521.606	349.76
522.037	361.47
522.467	328.7
522.898	340.4
523.328	342.74
523.759	335.72
524.189	260.82
524.62	286.57
525.05	302.95
525.48	274.87
525.91	295.93
526.341	333.38
526.771	340.4
527.201	354.44
527.631	335.72
528.061	359.13
528.49	349.76
528.92	284.23
529.35	286.57
529.78	300.61
530.209	298.27
530.639	326.36
531.068	274.87
531.498	270.19
531.927	291.25
532.357	309.97
532.786	291.25
533.215	317
533.644	305.29
534.074	300.61
534.503	314.66
534.932	324.02
535.361	309.97
535.79	391.89
536.218	300.61
536.647	312.32
537.076	359.13
537.505	291.25
537.933	342.74
538.362	295.93
538.79	345.08
539.219	312.32
539.647	380.19
540.076	331.04
540.504	312.32
540.932	319.34
541.36	326.36
541.788	209.33
542.217	401.26
542.645	307.63
543.073	314.66
543.5	309.97
543.928	349.76
544.356	338.06
544.784	300.61
545.211	274.87
545.639	277.21
546.067	293.59
546.494	314.66
546.922	309.97
547.349	288.91
547.776	317
548.204	382.53
548.631	288.91
549.058	300.61
549.485	295.93
549.912	291.25
550.339	361.47
550.766	361.47
551.193	300.61
551.62	335.72
552.047	263.16
552.474	326.36
552.9	307.63
553.327	305.29
553.754	380.19
554.18	300.61
554.607	338.06
555.033	342.74
555.459	302.95
555.886	279.55
556.312	314.66
556.738	305.29
557.164	377.85
557.59	345.08
558.016	366.15
558.442	326.36
558.868	321.68
559.294	298.27
559.72	305.29
560.145	384.87
560.571	300.61
560.997	331.04
561.422	333.38
561.848	317
562.273	356.79
562.699	333.38
563.124	293.59
563.549	260.82
563.974	305.29
564.4	328.7
564.825	340.4
565.25	345.08
565.675	300.61
566.1	251.46
566.525	370.83
566.95	312.32
567.374	333.38
567.799	230.4
568.224	286.57
568.648	354.44
569.073	405.94
569.497	321.68
569.922	335.72
570.346	288.91
570.771	324.02
571.195	345.08
571.619	331.04
572.043	281.89
572.467	277.21
572.891	363.81
573.315	300.61
573.739	321.68
574.163	286.57
574.587	368.49
575.011	291.25
575.435	295.93
575.858	302.95
576.282	321.68
576.705	256.14
577.129	272.53
577.552	307.63
577.976	349.76
578.399	363.81
578.822	326.36
579.245	291.25
579.669	333.38
580.092	317
580.515	347.42
580.938	361.47
581.361	295.93
581.784	321.68
582.206	333.38
582.629	338.06
583.052	270.19
583.474	396.57
583.897	359.13
584.32	321.68
584.742	309.97
585.165	356.79
585.587	246.78
586.009	410.62
586.431	246.78
586.854	295.93
587.276	328.7
587.698	251.46
588.12	328.7
588.542	331.04
588.964	284.23
589.386	300.61
589.807	366.15
590.229	216.35
590.651	377.85
591.073	340.4
591.494	319.34
591.916	314.66
592.337	333.38
592.759	298.27
593.18	340.4
593.601	258.48
594.022	331.04
594.444	302.95
594.865	366.15
595.286	288.91
595.707	349.76
596.128	260.82
596.549	307.63
596.97	333.38
597.39	324.02
597.811	331.04
598.232	342.74
598.652	366.15
599.073	340.4
599.494	321.68
599.914	331.04
600.334	312.32
600.755	338.06
601.175	382.53
601.595	345.08
602.015	317
602.436	354.44
602.856	450.41
603.276	333.38
603.696	281.89
604.115	324.02
604.535	305.29
604.955	328.7
605.375	270.19
605.794	319.34
606.214	363.81
606.634	349.76
607.053	286.57
607.473	291.25
607.892	333.38
608.311	300.61
608.731	298.27
609.15	349.76
609.569	291.25
609.988	331.04
610.407	305.29
610.826	305.29
611.245	307.63
611.664	291.25
612.083	401.26
612.501	293.59
612.92	317
613.339	361.47
613.757	356.79
614.176	394.23
614.594	349.76
615.013	333.38
615.431	335.72
615.85	361.47
616.268	305.29
616.686	354.44
617.104	317
617.522	267.85
617.94	307.63
618.358	335.72
618.776	328.7
619.194	324.02
619.612	326.36
620.03	352.1
620.447	314.66
620.865	295.93
621.282	256.14
621.7	398.92
622.117	335.72
622.535	312.32
622.952	312.32
623.369	317
623.787	345.08
624.204	352.1
624.621	307.63
625.038	335.72
625.455	328.7
625.872	328.7
626.289	368.49
626.706	309.97
627.123	291.25
627.539	291.25
627.956	361.47
628.373	284.23
628.789	291.25
629.206	286.57
629.622	300.61
630.038	368.49
630.455	326.36
630.871	328.7
631.287	359.13
631.703	338.06
632.12	298.27
632.536	281.89
632.952	314.66
633.368	326.36
633.783	328.7
634.199	272.53
634.615	277.21
635.031	363.81
635.446	333.38
635.862	319.34
636.277	272.53
636.693	321.68
637.108	324.02
637.524	340.4
637.939	328.7
638.354	356.79
638.77	302.95
639.185	312.32
639.6	312.32
640.015	281.89
640.43	328.7
640.845	298.27
641.259	307.63
641.674	302.95
642.089	305.29
642.504	272.53
642.918	319.34
643.333	324.02
643.747	312.32
644.162	279.55
644.576	333.38
644.991	389.55
645.405	260.82
645.819	298.27
646.233	267.85
646.647	331.04
647.061	302.95
647.475	314.66
647.889	356.79
648.303	274.87
648.717	284.23
649.131	349.76
649.545	349.76
649.958	342.74
650.372	317
650.785	349.76
651.199	302.95
651.612	326.36
652.026	331.04
652.439	356.79
652.852	359.13
653.266	298.27
653.679	272.53
654.092	354.44
654.505	338.06
654.918	387.21
655.331	347.42
655.744	398.92
656.156	305.29
656.569	319.34
656.982	293.59
657.394	328.7
657.807	288.91
658.22	312.32
658.632	300.61
659.044	326.36
659.457	324.02
659.869	328.7
660.281	260.82
660.693	309.97
661.106	347.42
661.518	321.68
661.93	398.92
662.342	258.48
662.754	338.06
663.165	342.74
663.577	354.44
663.989	340.4
664.401	279.55
664.812	333.38
665.224	298.27
665.635	319.34
666.047	345.08
666.458	295.93
666.869	307.63
667.281	338.06
667.692	281.89
668.103	291.25
668.514	298.27
668.925	319.34
669.336	319.34
669.747	314.66
670.158	281.89
670.569	277.21
670.979	249.12
671.39	295.93
671.801	246.78
672.211	356.79
672.622	312.32
673.032	331.04
673.443	340.4
673.853	321.68
674.263	361.47
674.674	326.36
675.084	274.87
675.494	321.68
675.904	354.44
676.314	307.63
676.724	286.57
677.134	326.36
677.544	345.08
677.953	328.7
678.363	309.97
678.773	377.85
679.182	300.61
679.592	249.12
680.001	319.34
680.411	314.66
680.82	326.36
681.23	295.93
681.639	373.17
682.048	281.89
682.457	293.59
682.866	366.15
683.275	326.36
683.684	361.47
684.093	291.25
684.502	354.44
684.911	309.97
685.32	249.12
685.728	335.72
686.137	347.42
686.546	300.61
686.954	361.47
687.363	270.19
687.771	324.02
688.179	291.25
688.588	342.74
688.996	331.04
689.404	267.85
689.812	359.13
690.22	286.57
690.628	349.76
691.036	279.55
691.444	326.36
691.852	307.63
692.26	298.27
692.667	307.63
693.075	309.97
693.483	338.06
693.89	380.19
694.298	370.83
694.705	319.34
695.112	403.6
695.52	258.48
695.927	302.95
696.334	307.63
696.741	333.38
697.148	342.74
697.555	284.23
697.962	298.27
698.369	295.93
698.776	288.91
699.183	270.19
699.59	307.63
699.996	342.74
700.403	359.13
700.81	324.02
701.216	356.79
701.623	309.97
702.029	307.63
702.435	307.63
702.842	359.13
703.248	258.48
703.654	366.15
704.06	314.66
704.466	347.42
704.872	331.04
705.278	307.63
705.684	338.06
706.09	251.46
706.496	277.21
706.901	331.04
707.307	319.34
707.712	295.93
708.118	403.6
708.523	387.21
708.929	331.04
709.334	314.66
709.74	246.78
710.145	286.57
710.55	321.68
710.955	331.04
711.36	335.72
711.765	284.23
712.17	284.23
712.575	363.81
712.98	944.26
713.385	380.19
713.789	274.87
714.194	293.59
714.599	291.25
715.003	352.1
715.408	293.59
715.812	302.95
716.217	335.72
716.621	300.61
717.025	349.76
717.429	340.4
717.833	288.91
718.238	342.74
718.642	347.42
719.046	345.08
719.449	335.72
719.853	253.8
720.257	312.32
720.661	309.97
721.065	300.61
721.468	328.7
721.872	370.83
722.275	298.27
722.679	314.66
723.082	352.1
723.485	314.66
723.889	307.63
724.292	338.06
724.695	368.49
725.098	302.95
725.501	359.13
725.904	300.61
726.307	352.1
726.71	279.55
727.113	279.55
727.516	218.69
727.918	309.97
728.321	321.68
728.724	300.61
729.126	286.57
729.529	373.17
729.931	347.42
730.333	293.59
730.736	305.29
731.138	260.82
731.54	305.29
731.942	328.7
732.344	302.95
732.746	349.76
733.148	333.38
733.55	270.19
733.952	230.4
734.354	359.13
734.756	359.13
735.157	270.19
735.559	333.38
735.96	345.08
736.362	288.91
736.763	335.72
737.165	314.66
737.566	331.04
737.967	333.38
738.368	333.38
738.77	253.8
739.171	335.72
739.572	359.13
739.973	335.72
740.374	326.36
740.774	314.66
741.175	333.38
741.576	260.82
741.977	305.29
742.377	277.21
742.778	317
743.178	307.63
743.579	305.29
743.979	312.32
744.379	307.63
744.78	389.55
745.18	300.61
745.58	321.68
745.98	302.95
746.38	305.29
746.78	368.49
747.18	328.7
747.58	331.04
747.98	331.04
748.38	288.91
748.779	373.17
749.179	291.25
749.578	288.91
749.978	321.68
750.377	309.97
750.777	356.79
751.176	375.51
751.575	300.61
751.975	349.76
752.374	281.89
752.773	277.21
753.172	253.8
753.571	375.51
753.97	284.23
754.369	305.29
754.768	288.91
755.166	305.29
755.565	384.87
755.964	349.76
756.362	326.36
756.761	291.25
757.159	317
757.558	295.93
757.956	312.32
758.354	356.79
758.753	333.38
759.151	384.87
759.549	298.27
759.947	256.14
760.345	291.25
760.743	340.4
761.141	338.06
761.539	324.02
761.936	312.32
762.334	300.61
762.732	335.72
763.129	295.93
763.527	288.91
763.924	335.72
764.322	370.83
764.719	342.74
765.117	349.76
765.514	319.34
765.911	333.38
766.308	265.5
766.705	265.5
