Data from Al_FLMS009871__722__15-12-39-929.txt Node

Date: Fri Mar 08 15:12:39 CST 2024
User: pe5414po
Spectrometer: FLMS00987
Trigger mode: 0
Integration Time (sec): 1.000000E-1
Scans to average: 1
Electric dark correction enabled: true
Nonlinearity correction enabled: false
Boxcar width: 0
XAxis mode: Wavelengths
Number of Pixels in Spectrum: 2048
>>>>>Begin Spectral Data<<<<<
188.938	-108.98
189.409	-108.98
189.879	-108.98
190.349	-116
190.819	-92.6
191.29	-62.17
191.76	-123.02
192.23	-45.79
192.7	-71.53
193.17	-83.24
193.64	-80.89
194.109	-45.79
194.579	-45.79
195.049	-38.77
195.519	1.02
195.988	31.45
196.458	66.56
196.927	94.65
197.397	99.33
197.866	132.09
198.336	171.88
198.805	221.03
199.274	192.95
199.744	162.52
200.213	216.35
200.682	232.74
201.151	143.8
201.62	256.14
202.089	218.69
202.558	235.08
203.027	281.89
203.495	223.37
203.964	284.23
204.433	284.23
204.902	235.08
205.37	286.57
205.839	319.34
206.307	302.95
206.776	279.55
207.244	272.53
207.712	317
208.181	300.61
208.649	312.32
209.117	272.53
209.585	239.76
210.053	263.16
210.521	305.29
210.989	293.59
211.457	300.61
211.925	293.59
212.393	267.85
212.861	237.42
213.328	228.06
213.796	314.66
214.264	256.14
214.731	218.69
215.199	326.36
215.666	288.91
216.133	265.5
216.601	246.78
217.068	246.78
217.535	244.44
218.003	249.12
218.47	242.1
218.937	228.06
219.404	232.74
219.871	258.48
220.338	246.78
220.805	249.12
221.271	223.37
221.738	291.25
222.205	223.37
222.671	242.1
223.138	265.5
223.605	244.44
224.071	197.63
224.538	272.53
225.004	225.72
225.47	237.42
225.937	221.03
226.403	272.53
226.869	277.21
227.335	286.57
227.801	302.95
228.267	317
228.733	202.31
229.199	284.23
229.665	293.59
230.131	265.5
230.597	263.16
231.062	246.78
231.528	246.78
231.994	265.5
232.459	246.78
232.925	319.34
233.39	293.59
233.856	307.63
234.321	279.55
234.786	302.95
235.252	319.34
235.717	312.32
236.182	277.21
236.647	253.8
237.112	270.19
237.577	253.8
238.042	237.42
238.507	312.32
238.972	235.08
239.436	384.87
239.901	277.21
240.366	260.82
240.83	246.78
241.295	253.8
241.76	291.25
242.224	274.87
242.688	244.44
243.153	237.42
243.617	244.44
244.081	277.21
244.545	317
245.01	225.72
245.474	279.55
245.938	267.85
246.402	260.82
246.866	291.25
247.33	249.12
247.793	277.21
248.257	274.87
248.721	267.85
249.185	272.53
249.648	256.14
250.112	326.36
250.575	317
251.039	321.68
251.502	267.85
251.965	223.37
252.429	281.89
252.892	235.08
253.355	274.87
253.818	246.78
254.281	221.03
254.744	277.21
255.207	253.8
255.67	302.95
256.133	284.23
256.596	251.46
257.059	270.19
257.522	235.08
257.984	293.59
258.447	228.06
258.909	309.97
259.372	305.29
259.834	300.61
260.297	331.04
260.759	298.27
261.221	319.34
261.684	321.68
262.146	244.44
262.608	265.5
263.07	239.76
263.532	295.93
263.994	274.87
264.456	258.48
264.918	270.19
265.38	265.5
265.842	307.63
266.303	242.1
266.765	307.63
267.227	324.02
267.688	256.14
268.15	239.76
268.611	286.57
269.072	319.34
269.534	317
269.995	256.14
270.456	312.32
270.918	387.21
271.379	263.16
271.84	309.97
272.301	298.27
272.762	312.32
273.223	251.46
273.684	295.93
274.144	272.53
274.605	281.89
275.066	265.5
275.527	281.89
275.987	246.78
276.448	253.8
276.908	249.12
277.369	218.69
277.829	277.21
278.289	321.68
278.75	291.25
279.21	302.95
279.67	274.87
280.13	270.19
280.59	265.5
281.05	230.4
281.51	237.42
281.97	321.68
282.43	239.76
282.89	284.23
283.35	317
283.809	312.32
284.269	228.06
284.729	242.1
285.188	279.55
285.648	244.44
286.107	302.95
286.567	284.23
287.026	286.57
287.485	225.72
287.944	286.57
288.404	298.27
288.863	293.59
289.322	354.44
289.781	328.7
290.24	335.72
290.699	281.89
291.158	354.44
291.616	286.57
292.075	338.06
292.534	319.34
292.992	347.42
293.451	305.29
293.91	298.27
294.368	291.25
294.827	263.16
295.285	286.57
295.743	321.68
296.202	324.02
296.66	305.29
297.118	314.66
297.576	302.95
298.034	279.55
298.492	293.59
298.95	302.95
299.408	246.78
299.866	335.72
300.324	267.85
300.781	279.55
301.239	307.63
301.697	265.5
302.154	338.06
302.612	354.44
303.069	258.48
303.527	258.48
303.984	298.27
304.441	319.34
304.899	286.57
305.356	321.68
305.813	321.68
306.27	342.74
306.727	272.53
307.184	326.36
307.641	288.91
308.098	284.23
308.555	232.74
309.012	338.06
309.468	267.85
309.925	239.76
310.382	242.1
310.838	314.66
311.295	328.7
311.751	363.81
312.208	317
312.664	263.16
313.12	335.72
313.577	286.57
314.033	319.34
314.489	305.29
314.945	300.61
315.401	277.21
315.857	340.4
316.313	300.61
316.769	274.87
317.225	295.93
317.681	302.95
318.136	246.78
318.592	309.97
319.048	270.19
319.503	317
319.959	312.32
320.414	307.63
320.869	319.34
321.325	295.93
321.78	300.61
322.235	340.4
322.691	300.61
323.146	319.34
323.601	218.69
324.056	272.53
324.511	265.5
324.966	295.93
325.421	277.21
325.875	251.46
326.33	309.97
326.785	317
327.24	307.63
327.694	368.49
328.149	291.25
328.603	305.29
329.058	305.29
329.512	314.66
329.966	331.04
330.421	338.06
330.875	317
331.329	335.72
331.783	317
332.237	274.87
332.691	324.02
333.145	263.16
333.599	263.16
334.053	356.79
334.507	349.76
334.96	317
335.414	342.74
335.868	258.48
336.321	342.74
336.775	312.32
337.228	347.42
337.682	274.87
338.135	345.08
338.588	349.76
339.042	335.72
339.495	305.29
339.948	288.91
340.401	295.93
340.854	274.87
341.307	361.47
341.76	288.91
342.213	324.02
342.666	312.32
343.119	288.91
343.571	312.32
344.024	286.57
344.477	321.68
344.929	288.91
345.382	305.29
345.834	317
346.287	284.23
346.739	307.63
347.191	314.66
347.644	317
348.096	324.02
348.548	331.04
349	230.4
349.452	256.14
349.904	267.85
350.356	349.76
350.808	307.63
351.26	284.23
351.711	246.78
352.163	373.17
352.615	298.27
353.066	328.7
353.518	345.08
353.969	335.72
354.421	324.02
354.872	295.93
355.324	281.89
355.775	295.93
356.226	267.85
356.677	312.32
357.128	265.5
357.579	267.85
358.03	321.68
358.481	354.44
358.932	302.95
359.383	326.36
359.834	317
360.285	298.27
360.735	295.93
361.186	260.82
361.637	319.34
362.087	328.7
362.538	305.29
362.988	340.4
363.438	300.61
363.889	356.79
364.339	295.93
364.789	265.5
365.239	298.27
365.689	291.25
366.139	319.34
366.589	302.95
367.039	317
367.489	263.16
367.939	356.79
368.389	333.38
368.839	288.91
369.288	333.38
369.738	281.89
370.187	277.21
370.637	274.87
371.086	272.53
371.536	335.72
371.985	277.21
372.434	312.32
372.884	274.87
373.333	319.34
373.782	305.29
374.231	279.55
374.68	293.59
375.129	260.82
375.578	295.93
376.027	340.4
376.475	370.83
376.924	288.91
377.373	272.53
377.822	284.23
378.27	284.23
378.719	279.55
379.167	267.85
379.616	314.66
380.064	302.95
380.512	242.1
380.961	319.34
381.409	349.76
381.857	317
382.305	256.14
382.753	314.66
383.201	324.02
383.649	298.27
384.097	295.93
384.545	312.32
384.992	359.13
385.44	302.95
385.888	366.15
386.335	349.76
386.783	293.59
387.231	302.95
387.678	326.36
388.125	342.74
388.573	335.72
389.02	326.36
389.467	354.44
389.914	277.21
390.362	293.59
390.809	314.66
391.256	253.8
391.703	263.16
392.15	377.85
392.596	307.63
393.043	284.23
393.49	324.02
393.937	235.08
394.383	345.08
394.83	267.85
395.276	288.91
395.723	293.59
396.169	338.06
396.616	328.7
397.062	293.59
397.508	295.93
397.954	326.36
398.401	333.38
398.847	328.7
399.293	349.76
399.739	302.95
400.185	324.02
400.631	312.32
401.076	352.1
401.522	302.95
401.968	288.91
402.414	363.81
402.859	340.4
403.305	335.72
403.75	260.82
404.196	305.29
404.641	272.53
405.086	335.72
405.532	342.74
405.977	314.66
406.422	335.72
406.867	300.61
407.312	352.1
407.757	288.91
408.202	363.81
408.647	295.93
409.092	258.48
409.537	270.19
409.982	361.47
410.426	338.06
410.871	307.63
411.316	354.44
411.76	342.74
412.205	340.4
412.649	328.7
413.093	263.16
413.538	281.89
413.982	288.91
414.426	288.91
414.87	272.53
415.314	328.7
415.758	314.66
416.202	338.06
416.646	333.38
417.09	338.06
417.534	338.06
417.978	242.1
418.421	338.06
418.865	340.4
419.309	338.06
419.752	291.25
420.196	324.02
420.639	281.89
421.083	265.5
421.526	314.66
421.969	333.38
422.412	307.63
422.856	305.29
423.299	312.32
423.742	288.91
424.185	279.55
424.628	291.25
425.071	326.36
425.513	368.49
425.956	338.06
426.399	295.93
426.842	249.12
427.284	338.06
427.727	293.59
428.169	272.53
428.612	331.04
429.054	326.36
429.497	263.16
429.939	326.36
430.381	319.34
430.823	265.5
431.265	328.7
431.707	314.66
432.149	239.76
432.591	263.16
433.033	317
433.475	272.53
433.917	359.13
434.359	237.42
434.8	309.97
435.242	295.93
435.684	338.06
436.125	321.68
436.567	317
437.008	347.42
437.449	298.27
437.891	305.29
438.332	293.59
438.773	342.74
439.214	347.42
439.656	352.1
440.097	288.91
440.538	302.95
440.978	354.44
441.419	249.12
441.86	279.55
442.301	319.34
442.742	284.23
443.182	277.21
443.623	359.13
444.063	324.02
444.504	281.89
444.944	307.63
445.385	256.14
445.825	340.4
446.265	284.23
446.706	281.89
447.146	324.02
447.586	256.14
448.026	349.76
448.466	312.32
448.906	305.29
449.346	298.27
449.786	284.23
450.225	302.95
450.665	293.59
451.105	302.95
451.544	277.21
451.984	251.46
452.424	317
452.863	349.76
453.302	293.59
453.742	317
454.181	295.93
454.62	305.29
455.059	335.72
455.499	302.95
455.938	286.57
456.377	349.76
456.816	251.46
457.254	272.53
457.693	312.32
458.132	363.81
458.571	335.72
459.01	295.93
459.448	300.61
459.887	307.63
460.325	295.93
460.764	319.34
461.202	288.91
461.641	305.29
462.079	324.02
462.517	279.55
462.955	277.21
463.393	272.53
463.832	335.72
464.27	326.36
464.708	281.89
465.145	326.36
465.583	309.97
466.021	249.12
466.459	305.29
466.897	352.1
467.334	328.7
467.772	347.42
468.209	373.17
468.647	317
469.084	307.63
469.522	347.42
469.959	281.89
470.396	319.34
470.833	235.08
471.271	272.53
471.708	324.02
472.145	319.34
472.582	309.97
473.019	324.02
473.456	328.7
473.892	340.4
474.329	235.08
474.766	300.61
475.202	307.63
475.639	324.02
476.076	265.5
476.512	314.66
476.949	295.93
477.385	333.38
477.821	321.68
478.258	307.63
478.694	260.82
479.13	354.44
479.566	260.82
480.002	242.1
480.438	347.42
480.874	319.34
481.31	295.93
481.746	338.06
482.181	319.34
482.617	300.61
483.053	328.7
483.488	340.4
483.924	305.29
484.36	272.53
484.795	305.29
485.23	305.29
485.666	256.14
486.101	293.59
486.536	328.7
486.971	279.55
487.407	307.63
487.842	312.32
488.277	340.4
488.712	333.38
489.146	338.06
489.581	328.7
490.016	345.08
490.451	345.08
490.885	331.04
491.32	356.79
491.755	263.16
492.189	249.12
492.624	263.16
493.058	302.95
493.492	389.55
493.927	300.61
494.361	279.55
494.795	309.97
495.229	321.68
495.663	307.63
496.097	352.1
496.531	408.28
496.965	352.1
497.399	293.59
497.833	333.38
498.266	349.76
498.7	293.59
499.134	246.78
499.567	302.95
500.001	317
500.434	321.68
500.868	298.27
501.301	298.27
501.734	298.27
502.168	347.42
502.601	368.49
503.034	328.7
503.467	281.89
503.9	267.85
504.333	305.29
504.766	293.59
505.199	328.7
505.632	286.57
506.064	270.19
506.497	377.85
506.93	242.1
507.362	309.97
507.795	279.55
508.227	338.06
508.66	279.55
509.092	338.06
509.524	305.29
509.956	291.25
510.389	277.21
510.821	244.44
511.253	286.57
511.685	298.27
512.117	324.02
512.549	326.36
512.981	422.32
513.412	270.19
513.844	258.48
514.276	331.04
514.707	286.57
515.139	338.06
515.571	305.29
516.002	293.59
516.433	377.85
516.865	401.26
517.296	324.02
517.727	363.81
518.159	354.44
518.59	307.63
519.021	277.21
519.452	335.72
519.883	333.38
520.314	267.85
520.744	361.47
521.175	340.4
521.606	305.29
522.037	256.14
522.467	307.63
522.898	312.32
523.328	302.95
523.759	302.95
524.189	293.59
524.62	305.29
525.05	307.63
525.48	270.19
525.91	321.68
526.341	274.87
526.771	326.36
527.201	333.38
527.631	216.35
528.061	359.13
528.49	340.4
528.92	319.34
529.35	340.4
529.78	338.06
530.209	331.04
530.639	354.44
531.068	300.61
531.498	288.91
531.927	342.74
532.357	298.27
532.786	356.79
533.215	342.74
533.644	281.89
534.074	317
534.503	277.21
534.932	314.66
535.361	260.82
535.79	314.66
536.218	300.61
536.647	373.17
537.076	293.59
537.505	361.47
537.933	298.27
538.362	300.61
538.79	338.06
539.219	340.4
539.647	312.32
540.076	277.21
540.504	328.7
540.932	333.38
541.36	237.42
541.788	279.55
542.217	298.27
542.645	281.89
543.073	326.36
543.5	270.19
543.928	291.25
544.356	258.48
544.784	328.7
545.211	328.7
545.639	324.02
546.067	253.8
546.494	335.72
546.922	295.93
547.349	300.61
547.776	321.68
548.204	333.38
548.631	352.1
549.058	284.23
549.485	305.29
549.912	331.04
550.339	317
550.766	335.72
551.193	307.63
551.62	340.4
552.047	349.76
552.474	328.7
552.9	263.16
553.327	300.61
553.754	274.87
554.18	354.44
554.607	300.61
555.033	338.06
555.459	375.51
555.886	363.81
556.312	328.7
556.738	235.08
557.164	361.47
557.59	309.97
558.016	333.38
558.442	338.06
558.868	263.16
559.294	298.27
559.72	333.38
560.145	340.4
560.571	295.93
560.997	305.29
561.422	324.02
561.848	326.36
562.273	405.94
562.699	274.87
563.124	368.49
563.549	288.91
563.974	263.16
564.4	321.68
564.825	251.46
565.25	279.55
565.675	291.25
566.1	328.7
566.525	312.32
566.95	281.89
567.374	380.19
567.799	333.38
568.224	319.34
568.648	368.49
569.073	295.93
569.497	340.4
569.922	256.14
570.346	309.97
570.771	288.91
571.195	293.59
571.619	373.17
572.043	307.63
572.467	295.93
572.891	324.02
573.315	293.59
573.739	309.97
574.163	384.87
574.587	298.27
575.011	349.76
575.435	251.46
575.858	333.38
576.282	328.7
576.705	295.93
577.129	298.27
577.552	319.34
577.976	270.19
578.399	309.97
578.822	321.68
579.245	291.25
579.669	221.03
580.092	277.21
580.515	244.44
580.938	354.44
581.361	281.89
581.784	279.55
582.206	312.32
582.629	305.29
583.052	295.93
583.474	295.93
583.897	352.1
584.32	293.59
584.742	298.27
585.165	265.5
585.587	340.4
586.009	274.87
586.431	340.4
586.854	263.16
587.276	228.06
587.698	288.91
588.12	284.23
588.542	298.27
588.964	333.38
589.386	242.1
589.807	319.34
590.229	331.04
590.651	324.02
591.073	288.91
591.494	333.38
591.916	314.66
592.337	331.04
592.759	288.91
593.18	328.7
593.601	345.08
594.022	293.59
594.444	317
594.865	309.97
595.286	249.12
595.707	338.06
596.128	312.32
596.549	253.8
596.97	324.02
597.39	312.32
597.811	324.02
598.232	349.76
598.652	277.21
599.073	391.89
599.494	326.36
599.914	293.59
600.334	326.36
600.755	326.36
601.175	319.34
601.595	333.38
602.015	274.87
602.436	295.93
602.856	380.19
603.276	361.47
603.696	354.44
604.115	251.46
604.535	298.27
604.955	270.19
605.375	274.87
605.794	361.47
606.214	333.38
606.634	309.97
607.053	305.29
607.473	307.63
607.892	326.36
608.311	274.87
608.731	314.66
609.15	363.81
609.569	272.53
609.988	263.16
610.407	274.87
610.826	293.59
611.245	314.66
611.664	295.93
612.083	291.25
612.501	363.81
612.92	321.68
613.339	274.87
613.757	321.68
614.176	300.61
614.594	333.38
615.013	340.4
615.431	331.04
615.85	302.95
616.268	309.97
616.686	302.95
617.104	242.1
617.522	345.08
617.94	321.68
618.358	300.61
618.776	312.32
619.194	286.57
619.612	324.02
620.03	302.95
620.447	370.83
620.865	410.62
621.282	302.95
621.7	312.32
622.117	317
622.535	302.95
622.952	324.02
623.369	293.59
623.787	288.91
624.204	328.7
624.621	331.04
625.038	326.36
625.455	293.59
625.872	244.44
626.289	295.93
626.706	382.53
627.123	319.34
627.539	279.55
627.956	314.66
628.373	317
628.789	314.66
629.206	309.97
629.622	300.61
630.038	321.68
630.455	272.53
630.871	363.81
631.287	347.42
631.703	356.79
632.12	298.27
632.536	221.03
632.952	324.02
633.368	380.19
633.783	309.97
634.199	300.61
634.615	312.32
635.031	284.23
635.446	284.23
635.862	352.1
636.277	244.44
636.693	349.76
637.108	340.4
637.524	326.36
637.939	293.59
638.354	305.29
638.77	298.27
639.185	307.63
639.6	338.06
640.015	345.08
640.43	265.5
640.845	347.42
641.259	300.61
641.674	324.02
642.089	258.48
642.504	284.23
642.918	314.66
643.333	305.29
643.747	317
644.162	349.76
644.576	359.13
644.991	270.19
645.405	359.13
645.819	328.7
646.233	260.82
646.647	345.08
647.061	281.89
647.475	317
647.889	319.34
648.303	305.29
648.717	286.57
649.131	300.61
649.545	342.74
649.958	281.89
650.372	345.08
650.785	288.91
651.199	314.66
651.612	359.13
652.026	291.25
652.439	309.97
652.852	352.1
653.266	288.91
653.679	279.55
654.092	300.61
654.505	366.15
654.918	293.59
655.331	328.7
655.744	305.29
656.156	281.89
656.569	309.97
656.982	251.46
657.394	267.85
657.807	340.4
658.22	328.7
658.632	225.72
659.044	305.29
659.457	279.55
659.869	256.14
660.281	305.29
660.693	267.85
661.106	317
661.518	324.02
661.93	288.91
662.342	373.17
662.754	307.63
663.165	286.57
663.577	279.55
663.989	295.93
664.401	281.89
664.812	333.38
665.224	349.76
665.635	338.06
666.047	265.5
666.458	295.93
666.869	349.76
667.281	317
667.692	342.74
668.103	335.72
668.514	307.63
668.925	321.68
669.336	235.08
669.747	284.23
670.158	295.93
670.569	366.15
670.979	377.85
671.39	281.89
671.801	321.68
672.211	302.95
672.622	338.06
673.032	331.04
673.443	286.57
673.853	321.68
674.263	288.91
674.674	347.42
675.084	317
675.494	298.27
675.904	349.76
676.314	295.93
676.724	328.7
677.134	277.21
677.544	291.25
677.953	260.82
678.363	382.53
678.773	380.19
679.182	335.72
679.592	319.34
680.001	272.53
680.411	314.66
680.82	340.4
681.23	328.7
681.639	319.34
682.048	300.61
682.457	279.55
682.866	340.4
683.275	249.12
683.684	342.74
684.093	267.85
684.502	253.8
684.911	349.76
685.32	293.59
685.728	307.63
686.137	298.27
686.546	370.83
686.954	251.46
687.363	293.59
687.771	314.66
688.179	281.89
688.588	317
688.996	352.1
689.404	293.59
689.812	265.5
690.22	300.61
690.628	324.02
691.036	377.85
691.444	307.63
691.852	274.87
692.26	370.83
692.667	368.49
693.075	317
693.483	314.66
693.89	307.63
694.298	354.44
694.705	307.63
695.112	333.38
695.52	326.36
695.927	328.7
696.334	295.93
696.741	291.25
697.148	335.72
697.555	221.03
697.962	300.61
698.369	331.04
698.776	352.1
699.183	370.83
699.59	288.91
699.996	244.44
700.403	326.36
700.81	335.72
701.216	363.81
701.623	286.57
702.029	277.21
702.435	291.25
702.842	380.19
703.248	253.8
703.654	265.5
704.06	331.04
704.466	300.61
704.872	317
705.278	309.97
705.684	288.91
706.09	260.82
706.496	328.7
706.901	281.89
707.307	352.1
707.712	291.25
708.118	342.74
708.523	295.93
708.929	324.02
709.334	228.06
709.74	328.7
710.145	391.89
710.55	359.13
710.955	293.59
711.36	363.81
711.765	253.8
712.17	342.74
712.575	293.59
712.98	888.09
713.385	347.42
713.789	314.66
714.194	218.69
714.599	298.27
715.003	235.08
715.408	328.7
715.812	307.63
716.217	312.32
716.621	281.89
717.025	352.1
717.429	319.34
717.833	314.66
718.238	317
718.642	352.1
719.046	274.87
719.449	235.08
719.853	321.68
720.257	300.61
720.661	331.04
721.065	307.63
721.468	267.85
721.872	326.36
722.275	333.38
722.679	307.63
723.082	324.02
723.485	279.55
723.889	305.29
724.292	274.87
724.695	272.53
725.098	321.68
725.501	309.97
725.904	312.32
726.307	284.23
726.71	314.66
727.113	246.78
727.516	295.93
727.918	382.53
728.321	307.63
728.724	354.44
729.126	284.23
729.529	340.4
729.931	286.57
730.333	314.66
730.736	361.47
731.138	293.59
731.54	284.23
731.942	312.32
732.344	302.95
732.746	256.14
733.148	326.36
733.55	363.81
733.952	307.63
734.354	265.5
734.756	284.23
735.157	356.79
735.559	333.38
735.96	281.89
736.362	270.19
736.763	237.42
737.165	342.74
737.566	321.68
737.967	295.93
738.368	286.57
738.77	256.14
739.171	345.08
739.572	279.55
739.973	279.55
740.374	260.82
740.774	307.63
741.175	347.42
741.576	319.34
741.977	286.57
742.377	352.1
742.778	314.66
743.178	286.57
743.579	249.12
743.979	288.91
744.379	326.36
744.78	284.23
745.18	307.63
745.58	354.44
745.98	277.21
746.38	295.93
746.78	288.91
747.18	291.25
747.58	347.42
747.98	284.23
748.38	293.59
748.779	305.29
749.179	291.25
749.578	281.89
749.978	260.82
750.377	279.55
750.777	246.78
751.176	324.02
751.575	342.74
751.975	281.89
752.374	319.34
752.773	199.97
753.172	265.5
753.571	288.91
753.97	338.06
754.369	291.25
754.768	326.36
755.166	284.23
755.565	319.34
755.964	324.02
756.362	342.74
756.761	333.38
757.159	340.4
757.558	333.38
757.956	302.95
758.354	302.95
758.753	256.14
759.151	335.72
759.549	274.87
759.947	274.87
760.345	284.23
760.743	312.32
761.141	324.02
761.539	335.72
761.936	284.23
762.334	335.72
762.732	302.95
763.129	284.23
763.527	319.34
763.924	293.59
764.322	375.51
764.719	302.95
765.117	288.91
765.514	267.85
765.911	288.91
766.308	328.7
766.705	288.91
767.102	338.06
767.499	326.36
767.896	352.1
