Data from Al_FLMS009871__720__15-12-39-729.txt Node

Date: Fri Mar 08 15:12:39 CST 2024
User: pe5414po
Spectrometer: FLMS00987
Trigger mode: 0
Integration Time (sec): 1.000000E-1
Scans to average: 1
Electric dark correction enabled: true
Nonlinearity correction enabled: false
Boxcar width: 0
XAxis mode: Wavelengths
Number of Pixels in Spectrum: 2048
>>>>>Begin Spectral Data<<<<<
188.938	-117.32
189.409	-117.32
189.879	-117.32
190.349	-166.47
190.819	-152.43
191.29	-159.45
191.76	-117.32
192.23	-131.36
192.7	-58.81
193.17	-75.19
193.64	-21.36
194.109	-61.15
194.579	39.5
195.049	-23.7
195.519	30.13
195.988	69.92
196.458	93.33
196.927	81.63
197.397	98.01
197.866	81.63
198.336	154.18
198.805	179.93
199.274	172.91
199.744	182.27
200.213	135.46
200.682	126.1
201.151	245.46
201.62	182.27
202.089	238.44
202.558	257.17
203.027	303.98
203.495	306.32
203.964	229.08
204.433	280.57
204.902	215.04
205.37	280.57
205.839	229.08
206.307	285.25
206.776	259.51
207.244	268.87
207.712	208.02
208.181	257.17
208.649	271.21
209.117	294.61
209.585	261.85
210.053	254.83
210.521	210.36
210.989	292.27
211.457	313.34
211.925	198.65
212.393	226.74
212.861	266.53
213.328	282.91
213.796	271.21
214.264	273.55
214.731	306.32
215.199	257.17
215.666	203.33
216.133	278.23
216.601	278.23
217.068	266.53
217.535	243.12
218.003	200.99
218.47	224.4
218.937	229.08
219.404	238.44
219.871	250.14
220.338	261.85
220.805	198.65
221.271	205.67
221.738	247.8
222.205	229.08
222.671	264.19
223.138	245.46
223.605	245.46
224.071	233.76
224.538	285.25
225.004	222.06
225.47	240.78
225.937	268.87
226.403	264.19
226.869	271.21
227.335	205.67
227.801	247.8
228.267	252.49
228.733	250.14
229.199	259.51
229.665	264.19
230.131	332.06
230.597	203.33
231.062	210.36
231.528	294.61
231.994	325.04
232.459	285.25
232.925	243.12
233.39	219.72
233.856	219.72
234.321	280.57
234.786	285.25
235.252	306.32
235.717	266.53
236.182	280.57
236.647	306.32
237.112	303.98
237.577	341.43
238.042	238.44
238.507	273.55
238.972	303.98
239.436	299.3
239.901	252.49
240.366	233.76
240.83	273.55
241.295	229.08
241.76	273.55
242.224	282.91
242.688	236.1
243.153	240.78
243.617	280.57
244.081	226.74
244.545	226.74
245.01	282.91
245.474	252.49
245.938	268.87
246.402	222.06
246.866	273.55
247.33	245.46
247.793	250.14
248.257	233.76
248.721	257.17
249.185	236.1
249.648	240.78
250.112	280.57
250.575	278.23
251.039	346.11
251.502	240.78
251.965	336.74
252.429	282.91
252.892	210.36
253.355	315.68
253.818	261.85
254.281	311
254.744	278.23
255.207	224.4
255.67	318.02
256.133	268.87
256.596	259.51
257.059	243.12
257.522	325.04
257.984	282.91
258.447	271.21
258.909	182.27
259.372	259.51
259.834	294.61
260.297	259.51
260.759	259.51
261.221	275.89
261.684	247.8
262.146	266.53
262.608	327.38
263.07	261.85
263.532	257.17
263.994	299.3
264.456	360.15
264.918	292.27
265.38	236.1
265.842	271.21
266.303	245.46
266.765	303.98
267.227	282.91
267.688	301.64
268.15	296.96
268.611	282.91
269.072	336.74
269.534	315.68
269.995	296.96
270.456	233.76
270.918	273.55
271.379	273.55
271.84	299.3
272.301	299.3
272.762	278.23
273.223	231.42
273.684	273.55
274.144	236.1
274.605	334.4
275.066	275.89
275.527	215.04
275.987	259.51
276.448	245.46
276.908	257.17
277.369	327.38
277.829	282.91
278.289	280.57
278.75	264.19
279.21	261.85
279.67	320.36
280.13	203.33
280.59	264.19
281.05	287.59
281.51	268.87
281.97	254.83
282.43	233.76
282.89	315.68
283.35	313.34
283.809	271.21
284.269	287.59
284.729	311
285.188	266.53
285.648	308.66
286.107	301.64
286.567	285.25
287.026	296.96
287.485	257.17
287.944	245.46
288.404	325.04
288.863	299.3
289.322	205.67
289.781	233.76
290.24	325.04
290.699	261.85
291.158	362.49
291.616	292.27
292.075	301.64
292.534	303.98
292.992	292.27
293.451	369.51
293.91	273.55
294.368	301.64
294.827	229.08
295.285	240.78
295.743	285.25
296.202	301.64
296.66	282.91
297.118	303.98
297.576	275.89
298.034	285.25
298.492	264.19
298.95	287.59
299.408	261.85
299.866	257.17
300.324	341.43
300.781	301.64
301.239	341.43
301.697	278.23
302.154	261.85
302.612	261.85
303.069	226.74
303.527	266.53
303.984	303.98
304.441	264.19
304.899	264.19
305.356	315.68
305.813	332.06
306.27	275.89
306.727	278.23
307.184	273.55
307.641	275.89
308.098	322.7
308.555	322.7
309.012	318.02
309.468	296.96
309.925	313.34
310.382	280.57
310.838	280.57
311.295	311
311.751	243.12
312.208	299.3
312.664	268.87
313.12	268.87
313.577	259.51
314.033	287.59
314.489	311
314.945	285.25
315.401	318.02
315.857	322.7
316.313	294.61
316.769	282.91
317.225	294.61
317.681	226.74
318.136	299.3
318.592	303.98
319.048	343.77
319.503	308.66
319.959	264.19
320.414	282.91
320.869	238.44
321.325	257.17
321.78	273.55
322.235	339.09
322.691	240.78
323.146	275.89
323.601	247.8
324.056	348.45
324.511	306.32
324.966	252.49
325.421	313.34
325.875	388.24
326.33	282.91
326.785	327.38
327.24	292.27
327.694	313.34
328.149	336.74
328.603	292.27
329.058	240.78
329.512	254.83
329.966	275.89
330.421	315.68
330.875	296.96
331.329	238.44
331.783	301.64
332.237	257.17
332.691	243.12
333.145	332.06
333.599	332.06
334.053	296.96
334.507	299.3
334.96	306.32
335.414	313.34
335.868	271.21
336.321	346.11
336.775	334.4
337.228	257.17
337.682	303.98
338.135	245.46
338.588	273.55
339.042	299.3
339.495	280.57
339.948	313.34
340.401	254.83
340.854	287.59
341.307	311
341.76	268.87
342.213	280.57
342.666	306.32
343.119	303.98
343.571	273.55
344.024	303.98
344.477	362.49
344.929	336.74
345.382	280.57
345.834	254.83
346.287	247.8
346.739	392.92
347.191	315.68
347.644	250.14
348.096	268.87
348.548	238.44
349	287.59
349.452	271.21
349.904	350.79
350.356	271.21
350.808	229.08
351.26	266.53
351.711	325.04
352.163	238.44
352.615	212.7
353.066	327.38
353.518	289.93
353.969	318.02
354.421	271.21
354.872	261.85
355.324	278.23
355.775	325.04
356.226	296.96
356.677	301.64
357.128	278.23
357.579	261.85
358.03	285.25
358.481	336.74
358.932	339.09
359.383	266.53
359.834	292.27
360.285	294.61
360.735	306.32
361.186	282.91
361.637	322.7
362.087	320.36
362.538	318.02
362.988	275.89
363.438	306.32
363.889	257.17
364.339	292.27
364.789	311
365.239	247.8
365.689	378.87
366.139	200.99
366.589	296.96
367.039	254.83
367.489	332.06
367.939	247.8
368.389	210.36
368.839	299.3
369.288	236.1
369.738	289.93
370.187	322.7
370.637	289.93
371.086	301.64
371.536	264.19
371.985	325.04
372.434	308.66
372.884	320.36
373.333	315.68
373.782	278.23
374.231	332.06
374.68	296.96
375.129	311
375.578	266.53
376.027	313.34
376.475	271.21
376.924	247.8
377.373	273.55
377.822	252.49
378.27	257.17
378.719	334.4
379.167	322.7
379.616	315.68
380.064	278.23
380.512	327.38
380.961	346.11
381.409	322.7
381.857	257.17
382.305	318.02
382.753	264.19
383.201	292.27
383.649	257.17
384.097	294.61
384.545	339.09
384.992	334.4
385.44	301.64
385.888	364.83
386.335	289.93
386.783	273.55
387.231	257.17
387.678	292.27
388.125	301.64
388.573	287.59
389.02	231.42
389.467	327.38
389.914	320.36
390.362	296.96
390.809	275.89
391.256	280.57
391.703	315.68
392.15	329.72
392.596	332.06
393.043	275.89
393.49	343.77
393.937	294.61
394.383	320.36
394.83	327.38
395.276	285.25
395.723	271.21
396.169	341.43
396.616	301.64
397.062	250.14
397.508	280.57
397.954	301.64
398.401	299.3
398.847	315.68
399.293	289.93
399.739	287.59
400.185	357.81
400.631	240.78
401.076	252.49
401.522	292.27
401.968	303.98
402.414	212.7
402.859	346.11
403.305	296.96
403.75	311
404.196	332.06
404.641	266.53
405.086	311
405.532	308.66
405.977	325.04
406.422	247.8
406.867	322.7
407.312	259.51
407.757	311
408.202	322.7
408.647	285.25
409.092	374.19
409.537	322.7
409.982	287.59
410.426	275.89
410.871	313.34
411.316	264.19
411.76	336.74
412.205	303.98
412.649	355.47
413.093	327.38
413.538	287.59
413.982	334.4
414.426	336.74
414.87	292.27
415.314	268.87
415.758	299.3
416.202	341.43
416.646	278.23
417.09	264.19
417.534	360.15
417.978	311
418.421	308.66
418.865	280.57
419.309	301.64
419.752	327.38
420.196	315.68
420.639	264.19
421.083	296.96
421.526	250.14
421.969	311
422.412	233.76
422.856	311
423.299	374.19
423.742	294.61
424.185	311
424.628	259.51
425.071	292.27
425.513	282.91
425.956	266.53
426.399	273.55
426.842	308.66
427.284	320.36
427.727	306.32
428.169	374.19
428.612	325.04
429.054	348.45
429.497	348.45
429.939	285.25
430.381	264.19
430.823	303.98
431.265	329.72
431.707	320.36
432.149	285.25
432.591	334.4
433.033	327.38
433.475	353.13
433.917	273.55
434.359	275.89
434.8	294.61
435.242	264.19
435.684	261.85
436.125	236.1
436.567	271.21
437.008	313.34
437.449	259.51
437.891	301.64
438.332	306.32
438.773	296.96
439.214	289.93
439.656	327.38
440.097	282.91
440.538	303.98
440.978	313.34
441.419	273.55
441.86	329.72
442.301	371.85
442.742	308.66
443.182	336.74
443.623	343.77
444.063	268.87
444.504	364.83
444.944	264.19
445.385	259.51
445.825	294.61
446.265	280.57
446.706	325.04
447.146	306.32
447.586	346.11
448.026	224.4
448.466	311
448.906	346.11
449.346	275.89
449.786	268.87
450.225	287.59
450.665	343.77
451.105	282.91
451.544	303.98
451.984	318.02
452.424	308.66
452.863	289.93
453.302	348.45
453.742	285.25
454.181	264.19
454.62	212.7
455.059	311
455.499	268.87
455.938	308.66
456.377	348.45
456.816	252.49
457.254	264.19
457.693	332.06
458.132	325.04
458.571	311
459.01	306.32
459.448	315.68
459.887	266.53
460.325	327.38
460.764	334.4
461.202	252.49
461.641	350.79
462.079	327.38
462.517	296.96
462.955	346.11
463.393	334.4
463.832	299.3
464.27	325.04
464.708	322.7
465.145	287.59
465.583	322.7
466.021	301.64
466.459	247.8
466.897	336.74
467.334	360.15
467.772	275.89
468.209	282.91
468.647	280.57
469.084	329.72
469.522	275.89
469.959	378.87
470.396	245.46
470.833	325.04
471.271	296.96
471.708	182.27
472.145	313.34
472.582	343.77
473.019	313.34
473.456	294.61
473.892	303.98
474.329	346.11
474.766	341.43
475.202	280.57
475.639	275.89
476.076	233.76
476.512	287.59
476.949	322.7
477.385	329.72
477.821	318.02
478.258	315.68
478.694	266.53
479.13	285.25
479.566	325.04
480.002	264.19
480.438	252.49
480.874	289.93
481.31	247.8
481.746	289.93
482.181	292.27
482.617	282.91
483.053	311
483.488	308.66
483.924	278.23
484.36	311
484.795	362.49
485.23	325.04
485.666	334.4
486.101	275.89
486.536	292.27
486.971	308.66
487.407	303.98
487.842	336.74
488.277	332.06
488.712	306.32
489.146	301.64
489.581	266.53
490.016	296.96
490.451	322.7
490.885	285.25
491.32	282.91
491.755	289.93
492.189	247.8
492.624	308.66
493.058	355.47
493.492	250.14
493.927	292.27
494.361	303.98
494.795	329.72
495.229	287.59
495.663	299.3
496.097	296.96
496.531	275.89
496.965	311
497.399	318.02
497.833	296.96
498.266	327.38
498.7	308.66
499.134	292.27
499.567	329.72
500.001	285.25
500.434	264.19
500.868	259.51
501.301	334.4
501.734	367.17
502.168	280.57
502.601	367.17
503.034	289.93
503.467	243.12
503.9	325.04
504.333	278.23
504.766	212.7
505.199	315.68
505.632	306.32
506.064	346.11
506.497	280.57
506.93	285.25
507.362	261.85
507.795	271.21
508.227	301.64
508.66	278.23
509.092	355.47
509.524	287.59
509.956	292.27
510.389	315.68
510.821	355.47
511.253	282.91
511.685	294.61
512.117	268.87
512.549	308.66
512.981	292.27
513.412	325.04
513.844	313.34
514.276	322.7
514.707	357.81
515.139	339.09
515.571	303.98
516.002	303.98
516.433	336.74
516.865	348.45
517.296	292.27
517.727	303.98
518.159	275.89
518.59	329.72
519.021	325.04
519.452	315.68
519.883	303.98
520.314	313.34
520.744	282.91
521.175	364.83
521.606	332.06
522.037	318.02
522.467	341.43
522.898	292.27
523.328	287.59
523.759	322.7
524.189	353.13
524.62	275.89
525.05	301.64
525.48	257.17
525.91	299.3
526.341	322.7
526.771	350.79
527.201	296.96
527.631	275.89
528.061	339.09
528.49	318.02
528.92	308.66
529.35	285.25
529.78	318.02
530.209	287.59
530.639	315.68
531.068	273.55
531.498	336.74
531.927	268.87
532.357	294.61
532.786	275.89
533.215	273.55
533.644	278.23
534.074	355.47
534.503	332.06
534.932	252.49
535.361	259.51
535.79	285.25
536.218	282.91
536.647	322.7
537.076	254.83
537.505	303.98
537.933	294.61
538.362	296.96
538.79	294.61
539.219	339.09
539.647	360.15
540.076	271.21
540.504	308.66
540.932	266.53
541.36	226.74
541.788	303.98
542.217	259.51
542.645	353.13
543.073	308.66
543.5	343.77
543.928	247.8
544.356	266.53
544.784	257.17
545.211	273.55
545.639	299.3
546.067	308.66
546.494	322.7
546.922	285.25
547.349	311
547.776	296.96
548.204	385.9
548.631	341.43
549.058	261.85
549.485	287.59
549.912	318.02
550.339	254.83
550.766	271.21
551.193	306.32
551.62	261.85
552.047	296.96
552.474	231.42
552.9	264.19
553.327	327.38
553.754	334.4
554.18	299.3
554.607	294.61
555.033	353.13
555.459	399.94
555.886	360.15
556.312	353.13
556.738	271.21
557.164	308.66
557.59	285.25
558.016	322.7
558.442	303.98
558.868	240.78
559.294	325.04
559.72	299.3
560.145	360.15
560.571	360.15
560.997	374.19
561.422	238.44
561.848	311
562.273	327.38
562.699	313.34
563.124	292.27
563.549	318.02
563.974	287.59
564.4	311
564.825	266.53
565.25	292.27
565.675	311
566.1	275.89
566.525	334.4
566.95	280.57
567.374	231.42
567.799	315.68
568.224	243.12
568.648	318.02
569.073	296.96
569.497	243.12
569.922	261.85
570.346	311
570.771	348.45
571.195	238.44
571.619	329.72
572.043	311
572.467	339.09
572.891	339.09
573.315	261.85
573.739	357.81
574.163	306.32
574.587	306.32
575.011	311
575.435	357.81
575.858	343.77
576.282	318.02
576.705	261.85
577.129	217.38
577.552	282.91
577.976	313.34
578.399	301.64
578.822	395.26
579.245	254.83
579.669	259.51
580.092	280.57
580.515	334.4
580.938	348.45
581.361	320.36
581.784	332.06
582.206	311
582.629	289.93
583.052	282.91
583.474	343.77
583.897	285.25
584.32	311
584.742	287.59
585.165	236.1
585.587	308.66
586.009	243.12
586.431	325.04
586.854	271.21
587.276	268.87
587.698	226.74
588.12	217.38
588.542	332.06
588.964	325.04
589.386	355.47
589.807	306.32
590.229	306.32
590.651	318.02
591.073	374.19
591.494	273.55
591.916	271.21
592.337	275.89
592.759	306.32
593.18	296.96
593.601	357.81
594.022	348.45
594.444	350.79
594.865	318.02
595.286	294.61
595.707	259.51
596.128	320.36
596.549	313.34
596.97	315.68
597.39	299.3
597.811	261.85
598.232	296.96
598.652	299.3
599.073	346.11
599.494	329.72
599.914	329.72
600.334	285.25
600.755	268.87
601.175	320.36
601.595	268.87
602.015	287.59
602.436	294.61
602.856	406.96
603.276	353.13
603.696	318.02
604.115	308.66
604.535	332.06
604.955	271.21
605.375	233.76
605.794	301.64
606.214	339.09
606.634	280.57
607.053	287.59
607.473	301.64
607.892	264.19
608.311	292.27
608.731	306.32
609.15	308.66
609.569	315.68
609.988	306.32
610.407	320.36
610.826	308.66
611.245	367.17
611.664	322.7
612.083	308.66
612.501	273.55
612.92	278.23
613.339	250.14
613.757	271.21
614.176	282.91
614.594	282.91
615.013	322.7
615.431	299.3
615.85	282.91
616.268	296.96
616.686	311
617.104	271.21
617.522	240.78
617.94	268.87
618.358	261.85
618.776	268.87
619.194	301.64
619.612	280.57
620.03	285.25
620.447	250.14
620.865	266.53
621.282	292.27
621.7	320.36
622.117	261.85
622.535	332.06
622.952	224.4
623.369	287.59
623.787	268.87
624.204	268.87
624.621	308.66
625.038	348.45
625.455	346.11
625.872	289.93
626.289	336.74
626.706	264.19
627.123	278.23
627.539	301.64
627.956	273.55
628.373	278.23
628.789	348.45
629.206	346.11
629.622	268.87
630.038	268.87
630.455	313.34
630.871	315.68
631.287	315.68
631.703	266.53
632.12	271.21
632.536	266.53
632.952	252.49
633.368	257.17
633.783	332.06
634.199	240.78
634.615	322.7
635.031	311
635.446	308.66
635.862	271.21
636.277	303.98
636.693	327.38
637.108	357.81
637.524	292.27
637.939	282.91
638.354	364.83
638.77	339.09
639.185	334.4
639.6	325.04
640.015	282.91
640.43	226.74
640.845	301.64
641.259	247.8
641.674	261.85
642.089	240.78
642.504	231.42
642.918	320.36
643.333	275.89
643.747	282.91
644.162	341.43
644.576	332.06
644.991	296.96
645.405	285.25
645.819	264.19
646.233	252.49
646.647	369.51
647.061	318.02
647.475	289.93
647.889	282.91
648.303	250.14
648.717	266.53
649.131	273.55
649.545	362.49
649.958	306.32
650.372	303.98
650.785	346.11
651.199	325.04
651.612	271.21
652.026	280.57
652.439	299.3
652.852	315.68
653.266	285.25
653.679	320.36
654.092	287.59
654.505	254.83
654.918	303.98
655.331	322.7
655.744	329.72
656.156	280.57
656.569	329.72
656.982	350.79
657.394	313.34
657.807	278.23
658.22	292.27
658.632	236.1
659.044	289.93
659.457	322.7
659.869	350.79
660.281	311
660.693	315.68
661.106	311
661.518	294.61
661.93	285.25
662.342	250.14
662.754	215.04
663.165	301.64
663.577	303.98
663.989	406.96
664.401	336.74
664.812	236.1
665.224	390.58
665.635	313.34
666.047	313.34
666.458	315.68
666.869	296.96
667.281	378.87
667.692	332.06
668.103	294.61
668.514	322.7
668.925	313.34
669.336	318.02
669.747	289.93
670.158	322.7
670.569	341.43
670.979	289.93
671.39	287.59
671.801	259.51
672.211	341.43
672.622	308.66
673.032	306.32
673.443	299.3
673.853	275.89
674.263	336.74
674.674	278.23
675.084	285.25
675.494	329.72
675.904	327.38
676.314	329.72
676.724	327.38
677.134	318.02
677.544	292.27
677.953	292.27
678.363	296.96
678.773	315.68
679.182	357.81
679.592	343.77
680.001	320.36
680.411	308.66
680.82	355.47
681.23	259.51
681.639	266.53
682.048	292.27
682.457	203.33
682.866	278.23
683.275	275.89
683.684	350.79
684.093	273.55
684.502	261.85
684.911	285.25
685.32	219.72
685.728	308.66
686.137	301.64
686.546	273.55
686.954	318.02
687.363	285.25
687.771	306.32
688.179	292.27
688.588	320.36
688.996	315.68
689.404	252.49
689.812	313.34
690.22	334.4
690.628	315.68
691.036	318.02
691.444	245.46
691.852	252.49
692.26	285.25
692.667	308.66
693.075	222.06
693.483	287.59
693.89	301.64
694.298	266.53
694.705	217.38
695.112	247.8
695.52	332.06
695.927	329.72
696.334	266.53
696.741	306.32
697.148	308.66
697.555	275.89
697.962	320.36
698.369	289.93
698.776	229.08
699.183	254.83
699.59	294.61
699.996	325.04
700.403	240.78
700.81	247.8
701.216	306.32
701.623	280.57
702.029	322.7
702.435	289.93
702.842	336.74
703.248	308.66
703.654	250.14
704.06	332.06
704.466	301.64
704.872	292.27
705.278	245.46
705.684	308.66
706.09	280.57
706.496	357.81
706.901	296.96
707.307	282.91
707.712	245.46
708.118	292.27
708.523	259.51
708.929	261.85
709.334	325.04
709.74	395.26
710.145	282.91
710.55	247.8
710.955	301.64
711.36	285.25
711.765	357.81
712.17	259.51
712.575	322.7
712.98	971.03
713.385	383.56
713.789	306.32
714.194	294.61
714.599	271.21
715.003	261.85
715.408	301.64
715.812	294.61
716.217	318.02
716.621	292.27
717.025	343.77
717.429	296.96
717.833	299.3
718.238	240.78
718.642	250.14
719.046	299.3
719.449	308.66
719.853	367.17
720.257	350.79
720.661	303.98
721.065	296.96
721.468	311
721.872	362.49
722.275	285.25
722.679	318.02
723.082	327.38
723.485	311
723.889	285.25
724.292	303.98
724.695	325.04
725.098	348.45
725.501	282.91
725.904	355.47
726.307	322.7
726.71	271.21
727.113	226.74
727.516	311
727.918	348.45
728.321	257.17
728.724	381.21
729.126	287.59
729.529	315.68
729.931	315.68
730.333	303.98
730.736	299.3
731.138	308.66
731.54	224.4
731.942	332.06
732.344	322.7
732.746	240.78
733.148	343.77
733.55	250.14
733.952	332.06
734.354	285.25
734.756	341.43
735.157	322.7
735.559	271.21
735.96	280.57
736.362	303.98
736.763	308.66
737.165	322.7
737.566	268.87
737.967	240.78
738.368	271.21
738.77	329.72
739.171	308.66
739.572	350.79
739.973	285.25
740.374	315.68
740.774	325.04
741.175	268.87
741.576	238.44
741.977	261.85
742.377	299.3
742.778	308.66
743.178	346.11
743.579	327.38
743.979	311
744.379	287.59
744.78	306.32
745.18	320.36
745.58	292.27
745.98	259.51
746.38	308.66
746.78	313.34
747.18	362.49
747.58	334.4
747.98	294.61
748.38	325.04
748.779	266.53
749.179	322.7
749.578	318.02
749.978	280.57
750.377	271.21
750.777	294.61
751.176	266.53
751.575	278.23
751.975	311
752.374	320.36
752.773	289.93
753.172	350.79
753.571	294.61
753.97	339.09
754.369	287.59
754.768	254.83
755.166	318.02
755.565	341.43
755.964	292.27
756.362	294.61
756.761	292.27
757.159	264.19
757.558	261.85
757.956	311
758.354	360.15
758.753	353.13
759.151	325.04
759.549	362.49
759.947	306.32
760.345	294.61
760.743	313.34
761.141	332.06
761.539	313.34
761.936	285.25
762.334	257.17
762.732	355.47
763.129	252.49
763.527	200.99
763.924	336.74
764.322	261.85
764.719	301.64
765.117	278.23
765.514	275.89
765.911	348.45
766.308	306.32
766.705	273.55
767.102	294.61
767.499	322.7
