Data from Al_FLMS009871__735__15-12-41-229.txt Node

Date: Fri Mar 08 15:12:41 CST 2024
User: pe5414po
Spectrometer: FLMS00987
Trigger mode: 0
Integration Time (sec): 1.000000E-1
Scans to average: 1
Electric dark correction enabled: true
Nonlinearity correction enabled: false
Boxcar width: 0
XAxis mode: Wavelengths
Number of Pixels in Spectrum: 2048
>>>>>Begin Spectral Data<<<<<
188.938	-88.79
189.409	-88.79
189.879	-88.79
190.349	-84.11
190.819	-130.92
191.29	-130.92
191.76	-91.13
192.23	-46.66
192.7	-25.6
193.17	-81.77
193.64	-30.28
194.109	11.85
194.579	2.49
195.049	-49
195.519	-34.96
195.988	-4.53
196.458	63.34
196.927	63.34
197.397	126.54
197.866	105.47
198.336	121.85
198.805	75.04
199.274	182.71
199.744	126.54
200.213	208.45
200.682	194.41
201.151	273.99
201.62	257.61
202.089	196.75
202.558	217.82
203.027	224.84
203.495	245.9
203.964	248.24
204.433	236.54
204.902	348.89
205.37	292.71
205.839	302.08
206.307	248.24
206.776	273.99
207.244	278.67
207.712	311.44
208.181	288.03
208.649	323.14
209.117	316.12
209.585	266.97
210.053	297.39
210.521	309.1
210.989	374.63
211.457	220.16
211.925	313.78
212.393	210.79
212.861	236.54
213.328	269.31
213.796	299.73
214.264	285.69
214.731	234.2
215.199	255.26
215.666	295.05
216.133	264.63
216.601	229.52
217.068	283.35
217.535	259.95
218.003	257.61
218.47	297.39
218.937	252.92
219.404	250.58
219.871	309.1
220.338	271.65
220.805	220.16
221.271	278.67
221.738	224.84
222.205	222.5
222.671	259.95
223.138	238.88
223.605	243.56
224.071	288.03
224.538	276.33
225.004	220.16
225.47	299.73
225.937	292.71
226.403	252.92
226.869	229.52
227.335	238.88
227.801	259.95
228.267	283.35
228.733	259.95
229.199	238.88
229.665	262.29
230.131	248.24
230.597	292.71
231.062	299.73
231.528	248.24
231.994	245.9
232.459	224.84
232.925	283.35
233.39	222.5
233.856	266.97
234.321	227.18
234.786	311.44
235.252	259.95
235.717	266.97
236.182	238.88
236.647	241.22
237.112	344.21
237.577	276.33
238.042	257.61
238.507	220.16
238.972	243.56
239.436	224.84
239.901	281.01
240.366	262.29
240.83	238.88
241.295	236.54
241.76	339.52
242.224	292.71
242.688	302.08
243.153	266.97
243.617	269.31
244.081	213.14
244.545	217.82
245.01	372.29
245.474	337.18
245.938	332.5
246.402	295.05
246.866	264.63
247.33	234.2
247.793	348.89
248.257	271.65
248.721	281.01
249.185	269.31
249.648	250.58
250.112	278.67
250.575	199.09
251.039	297.39
251.502	299.73
251.965	290.37
252.429	295.05
252.892	283.35
253.355	248.24
253.818	288.03
254.281	250.58
254.744	304.42
255.207	264.63
255.67	248.24
256.133	220.16
256.596	281.01
257.059	309.1
257.522	278.67
257.984	351.23
258.447	281.01
258.909	264.63
259.372	316.12
259.834	248.24
260.297	257.61
260.759	334.84
261.221	273.99
261.684	276.33
262.146	318.46
262.608	252.92
263.07	299.73
263.532	222.5
263.994	281.01
264.456	316.12
264.918	367.61
265.38	241.22
265.842	290.37
266.303	236.54
266.765	252.92
267.227	325.48
267.688	234.2
268.15	325.48
268.611	311.44
269.072	269.31
269.534	318.46
269.995	278.67
270.456	266.97
270.918	255.26
271.379	332.5
271.84	245.9
272.301	332.5
272.762	290.37
273.223	288.03
273.684	323.14
274.144	311.44
274.605	323.14
275.066	259.95
275.527	332.5
275.987	276.33
276.448	302.08
276.908	285.69
277.369	266.97
277.829	234.2
278.289	266.97
278.75	259.95
279.21	257.61
279.67	295.05
280.13	231.86
280.59	234.2
281.05	271.65
281.51	271.65
281.97	304.42
282.43	369.95
282.89	259.95
283.35	288.03
283.809	217.82
284.269	215.48
284.729	337.18
285.188	262.29
285.648	266.97
286.107	208.45
286.567	297.39
287.026	311.44
287.485	302.08
287.944	252.92
288.404	320.8
288.863	337.18
289.322	297.39
289.781	283.35
290.24	264.63
290.699	353.57
291.158	297.39
291.616	360.59
292.075	175.69
292.534	316.12
292.992	276.33
293.451	290.37
293.91	248.24
294.368	276.33
294.827	210.79
295.285	346.55
295.743	297.39
296.202	271.65
296.66	295.05
297.118	266.97
297.576	302.08
298.034	313.78
298.492	302.08
298.95	281.01
299.408	332.5
299.866	358.25
300.324	318.46
300.781	339.52
301.239	278.67
301.697	266.97
302.154	330.16
302.612	264.63
303.069	292.71
303.527	323.14
303.984	318.46
304.441	330.16
304.899	288.03
305.356	259.95
305.813	243.56
306.27	334.84
306.727	241.22
307.184	290.37
307.641	290.37
308.098	330.16
308.555	285.69
309.012	299.73
309.468	339.52
309.925	311.44
310.382	236.54
310.838	351.23
311.295	297.39
311.751	278.67
312.208	245.9
312.664	278.67
313.12	285.69
313.577	341.86
314.033	355.91
314.489	320.8
314.945	337.18
315.401	323.14
315.857	327.82
316.313	302.08
316.769	283.35
317.225	255.26
317.681	313.78
318.136	250.58
318.592	297.39
319.048	358.25
319.503	245.9
319.959	304.42
320.414	281.01
320.869	276.33
321.325	259.95
321.78	269.31
322.235	351.23
322.691	283.35
323.146	281.01
323.601	323.14
324.056	285.69
324.511	332.5
324.966	288.03
325.421	222.5
325.875	234.2
326.33	309.1
326.785	323.14
327.24	262.29
327.694	351.23
328.149	259.95
328.603	269.31
329.058	266.97
329.512	297.39
329.966	290.37
330.421	262.29
330.875	323.14
331.329	271.65
331.783	313.78
332.237	245.9
332.691	278.67
333.145	210.79
333.599	320.8
334.053	295.05
334.507	316.12
334.96	299.73
335.414	337.18
335.868	381.65
336.321	276.33
336.775	281.01
337.228	302.08
337.682	297.39
338.135	234.2
338.588	295.05
339.042	395.7
339.495	273.99
339.948	266.97
340.401	269.31
340.854	299.73
341.307	330.16
341.76	269.31
342.213	248.24
342.666	304.42
343.119	283.35
343.571	320.8
344.024	271.65
344.477	290.37
344.929	290.37
345.382	325.48
345.834	339.52
346.287	316.12
346.739	283.35
347.191	325.48
347.644	271.65
348.096	302.08
348.548	332.5
349	297.39
349.452	299.73
349.904	245.9
350.356	316.12
350.808	290.37
351.26	295.05
351.711	311.44
352.163	316.12
352.615	341.86
353.066	325.48
353.518	295.05
353.969	353.57
354.421	412.08
354.872	327.82
355.324	379.31
355.775	318.46
356.226	304.42
356.677	288.03
357.128	344.21
357.579	313.78
358.03	330.16
358.481	337.18
358.932	313.78
359.383	318.46
359.834	341.86
360.285	283.35
360.735	227.18
361.186	266.97
361.637	269.31
362.087	304.42
362.538	302.08
362.988	288.03
363.438	252.92
363.889	271.65
364.339	379.31
364.789	372.29
365.239	281.01
365.689	302.08
366.139	259.95
366.589	402.72
367.039	323.14
367.489	302.08
367.939	353.57
368.389	295.05
368.839	302.08
369.288	318.46
369.738	278.67
370.187	304.42
370.637	309.1
371.086	302.08
371.536	288.03
371.985	360.59
372.434	304.42
372.884	367.61
373.333	306.76
373.782	309.1
374.231	271.65
374.68	238.88
375.129	273.99
375.578	229.52
376.027	320.8
376.475	302.08
376.924	369.95
377.373	316.12
377.822	257.61
378.27	264.63
378.719	339.52
379.167	248.24
379.616	365.27
380.064	285.69
380.512	292.71
380.961	269.31
381.409	365.27
381.857	278.67
382.305	313.78
382.753	306.76
383.201	309.1
383.649	278.67
384.097	234.2
384.545	262.29
384.992	290.37
385.44	306.76
385.888	248.24
386.335	264.63
386.783	283.35
387.231	316.12
387.678	257.61
388.125	248.24
388.573	344.21
389.02	348.89
389.467	327.82
389.914	295.05
390.362	313.78
390.809	295.05
391.256	297.39
391.703	278.67
392.15	234.2
392.596	332.5
393.043	304.42
393.49	337.18
393.937	266.97
394.383	292.71
394.83	313.78
395.276	388.68
395.723	250.58
396.169	271.65
396.616	306.76
397.062	309.1
397.508	341.86
397.954	276.33
398.401	311.44
398.847	276.33
399.293	334.84
399.739	327.82
400.185	266.97
400.631	325.48
401.076	309.1
401.522	290.37
401.968	297.39
402.414	346.55
402.859	224.84
403.305	320.8
403.75	358.25
404.196	332.5
404.641	325.48
405.086	302.08
405.532	269.31
405.977	306.76
406.422	290.37
406.867	295.05
407.312	325.48
407.757	365.27
408.202	309.1
408.647	320.8
409.092	290.37
409.537	318.46
409.982	311.44
410.426	367.61
410.871	376.97
411.316	288.03
411.76	311.44
412.205	367.61
412.649	330.16
413.093	353.57
413.538	355.91
413.982	325.48
414.426	250.58
414.87	302.08
415.314	309.1
415.758	302.08
416.202	346.55
416.646	299.73
417.09	302.08
417.534	339.52
417.978	278.67
418.421	250.58
418.865	273.99
419.309	320.8
419.752	367.61
420.196	374.63
420.639	299.73
421.083	325.48
421.526	339.52
421.969	348.89
422.412	353.57
422.856	297.39
423.299	271.65
423.742	325.48
424.185	273.99
424.628	252.92
425.071	295.05
425.513	306.76
425.956	355.91
426.399	245.9
426.842	273.99
427.284	337.18
427.727	304.42
428.169	344.21
428.612	358.25
429.054	259.95
429.497	306.76
429.939	327.82
430.381	327.82
430.823	316.12
431.265	290.37
431.707	346.55
432.149	311.44
432.591	344.21
433.033	262.29
433.475	283.35
433.917	297.39
434.359	330.16
434.8	290.37
435.242	269.31
435.684	264.63
436.125	341.86
436.567	325.48
437.008	311.44
437.449	323.14
437.891	344.21
438.332	337.18
438.773	318.46
439.214	311.44
439.656	355.91
440.097	313.78
440.538	358.25
440.978	339.52
441.419	330.16
441.86	222.5
442.301	313.78
442.742	330.16
443.182	320.8
443.623	320.8
444.063	337.18
444.504	299.73
444.944	320.8
445.385	311.44
445.825	269.31
446.265	320.8
446.706	358.25
447.146	348.89
447.586	302.08
448.026	355.91
448.466	325.48
448.906	278.67
449.346	283.35
449.786	269.31
450.225	283.35
450.665	355.91
451.105	295.05
451.544	316.12
451.984	313.78
452.424	330.16
452.863	334.84
453.302	369.95
453.742	281.01
454.181	309.1
454.62	283.35
455.059	355.91
455.499	323.14
455.938	255.26
456.377	311.44
456.816	297.39
457.254	311.44
457.693	318.46
458.132	278.67
458.571	269.31
459.01	318.46
459.448	311.44
459.887	288.03
460.325	327.82
460.764	365.27
461.202	306.76
461.641	306.76
462.079	332.5
462.517	320.8
462.955	311.44
463.393	299.73
463.832	351.23
464.27	304.42
464.708	330.16
465.145	334.84
465.583	367.61
466.021	402.72
466.459	355.91
466.897	292.71
467.334	290.37
467.772	358.25
468.209	316.12
468.647	339.52
469.084	269.31
469.522	302.08
469.959	292.71
470.396	290.37
470.833	292.71
471.271	398.04
471.708	325.48
472.145	372.29
472.582	278.67
473.019	334.84
473.456	332.5
473.892	295.05
474.329	309.1
474.766	299.73
475.202	360.59
475.639	318.46
476.076	313.78
476.512	330.16
476.949	264.63
477.385	281.01
477.821	391.02
478.258	309.1
478.694	297.39
479.13	278.67
479.566	330.16
480.002	266.97
480.438	283.35
480.874	341.86
481.31	266.97
481.746	334.84
482.181	346.55
482.617	339.52
483.053	309.1
483.488	299.73
483.924	313.78
484.36	353.57
484.795	367.61
485.23	283.35
485.666	316.12
486.101	323.14
486.536	290.37
486.971	306.76
487.407	353.57
487.842	383.99
488.277	304.42
488.712	339.52
489.146	299.73
489.581	318.46
490.016	297.39
490.451	285.69
490.885	320.8
491.32	325.48
491.755	325.48
492.189	257.61
492.624	323.14
493.058	292.71
493.492	341.86
493.927	323.14
494.361	346.55
494.795	323.14
495.229	339.52
495.663	313.78
496.097	290.37
496.531	330.16
496.965	309.1
497.399	302.08
497.833	327.82
498.266	334.84
498.7	302.08
499.134	381.65
499.567	316.12
500.001	334.84
500.434	290.37
500.868	330.16
501.301	281.01
501.734	351.23
502.168	271.65
502.601	334.84
503.034	264.63
503.467	330.16
503.9	337.18
504.333	358.25
504.766	295.05
505.199	306.76
505.632	306.76
506.064	311.44
506.497	353.57
506.93	243.56
507.362	346.55
507.795	285.69
508.227	302.08
508.66	323.14
509.092	320.8
509.524	269.31
509.956	285.69
510.389	259.95
510.821	323.14
511.253	278.67
511.685	337.18
512.117	238.88
512.549	304.42
512.981	365.27
513.412	285.69
513.844	386.33
514.276	313.78
514.707	360.59
515.139	297.39
515.571	304.42
516.002	292.71
516.433	313.78
516.865	318.46
517.296	318.46
517.727	337.18
518.159	316.12
518.59	369.95
519.021	353.57
519.452	330.16
519.883	259.95
520.314	393.36
520.744	318.46
521.175	266.97
521.606	358.25
522.037	337.18
522.467	330.16
522.898	283.35
523.328	323.14
523.759	297.39
524.189	264.63
524.62	362.93
525.05	330.16
525.48	304.42
525.91	318.46
526.341	306.76
526.771	318.46
527.201	288.03
527.631	379.31
528.061	353.57
528.49	295.05
528.92	362.93
529.35	337.18
529.78	276.33
530.209	290.37
530.639	318.46
531.068	281.01
531.498	255.26
531.927	323.14
532.357	386.33
532.786	334.84
533.215	325.48
533.644	311.44
534.074	337.18
534.503	288.03
534.932	351.23
535.361	341.86
535.79	297.39
536.218	306.76
536.647	295.05
537.076	327.82
537.505	248.24
537.933	290.37
538.362	327.82
538.79	313.78
539.219	273.99
539.647	369.95
540.076	302.08
540.504	306.76
540.932	224.84
541.36	306.76
541.788	346.55
542.217	278.67
542.645	318.46
543.073	292.71
543.5	304.42
543.928	302.08
544.356	323.14
544.784	325.48
545.211	311.44
545.639	318.46
546.067	367.61
546.494	313.78
546.922	299.73
547.349	250.58
547.776	292.71
548.204	330.16
548.631	327.82
549.058	288.03
549.485	341.86
549.912	316.12
550.339	344.21
550.766	306.76
551.193	304.42
551.62	304.42
552.047	266.97
552.474	327.82
552.9	252.92
553.327	412.08
553.754	351.23
554.18	309.1
554.607	320.8
555.033	306.76
555.459	334.84
555.886	323.14
556.312	302.08
556.738	353.57
557.164	323.14
557.59	262.29
558.016	332.5
558.442	297.39
558.868	295.05
559.294	323.14
559.72	330.16
560.145	299.73
560.571	299.73
560.997	252.92
561.422	318.46
561.848	297.39
562.273	231.86
562.699	344.21
563.124	297.39
563.549	283.35
563.974	374.63
564.4	309.1
564.825	304.42
565.25	276.33
565.675	288.03
566.1	302.08
566.525	358.25
566.95	327.82
567.374	327.82
567.799	309.1
568.224	353.57
568.648	302.08
569.073	297.39
569.497	278.67
569.922	231.86
570.346	346.55
570.771	348.89
571.195	276.33
571.619	323.14
572.043	323.14
572.467	386.33
572.891	362.93
573.315	313.78
573.739	332.5
574.163	388.68
574.587	250.58
575.011	332.5
575.435	257.61
575.858	276.33
576.282	379.31
576.705	346.55
577.129	309.1
577.552	257.61
577.976	346.55
578.399	295.05
578.822	311.44
579.245	278.67
579.669	285.69
580.092	297.39
580.515	318.46
580.938	325.48
581.361	313.78
581.784	257.61
582.206	281.01
582.629	311.44
583.052	323.14
583.474	281.01
583.897	299.73
584.32	330.16
584.742	358.25
585.165	365.27
585.587	302.08
586.009	288.03
586.431	297.39
586.854	311.44
587.276	348.89
587.698	381.65
588.12	351.23
588.542	257.61
588.964	311.44
589.386	269.31
589.807	323.14
590.229	290.37
590.651	299.73
591.073	297.39
591.494	304.42
591.916	295.05
592.337	339.52
592.759	320.8
593.18	318.46
593.601	379.31
594.022	271.65
594.444	311.44
594.865	292.71
595.286	325.48
595.707	332.5
596.128	292.71
596.549	316.12
596.97	245.9
597.39	323.14
597.811	323.14
598.232	316.12
598.652	309.1
599.073	339.52
599.494	281.01
599.914	276.33
600.334	346.55
600.755	316.12
601.175	250.58
601.595	306.76
602.015	304.42
602.436	325.48
602.856	435.49
603.276	290.37
603.696	318.46
604.115	257.61
604.535	332.5
604.955	295.05
605.375	311.44
605.794	367.61
606.214	323.14
606.634	304.42
607.053	337.18
607.473	241.22
607.892	344.21
608.311	407.4
608.731	351.23
609.15	334.84
609.569	299.73
609.988	313.78
610.407	374.63
610.826	276.33
611.245	309.1
611.664	320.8
612.083	309.1
612.501	288.03
612.92	313.78
613.339	283.35
613.757	306.76
614.176	306.76
614.594	295.05
615.013	295.05
615.431	273.99
615.85	313.78
616.268	365.27
616.686	318.46
617.104	318.46
617.522	278.67
617.94	290.37
618.358	320.8
618.776	362.93
619.194	152.28
619.612	285.69
620.03	334.84
620.447	306.76
620.865	346.55
621.282	288.03
621.7	295.05
622.117	369.95
622.535	365.27
622.952	311.44
623.369	299.73
623.787	304.42
624.204	318.46
624.621	269.31
625.038	339.52
625.455	353.57
625.872	337.18
626.289	362.93
626.706	285.69
627.123	283.35
627.539	374.63
627.956	311.44
628.373	252.92
628.789	295.05
629.206	311.44
629.622	241.22
630.038	278.67
630.455	245.9
630.871	299.73
631.287	334.84
631.703	285.69
632.12	304.42
632.536	316.12
632.952	325.48
633.368	299.73
633.783	351.23
634.199	416.76
634.615	285.69
635.031	351.23
635.446	288.03
635.862	290.37
636.277	327.82
636.693	276.33
637.108	276.33
637.524	346.55
637.939	316.12
638.354	358.25
638.77	341.86
639.185	309.1
639.6	292.71
640.015	351.23
640.43	273.99
640.845	276.33
641.259	288.03
641.674	339.52
642.089	281.01
642.504	306.76
642.918	290.37
643.333	327.82
643.747	297.39
644.162	292.71
644.576	346.55
644.991	325.48
645.405	316.12
645.819	346.55
646.233	362.93
646.647	339.52
647.061	309.1
647.475	285.69
647.889	231.86
648.303	323.14
648.717	320.8
649.131	330.16
649.545	281.01
649.958	285.69
650.372	355.91
650.785	264.63
651.199	306.76
651.612	386.33
652.026	309.1
652.439	273.99
652.852	367.61
653.266	355.91
653.679	348.89
654.092	292.71
654.505	269.31
654.918	273.99
655.331	302.08
655.744	231.86
656.156	320.8
656.569	318.46
656.982	372.29
657.394	297.39
657.807	266.97
658.22	362.93
658.632	306.76
659.044	304.42
659.457	243.56
659.869	281.01
660.281	309.1
660.693	337.18
661.106	365.27
661.518	316.12
661.93	302.08
662.342	320.8
662.754	273.99
663.165	339.52
663.577	313.78
663.989	302.08
664.401	273.99
664.812	292.71
665.224	283.35
665.635	299.73
666.047	320.8
666.458	353.57
666.869	306.76
667.281	348.89
667.692	292.71
668.103	292.71
668.514	332.5
668.925	285.69
669.336	306.76
669.747	405.06
670.158	283.35
670.569	323.14
670.979	346.55
671.39	252.92
671.801	288.03
672.211	302.08
672.622	304.42
673.032	376.97
673.443	311.44
673.853	295.05
674.263	330.16
674.674	299.73
675.084	302.08
675.494	334.84
675.904	323.14
676.314	320.8
676.724	353.57
677.134	325.48
677.544	332.5
677.953	276.33
678.363	344.21
678.773	313.78
679.182	351.23
679.592	299.73
680.001	337.18
680.411	290.37
680.82	346.55
681.23	309.1
681.639	250.58
682.048	306.76
682.457	255.26
682.866	255.26
683.275	264.63
683.684	327.82
684.093	285.69
684.502	306.76
684.911	334.84
685.32	292.71
685.728	273.99
686.137	309.1
686.546	332.5
686.954	299.73
687.363	302.08
687.771	320.8
688.179	255.26
688.588	351.23
688.996	297.39
689.404	353.57
689.812	330.16
690.22	330.16
690.628	323.14
691.036	266.97
691.444	355.91
691.852	306.76
692.26	269.31
692.667	290.37
693.075	285.69
693.483	334.84
693.89	369.95
694.298	341.86
694.705	325.48
695.112	295.05
695.52	313.78
695.927	346.55
696.334	290.37
696.741	332.5
697.148	346.55
697.555	313.78
697.962	231.86
698.369	372.29
698.776	313.78
699.183	278.67
699.59	327.82
699.996	332.5
700.403	402.72
700.81	206.11
701.216	299.73
701.623	311.44
702.029	374.63
702.435	302.08
702.842	297.39
703.248	273.99
703.654	330.16
704.06	302.08
704.466	339.52
704.872	351.23
705.278	278.67
705.684	339.52
706.09	320.8
706.496	344.21
706.901	318.46
707.307	313.78
707.712	255.26
708.118	292.71
708.523	295.05
708.929	273.99
709.334	238.88
709.74	273.99
710.145	278.67
710.55	327.82
710.955	311.44
711.36	318.46
711.765	325.48
712.17	281.01
712.575	283.35
712.98	934.02
713.385	302.08
713.789	304.42
714.194	334.84
714.599	330.16
715.003	313.78
715.408	348.89
715.812	327.82
716.217	295.05
716.621	288.03
717.025	346.55
717.429	273.99
717.833	358.25
718.238	229.52
718.642	323.14
719.046	316.12
719.449	316.12
719.853	358.25
720.257	332.5
720.661	332.5
721.065	327.82
721.468	309.1
721.872	320.8
722.275	290.37
722.679	341.86
723.082	376.97
723.485	264.63
723.889	273.99
724.292	297.39
724.695	337.18
725.098	339.52
725.501	306.76
725.904	283.35
726.307	295.05
726.71	353.57
727.113	344.21
727.516	323.14
727.918	259.95
728.321	355.91
728.724	323.14
729.126	224.84
729.529	346.55
729.931	327.82
730.333	269.31
730.736	332.5
731.138	339.52
731.54	269.31
731.942	273.99
732.344	243.56
732.746	276.33
733.148	316.12
733.55	309.1
733.952	255.26
734.354	245.9
734.756	337.18
735.157	341.86
735.559	367.61
735.96	316.12
736.362	255.26
736.763	330.16
737.165	295.05
737.566	339.52
737.967	248.24
738.368	311.44
738.77	269.31
739.171	229.52
739.572	344.21
739.973	374.63
740.374	292.71
740.774	379.31
741.175	262.29
741.576	234.2
741.977	316.12
742.377	302.08
742.778	304.42
743.178	325.48
743.579	302.08
743.979	285.69
744.379	273.99
744.78	285.69
745.18	323.14
745.58	330.16
745.98	355.91
746.38	273.99
746.78	266.97
747.18	332.5
747.58	334.84
747.98	236.54
748.38	306.76
748.779	379.31
749.179	295.05
749.578	271.65
749.978	358.25
750.377	318.46
750.777	337.18
751.176	327.82
751.575	250.58
751.975	376.97
752.374	264.63
752.773	283.35
753.172	259.95
753.571	313.78
753.97	302.08
754.369	311.44
754.768	306.76
755.166	369.95
755.565	276.33
755.964	288.03
756.362	316.12
756.761	295.05
757.159	299.73
757.558	365.27
757.956	323.14
758.354	295.05
758.753	295.05
759.151	269.31
759.549	339.52
759.947	309.1
760.345	304.42
760.743	346.55
761.141	309.1
761.539	278.67
761.936	278.67
762.334	295.05
762.732	264.63
763.129	297.39
763.527	271.65
763.924	313.78
764.322	304.42
764.719	302.08
