Data from Al_FLMS009871__726__15-12-40-329.txt Node

Date: Fri Mar 08 15:12:40 CST 2024
User: pe5414po
Spectrometer: FLMS00987
Trigger mode: 0
Integration Time (sec): 1.000000E-1
Scans to average: 1
Electric dark correction enabled: true
Nonlinearity correction enabled: false
Boxcar width: 0
XAxis mode: Wavelengths
Number of Pixels in Spectrum: 2048
>>>>>Begin Spectral Data<<<<<
188.938	-125.66
189.409	-125.66
189.879	-125.66
190.349	-123.32
190.819	-97.57
191.29	-146.72
191.76	-83.53
192.23	-85.87
192.7	-92.89
193.17	-25.01
193.64	-20.33
194.109	-13.31
194.579	-46.08
195.049	-22.67
195.519	7.75
195.988	56.9
196.458	92.01
196.927	56.9
197.397	101.37
197.866	94.35
198.336	127.12
198.805	173.93
199.274	136.48
199.744	155.21
200.213	220.74
200.682	237.13
201.151	246.49
201.62	223.08
202.089	213.72
202.558	180.95
203.027	180.95
203.495	265.21
203.964	244.15
204.433	230.1
204.902	227.76
205.37	283.94
205.839	302.66
206.307	244.15
206.776	246.49
207.244	223.08
207.712	260.53
208.181	269.89
208.649	295.64
209.117	237.13
209.585	295.64
210.053	300.32
210.521	234.78
210.989	251.17
211.457	260.53
211.925	255.85
212.393	248.83
212.861	300.32
213.328	276.91
213.796	239.47
214.264	274.57
214.731	269.89
215.199	262.87
215.666	265.21
216.133	269.89
216.601	237.13
217.068	281.6
217.535	305
218.003	232.44
218.47	220.74
218.937	274.57
219.404	276.91
219.871	255.85
220.338	305
220.805	237.13
221.271	274.57
221.738	260.53
222.205	180.95
222.671	274.57
223.138	279.26
223.605	260.53
224.071	216.06
224.538	246.49
225.004	199.68
225.47	248.83
225.937	328.41
226.403	300.32
226.869	227.76
227.335	265.21
227.801	283.94
228.267	267.55
228.733	258.19
229.199	251.17
229.665	265.21
230.131	232.44
230.597	269.89
231.062	260.53
231.528	281.6
231.994	162.23
232.459	300.32
232.925	234.78
233.39	272.23
233.856	342.45
234.321	237.13
234.786	305
235.252	230.1
235.717	239.47
236.182	227.76
236.647	255.85
237.112	288.62
237.577	302.66
238.042	274.57
238.507	223.08
238.972	260.53
239.436	286.28
239.901	260.53
240.366	265.21
240.83	272.23
241.295	286.28
241.76	269.89
242.224	295.64
242.688	213.72
243.153	225.42
243.617	255.85
244.081	220.74
244.545	349.47
245.01	314.36
245.474	300.32
245.938	279.26
246.402	251.17
246.866	251.17
247.33	302.66
247.793	262.87
248.257	281.6
248.721	244.15
249.185	258.19
249.648	232.44
250.112	272.23
250.575	173.93
251.039	305
251.502	283.94
251.965	220.74
252.429	258.19
252.892	321.38
253.355	316.7
253.818	251.17
254.281	255.85
254.744	227.76
255.207	241.81
255.67	333.09
256.133	286.28
256.596	274.57
257.059	297.98
257.522	276.91
257.984	204.36
258.447	251.17
258.909	302.66
259.372	314.36
259.834	251.17
260.297	309.68
260.759	300.32
261.221	312.02
261.684	265.21
262.146	216.06
262.608	272.23
263.07	234.78
263.532	274.57
263.994	255.85
264.456	216.06
264.918	305
265.38	244.15
265.842	288.62
266.303	326.07
266.765	305
267.227	330.75
267.688	244.15
268.15	342.45
268.611	281.6
269.072	344.79
269.534	227.76
269.995	309.68
270.456	358.83
270.918	258.19
271.379	248.83
271.84	265.21
272.301	253.51
272.762	312.02
273.223	237.13
273.684	265.21
274.144	246.49
274.605	309.68
275.066	251.17
275.527	255.85
275.987	251.17
276.448	293.3
276.908	276.91
277.369	267.55
277.829	279.26
278.289	281.6
278.75	312.02
279.21	232.44
279.67	307.34
280.13	253.51
280.59	370.54
281.05	269.89
281.51	211.38
281.97	234.78
282.43	276.91
282.89	297.98
283.35	290.96
283.809	274.57
284.269	281.6
284.729	283.94
285.188	305
285.648	272.23
286.107	204.36
286.567	220.74
287.026	297.98
287.485	312.02
287.944	323.73
288.404	239.47
288.863	279.26
289.322	225.42
289.781	288.62
290.24	302.66
290.699	227.76
291.158	281.6
291.616	314.36
292.075	276.91
292.534	255.85
292.992	227.76
293.451	272.23
293.91	269.89
294.368	232.44
294.827	255.85
295.285	288.62
295.743	337.77
296.202	314.36
296.66	309.68
297.118	232.44
297.576	305
298.034	347.13
298.492	358.83
298.95	295.64
299.408	286.28
299.866	265.21
300.324	342.45
300.781	312.02
301.239	279.26
301.697	269.89
302.154	232.44
302.612	227.76
303.069	204.36
303.527	220.74
303.984	323.73
304.441	314.36
304.899	293.3
305.356	300.32
305.813	288.62
306.27	316.7
306.727	288.62
307.184	241.81
307.641	347.13
308.098	300.32
308.555	258.19
309.012	319.04
309.468	295.64
309.925	253.51
310.382	309.68
310.838	251.17
311.295	333.09
311.751	274.57
312.208	220.74
312.664	295.64
313.12	290.96
313.577	293.3
314.033	251.17
314.489	321.38
314.945	269.89
315.401	258.19
315.857	368.2
316.313	276.91
316.769	335.43
317.225	319.04
317.681	269.89
318.136	288.62
318.592	265.21
319.048	281.6
319.503	314.36
319.959	258.19
320.414	300.32
320.869	265.21
321.325	351.81
321.78	340.11
322.235	255.85
322.691	262.87
323.146	283.94
323.601	232.44
324.056	265.21
324.511	293.3
324.966	286.28
325.421	302.66
325.875	300.32
326.33	293.3
326.785	283.94
327.24	283.94
327.694	265.21
328.149	309.68
328.603	237.13
329.058	241.81
329.512	312.02
329.966	326.07
330.421	272.23
330.875	344.79
331.329	290.96
331.783	265.21
332.237	253.51
332.691	305
333.145	272.23
333.599	286.28
334.053	293.3
334.507	262.87
334.96	321.38
335.414	319.04
335.868	227.76
336.321	260.53
336.775	328.41
337.228	265.21
337.682	328.41
338.135	237.13
338.588	328.41
339.042	276.91
339.495	330.75
339.948	276.91
340.401	288.62
340.854	295.64
341.307	279.26
341.76	302.66
342.213	297.98
342.666	295.64
343.119	330.75
343.571	258.19
344.024	335.43
344.477	253.51
344.929	307.34
345.382	293.3
345.834	283.94
346.287	276.91
346.739	281.6
347.191	281.6
347.644	316.7
348.096	274.57
348.548	265.21
349	286.28
349.452	309.68
349.904	286.28
350.356	293.3
350.808	344.79
351.26	293.3
351.711	379.9
352.163	321.38
352.615	283.94
353.066	234.78
353.518	330.75
353.969	265.21
354.421	321.38
354.872	312.02
355.324	267.55
355.775	218.4
356.226	255.85
356.677	274.57
357.128	265.21
357.579	293.3
358.03	283.94
358.481	302.66
358.932	312.02
359.383	274.57
359.834	260.53
360.285	335.43
360.735	241.81
361.186	297.98
361.637	260.53
362.087	276.91
362.538	328.41
362.988	314.36
363.438	319.04
363.889	262.87
364.339	283.94
364.789	375.22
365.239	288.62
365.689	337.77
366.139	328.41
366.589	316.7
367.039	309.68
367.489	328.41
367.939	319.04
368.389	300.32
368.839	300.32
369.288	300.32
369.738	333.09
370.187	314.36
370.637	314.36
371.086	281.6
371.536	319.04
371.985	321.38
372.434	288.62
372.884	302.66
373.333	342.45
373.782	347.13
374.231	297.98
374.68	337.77
375.129	335.43
375.578	293.3
376.027	300.32
376.475	328.41
376.924	272.23
377.373	309.68
377.822	307.34
378.27	328.41
378.719	281.6
379.167	319.04
379.616	305
380.064	286.28
380.512	295.64
380.961	267.55
381.409	305
381.857	279.26
382.305	316.7
382.753	283.94
383.201	279.26
383.649	307.34
384.097	314.36
384.545	361.17
384.992	297.98
385.44	333.09
385.888	319.04
386.335	269.89
386.783	283.94
387.231	300.32
387.678	288.62
388.125	319.04
388.573	328.41
389.02	288.62
389.467	276.91
389.914	361.17
390.362	267.55
390.809	319.04
391.256	328.41
391.703	312.02
392.15	302.66
392.596	316.7
393.043	290.96
393.49	347.13
393.937	335.43
394.383	293.3
394.83	225.42
395.276	290.96
395.723	314.36
396.169	337.77
396.616	326.07
397.062	281.6
397.508	300.32
397.954	265.21
398.401	309.68
398.847	290.96
399.293	323.73
399.739	267.55
400.185	283.94
400.631	276.91
401.076	239.47
401.522	269.89
401.968	255.85
402.414	297.98
402.859	274.57
403.305	321.38
403.75	290.96
404.196	274.57
404.641	347.13
405.086	382.24
405.532	288.62
405.977	347.13
406.422	269.89
406.867	286.28
407.312	337.77
407.757	370.54
408.202	309.68
408.647	319.04
409.092	279.26
409.537	258.19
409.982	302.66
410.426	365.85
410.871	300.32
411.316	323.73
411.76	316.7
412.205	321.38
412.649	295.64
413.093	356.49
413.538	335.43
413.982	309.68
414.426	283.94
414.87	269.89
415.314	342.45
415.758	319.04
416.202	309.68
416.646	312.02
417.09	281.6
417.534	293.3
417.978	305
418.421	290.96
418.865	274.57
419.309	333.09
419.752	312.02
420.196	363.51
420.639	286.28
421.083	307.34
421.526	326.07
421.969	302.66
422.412	319.04
422.856	344.79
423.299	342.45
423.742	295.64
424.185	293.3
424.628	290.96
425.071	351.81
425.513	312.02
425.956	344.79
426.399	382.24
426.842	290.96
427.284	312.02
427.727	316.7
428.169	253.51
428.612	319.04
429.054	356.49
429.497	283.94
429.939	286.28
430.381	244.15
430.823	276.91
431.265	290.96
431.707	307.34
432.149	297.98
432.591	356.49
433.033	316.7
433.475	323.73
433.917	314.36
434.359	333.09
434.8	319.04
435.242	262.87
435.684	372.88
436.125	255.85
436.567	293.3
437.008	286.28
437.449	309.68
437.891	244.15
438.332	246.49
438.773	307.34
439.214	293.3
439.656	276.91
440.097	244.15
440.538	326.07
440.978	351.81
441.419	297.98
441.86	312.02
442.301	347.13
442.742	347.13
443.182	312.02
443.623	370.54
444.063	349.47
444.504	305
444.944	239.47
445.385	283.94
445.825	227.76
446.265	302.66
446.706	302.66
447.146	293.3
447.586	274.57
448.026	335.43
448.466	316.7
448.906	302.66
449.346	269.89
449.786	269.89
450.225	342.45
450.665	328.41
451.105	279.26
451.544	314.36
451.984	248.83
452.424	307.34
452.863	290.96
453.302	323.73
453.742	312.02
454.181	279.26
454.62	309.68
455.059	206.7
455.499	344.79
455.938	269.89
456.377	319.04
456.816	319.04
457.254	272.23
457.693	314.36
458.132	276.91
458.571	262.87
459.01	328.41
459.448	328.41
459.887	297.98
460.325	269.89
460.764	244.15
461.202	347.13
461.641	351.81
462.079	319.04
462.517	305
462.955	319.04
463.393	314.36
463.832	269.89
464.27	286.28
464.708	349.47
465.145	309.68
465.583	307.34
466.021	347.13
466.459	297.98
466.897	335.43
467.334	211.38
467.772	276.91
468.209	253.51
468.647	295.64
469.084	258.19
469.522	297.98
469.959	316.7
470.396	337.77
470.833	344.79
471.271	255.85
471.708	300.32
472.145	276.91
472.582	267.55
473.019	286.28
473.456	227.76
473.892	333.09
474.329	251.17
474.766	307.34
475.202	302.66
475.639	368.2
476.076	372.88
476.512	328.41
476.949	333.09
477.385	312.02
477.821	251.17
478.258	281.6
478.694	262.87
479.13	316.7
479.566	321.38
480.002	305
480.438	309.68
480.874	314.36
481.31	187.97
481.746	283.94
482.181	297.98
482.617	267.55
483.053	288.62
483.488	337.77
483.924	209.04
484.36	323.73
484.795	269.89
485.23	305
485.666	319.04
486.101	349.47
486.536	307.34
486.971	305
487.407	382.24
487.842	305
488.277	321.38
488.712	290.96
489.146	302.66
489.581	258.19
490.016	279.26
490.451	354.15
490.885	258.19
491.32	283.94
491.755	293.3
492.189	267.55
492.624	211.38
493.058	316.7
493.492	269.89
493.927	312.02
494.361	223.08
494.795	297.98
495.229	379.9
495.663	333.09
496.097	265.21
496.531	295.64
496.965	295.64
497.399	283.94
497.833	288.62
498.266	251.17
498.7	316.7
499.134	232.44
499.567	269.89
500.001	351.81
500.434	300.32
500.868	323.73
501.301	295.64
501.734	290.96
502.168	307.34
502.601	295.64
503.034	246.49
503.467	307.34
503.9	244.15
504.333	309.68
504.766	279.26
505.199	302.66
505.632	314.36
506.064	290.96
506.497	319.04
506.93	300.32
507.362	321.38
507.795	321.38
508.227	323.73
508.66	319.04
509.092	272.23
509.524	265.21
509.956	391.6
510.389	396.28
510.821	319.04
511.253	309.68
511.685	255.85
512.117	365.85
512.549	312.02
512.981	290.96
513.412	286.28
513.844	321.38
514.276	244.15
514.707	302.66
515.139	333.09
515.571	269.89
516.002	302.66
516.433	305
516.865	255.85
517.296	321.38
517.727	305
518.159	265.21
518.59	302.66
519.021	288.62
519.452	307.34
519.883	274.57
520.314	293.3
520.744	297.98
521.175	309.68
521.606	262.87
522.037	237.13
522.467	302.66
522.898	295.64
523.328	281.6
523.759	328.41
524.189	269.89
524.62	297.98
525.05	354.15
525.48	319.04
525.91	347.13
526.341	323.73
526.771	244.15
527.201	309.68
527.631	309.68
528.061	262.87
528.49	302.66
528.92	314.36
529.35	309.68
529.78	361.17
530.209	328.41
530.639	312.02
531.068	312.02
531.498	323.73
531.927	330.75
532.357	267.55
532.786	283.94
533.215	340.11
533.644	283.94
534.074	316.7
534.503	260.53
534.932	316.7
535.361	279.26
535.79	274.57
536.218	272.23
536.647	225.42
537.076	305
537.505	272.23
537.933	283.94
538.362	295.64
538.79	234.78
539.219	288.62
539.647	248.83
540.076	302.66
540.504	326.07
540.932	314.36
541.36	319.04
541.788	288.62
542.217	307.34
542.645	272.23
543.073	316.7
543.5	295.64
543.928	276.91
544.356	276.91
544.784	253.51
545.211	295.64
545.639	279.26
546.067	316.7
546.494	279.26
546.922	206.7
547.349	293.3
547.776	244.15
548.204	290.96
548.631	305
549.058	281.6
549.485	283.94
549.912	290.96
550.339	319.04
550.766	302.66
551.193	309.68
551.62	265.21
552.047	365.85
552.474	253.51
552.9	321.38
553.327	258.19
553.754	349.47
554.18	314.36
554.607	403.3
555.033	330.75
555.459	316.7
555.886	293.3
556.312	279.26
556.738	305
557.164	279.26
557.59	281.6
558.016	307.34
558.442	309.68
558.868	293.3
559.294	276.91
559.72	300.32
560.145	244.15
560.571	216.06
560.997	274.57
561.422	396.28
561.848	281.6
562.273	272.23
562.699	286.28
563.124	330.75
563.549	316.7
563.974	276.91
564.4	244.15
564.825	358.83
565.25	312.02
565.675	305
566.1	265.21
566.525	398.62
566.95	326.07
567.374	302.66
567.799	260.53
568.224	312.02
568.648	321.38
569.073	253.51
569.497	274.57
569.922	333.09
570.346	358.83
570.771	330.75
571.195	281.6
571.619	274.57
572.043	288.62
572.467	265.21
572.891	316.7
573.315	319.04
573.739	274.57
574.163	295.64
574.587	316.7
575.011	267.55
575.435	300.32
575.858	288.62
576.282	302.66
576.705	328.41
577.129	237.13
577.552	333.09
577.976	309.68
578.399	344.79
578.822	347.13
579.245	335.43
579.669	330.75
580.092	272.23
580.515	370.54
580.938	290.96
581.361	276.91
581.784	330.75
582.206	276.91
582.629	260.53
583.052	262.87
583.474	274.57
583.897	279.26
584.32	316.7
584.742	323.73
585.165	300.32
585.587	316.7
586.009	375.22
586.431	314.36
586.854	316.7
587.276	290.96
587.698	230.1
588.12	276.91
588.542	344.79
588.964	333.09
589.386	281.6
589.807	274.57
590.229	274.57
590.651	314.36
591.073	307.34
591.494	323.73
591.916	283.94
592.337	321.38
592.759	297.98
593.18	244.15
593.601	288.62
594.022	326.07
594.444	297.98
594.865	337.77
595.286	314.36
595.707	295.64
596.128	281.6
596.549	290.96
596.97	337.77
597.39	340.11
597.811	307.34
598.232	272.23
598.652	305
599.073	333.09
599.494	241.81
599.914	286.28
600.334	248.83
600.755	288.62
601.175	288.62
601.595	258.19
602.015	349.47
602.436	274.57
602.856	426.71
603.276	356.49
603.696	288.62
604.115	344.79
604.535	302.66
604.955	340.11
605.375	300.32
605.794	333.09
606.214	295.64
606.634	293.3
607.053	297.98
607.473	319.04
607.892	288.62
608.311	283.94
608.731	307.34
609.15	272.23
609.569	319.04
609.988	300.32
610.407	312.02
610.826	328.41
611.245	286.28
611.664	323.73
612.083	309.68
612.501	321.38
612.92	286.28
613.339	312.02
613.757	227.76
614.176	305
614.594	288.62
615.013	297.98
615.431	326.07
615.85	321.38
616.268	293.3
616.686	323.73
617.104	314.36
617.522	258.19
617.94	260.53
618.358	307.34
618.776	330.75
619.194	279.26
619.612	321.38
620.03	356.49
620.447	295.64
620.865	279.26
621.282	300.32
621.7	316.7
622.117	337.77
622.535	237.13
622.952	337.77
623.369	328.41
623.787	286.28
624.204	295.64
624.621	255.85
625.038	220.74
625.455	239.47
625.872	340.11
626.289	297.98
626.706	316.7
627.123	293.3
627.539	293.3
627.956	269.89
628.373	272.23
628.789	295.64
629.206	265.21
629.622	274.57
630.038	333.09
630.455	281.6
630.871	274.57
631.287	307.34
631.703	283.94
632.12	241.81
632.536	309.68
632.952	316.7
633.368	323.73
633.783	283.94
634.199	290.96
634.615	234.78
635.031	300.32
635.446	293.3
635.862	330.75
636.277	328.41
636.693	333.09
637.108	244.15
637.524	293.3
637.939	344.79
638.354	379.9
638.77	302.66
639.185	337.77
639.6	265.21
640.015	309.68
640.43	274.57
640.845	302.66
641.259	314.36
641.674	251.17
642.089	258.19
642.504	283.94
642.918	265.21
643.333	279.26
643.747	351.81
644.162	274.57
644.576	312.02
644.991	293.3
645.405	290.96
645.819	288.62
646.233	237.13
646.647	302.66
647.061	274.57
647.475	314.36
647.889	272.23
648.303	297.98
648.717	326.07
649.131	218.4
649.545	312.02
649.958	272.23
650.372	323.73
650.785	295.64
651.199	297.98
651.612	251.17
652.026	351.81
652.439	283.94
652.852	297.98
653.266	272.23
653.679	305
654.092	288.62
654.505	283.94
654.918	351.81
655.331	300.32
655.744	321.38
656.156	295.64
656.569	297.98
656.982	368.2
657.394	295.64
657.807	274.57
658.22	302.66
658.632	295.64
659.044	316.7
659.457	288.62
659.869	297.98
660.281	260.53
660.693	312.02
661.106	328.41
661.518	305
661.93	290.96
662.342	333.09
662.754	260.53
663.165	300.32
663.577	321.38
663.989	290.96
664.401	241.81
664.812	272.23
665.224	281.6
665.635	335.43
666.047	309.68
666.458	309.68
666.869	342.45
667.281	328.41
667.692	262.87
668.103	202.02
668.514	305
668.925	274.57
669.336	290.96
669.747	342.45
670.158	335.43
670.569	330.75
670.979	190.31
671.39	295.64
671.801	302.66
672.211	281.6
672.622	316.7
673.032	344.79
673.443	326.07
673.853	283.94
674.263	309.68
674.674	356.49
675.084	300.32
675.494	290.96
675.904	321.38
676.314	309.68
676.724	300.32
677.134	262.87
677.544	305
677.953	283.94
678.363	342.45
678.773	356.49
679.182	333.09
679.592	321.38
680.001	260.53
680.411	274.57
680.82	281.6
681.23	227.76
681.639	358.83
682.048	305
682.457	307.34
682.866	286.28
683.275	279.26
683.684	279.26
684.093	237.13
684.502	253.51
684.911	237.13
685.32	290.96
685.728	300.32
686.137	209.04
686.546	267.55
686.954	321.38
687.363	276.91
687.771	276.91
688.179	288.62
688.588	297.98
688.996	260.53
689.404	279.26
689.812	321.38
690.22	248.83
690.628	300.32
691.036	323.73
691.444	267.55
691.852	307.34
692.26	349.47
692.667	309.68
693.075	269.89
693.483	335.43
693.89	305
694.298	312.02
694.705	253.51
695.112	300.32
695.52	295.64
695.927	293.3
696.334	279.26
696.741	319.04
697.148	314.36
697.555	265.21
697.962	377.56
698.369	328.41
698.776	276.91
699.183	312.02
699.59	344.79
699.996	335.43
700.403	272.23
700.81	307.34
701.216	297.98
701.623	286.28
702.029	281.6
702.435	342.45
702.842	295.64
703.248	305
703.654	297.98
704.06	370.54
704.466	297.98
704.872	349.47
705.278	288.62
705.684	314.36
706.09	279.26
706.496	276.91
706.901	377.56
707.307	305
707.712	251.17
708.118	309.68
708.523	251.17
708.929	274.57
709.334	321.38
709.74	319.04
710.145	206.7
710.55	258.19
710.955	260.53
711.36	312.02
711.765	262.87
712.17	248.83
712.575	312.02
712.98	908.86
713.385	312.02
713.789	295.64
714.194	255.85
714.599	293.3
715.003	239.47
715.408	312.02
715.812	251.17
716.217	274.57
716.621	349.47
717.025	312.02
717.429	274.57
717.833	323.73
718.238	265.21
718.642	363.51
719.046	246.49
719.449	335.43
719.853	335.43
720.257	265.21
720.661	314.36
721.065	283.94
721.468	272.23
721.872	272.23
722.275	288.62
722.679	288.62
723.082	312.02
723.485	272.23
723.889	337.77
724.292	309.68
724.695	248.83
725.098	326.07
725.501	403.3
725.904	361.17
726.307	281.6
726.71	344.79
727.113	272.23
727.516	351.81
727.918	260.53
728.321	323.73
728.724	281.6
729.126	319.04
729.529	312.02
729.931	323.73
730.333	265.21
730.736	314.36
731.138	295.64
731.54	288.62
731.942	293.3
732.344	316.7
732.746	307.34
733.148	340.11
733.55	351.81
733.952	344.79
734.354	319.04
734.756	300.32
735.157	269.89
735.559	326.07
735.96	286.28
736.362	314.36
736.763	290.96
737.165	305
737.566	333.09
737.967	288.62
738.368	297.98
738.77	276.91
739.171	237.13
739.572	288.62
739.973	290.96
740.374	286.28
740.774	316.7
741.175	330.75
741.576	309.68
741.977	319.04
742.377	265.21
742.778	300.32
743.178	237.13
743.579	342.45
743.979	225.42
744.379	260.53
744.78	267.55
745.18	302.66
745.58	260.53
745.98	347.13
746.38	375.22
746.78	372.88
747.18	302.66
747.58	337.77
747.98	248.83
748.38	300.32
748.779	295.64
749.179	288.62
749.578	347.13
749.978	274.57
750.377	248.83
750.777	279.26
751.176	262.87
751.575	281.6
751.975	255.85
752.374	307.34
752.773	290.96
753.172	248.83
753.571	309.68
753.97	321.38
754.369	262.87
754.768	314.36
755.166	330.75
755.565	281.6
755.964	199.68
756.362	309.68
756.761	293.3
757.159	274.57
757.558	305
757.956	349.47
758.354	319.04
758.753	307.34
759.151	312.02
759.549	279.26
759.947	358.83
760.345	323.73
760.743	276.91
761.141	288.62
761.539	347.13
761.936	316.7
762.334	288.62
762.732	283.94
763.129	230.1
763.527	323.73
763.924	337.77
764.322	309.68
764.719	279.26
765.117	377.56
765.514	293.3
765.911	253.51
766.308	295.64
766.705	300.32
767.102	340.11
767.499	274.57
