Data from Al_FLMS009871__723__15-12-40-029.txt Node

Date: Fri Mar 08 15:12:40 CST 2024
User: pe5414po
Spectrometer: FLMS00987
Trigger mode: 0
Integration Time (sec): 1.000000E-1
Scans to average: 1
Electric dark correction enabled: true
Nonlinearity correction enabled: false
Boxcar width: 0
XAxis mode: Wavelengths
Number of Pixels in Spectrum: 2048
>>>>>Begin Spectral Data<<<<<
188.938	-92.3
189.409	-92.3
189.879	-92.3
190.349	-136.78
190.819	-66.56
191.29	-92.3
191.76	-120.39
192.23	-104.01
192.7	-36.13
193.17	13.02
193.64	-92.3
194.109	-17.41
194.579	17.7
195.049	-22.09
195.519	34.08
195.988	-50.18
196.458	71.53
196.927	92.6
197.397	55.15
197.866	125.36
198.336	125.36
198.805	87.92
199.274	162.81
199.744	172.18
200.213	249.41
200.682	165.15
201.151	226.01
201.62	207.28
202.089	202.6
202.558	242.39
203.027	317.29
203.495	165.15
203.964	254.09
204.433	251.75
204.902	256.43
205.37	218.99
205.839	293.88
206.307	296.22
206.776	317.29
207.244	305.59
207.712	268.14
208.181	310.27
208.649	284.52
209.117	247.07
209.585	345.38
210.053	261.12
210.521	282.18
210.989	216.65
211.457	333.67
211.925	312.61
212.393	307.93
212.861	254.09
213.328	310.27
213.796	270.48
214.264	216.65
214.731	186.22
215.199	207.28
215.666	240.05
216.133	312.61
216.601	226.01
217.068	256.43
217.535	291.54
218.003	298.56
218.47	216.65
218.937	282.18
219.404	272.82
219.871	244.73
220.338	247.07
220.805	202.6
221.271	216.65
221.738	268.14
222.205	268.14
222.671	272.82
223.138	275.16
223.605	240.05
224.071	223.67
224.538	270.48
225.004	226.01
225.47	235.37
225.937	247.07
226.403	265.8
226.869	242.39
227.335	235.37
227.801	277.5
228.267	300.91
228.733	268.14
229.199	261.12
229.665	310.27
230.131	279.84
230.597	324.31
231.062	275.16
231.528	233.03
231.994	235.37
232.459	214.31
232.925	242.39
233.39	282.18
233.856	279.84
234.321	291.54
234.786	218.99
235.252	293.88
235.717	291.54
236.182	275.16
236.647	305.59
237.112	282.18
237.577	183.88
238.042	254.09
238.507	235.37
238.972	340.69
239.436	296.22
239.901	270.48
240.366	240.05
240.83	314.95
241.295	314.95
241.76	317.29
242.224	256.43
242.688	237.71
243.153	307.93
243.617	289.2
244.081	317.29
244.545	254.09
245.01	230.69
245.474	256.43
245.938	233.03
246.402	270.48
246.866	263.46
247.33	242.39
247.793	319.63
248.257	275.16
248.721	251.75
249.185	207.28
249.648	209.62
250.112	244.73
250.575	282.18
251.039	233.03
251.502	268.14
251.965	240.05
252.429	291.54
252.892	254.09
253.355	289.2
253.818	275.16
254.281	218.99
254.744	310.27
255.207	249.41
255.67	303.25
256.133	244.73
256.596	296.22
257.059	277.5
257.522	279.84
257.984	291.54
258.447	286.86
258.909	345.38
259.372	251.75
259.834	289.2
260.297	272.82
260.759	279.84
261.221	256.43
261.684	247.07
262.146	275.16
262.608	272.82
263.07	265.8
263.532	296.22
263.994	286.86
264.456	221.33
264.918	347.72
265.38	328.99
265.842	298.56
266.303	317.29
266.765	270.48
267.227	226.01
267.688	300.91
268.15	265.8
268.611	251.75
269.072	261.12
269.534	254.09
269.995	258.78
270.456	338.35
270.918	251.75
271.379	247.07
271.84	249.41
272.301	406.23
272.762	286.86
273.223	354.74
273.684	263.46
274.144	237.71
274.605	282.18
275.066	340.69
275.527	247.07
275.987	286.86
276.448	300.91
276.908	282.18
277.369	244.73
277.829	310.27
278.289	303.25
278.75	291.54
279.21	357.08
279.67	286.86
280.13	324.31
280.59	347.72
281.05	291.54
281.51	338.35
281.97	293.88
282.43	247.07
282.89	254.09
283.35	343.03
283.809	249.41
284.269	263.46
284.729	263.46
285.188	230.69
285.648	270.48
286.107	265.8
286.567	314.95
287.026	305.59
287.485	237.71
287.944	298.56
288.404	258.78
288.863	326.65
289.322	289.2
289.781	263.46
290.24	228.35
290.699	317.29
291.158	340.69
291.616	321.97
292.075	343.03
292.534	324.31
292.992	317.29
293.451	300.91
293.91	263.46
294.368	336.01
294.827	256.43
295.285	336.01
295.743	282.18
296.202	314.95
296.66	298.56
297.118	286.86
297.576	289.2
298.034	286.86
298.492	214.31
298.95	321.97
299.408	242.39
299.866	256.43
300.324	247.07
300.781	364.1
301.239	333.67
301.697	270.48
302.154	314.95
302.612	338.35
303.069	340.69
303.527	284.52
303.984	256.43
304.441	307.93
304.899	286.86
305.356	300.91
305.813	300.91
306.27	310.27
306.727	279.84
307.184	321.97
307.641	268.14
308.098	268.14
308.555	324.31
309.012	275.16
309.468	314.95
309.925	228.35
310.382	261.12
310.838	317.29
311.295	310.27
311.751	303.25
312.208	268.14
312.664	331.33
313.12	350.06
313.577	235.37
314.033	361.76
314.489	303.25
314.945	291.54
315.401	296.22
315.857	338.35
316.313	312.61
316.769	300.91
317.225	314.95
317.681	340.69
318.136	361.76
318.592	300.91
319.048	282.18
319.503	307.93
319.959	347.72
320.414	284.52
320.869	258.78
321.325	352.4
321.78	321.97
322.235	286.86
322.691	249.41
323.146	345.38
323.601	340.69
324.056	291.54
324.511	326.65
324.966	279.84
325.421	270.48
325.875	221.33
326.33	314.95
326.785	275.16
327.24	350.06
327.694	354.74
328.149	265.8
328.603	321.97
329.058	258.78
329.512	343.03
329.966	345.38
330.421	333.67
330.875	258.78
331.329	293.88
331.783	336.01
332.237	364.1
332.691	307.93
333.145	293.88
333.599	310.27
334.053	293.88
334.507	307.93
334.96	303.25
335.414	319.63
335.868	305.59
336.321	286.86
336.775	275.16
337.228	244.73
337.682	258.78
338.135	279.84
338.588	251.75
339.042	333.67
339.495	291.54
339.948	228.35
340.401	214.31
340.854	242.39
341.307	275.16
341.76	296.22
342.213	352.4
342.666	293.88
343.119	340.69
343.571	291.54
344.024	359.42
344.477	228.35
344.929	314.95
345.382	202.6
345.834	305.59
346.287	310.27
346.739	305.59
347.191	359.42
347.644	317.29
348.096	265.8
348.548	310.27
349	270.48
349.452	357.08
349.904	321.97
350.356	221.33
350.808	282.18
351.26	326.65
351.711	333.67
352.163	249.41
352.615	251.75
353.066	282.18
353.518	275.16
353.969	345.38
354.421	223.67
354.872	312.61
355.324	244.73
355.775	254.09
356.226	331.33
356.677	307.93
357.128	328.99
357.579	319.63
358.03	310.27
358.481	314.95
358.932	233.03
359.383	314.95
359.834	324.31
360.285	286.86
360.735	336.01
361.186	303.25
361.637	270.48
362.087	303.25
362.538	279.84
362.988	256.43
363.438	328.99
363.889	345.38
364.339	338.35
364.789	307.93
365.239	319.63
365.689	319.63
366.139	317.29
366.589	347.72
367.039	270.48
367.489	324.31
367.939	366.44
368.389	284.52
368.839	310.27
369.288	368.78
369.738	251.75
370.187	277.5
370.637	305.59
371.086	357.08
371.536	296.22
371.985	340.69
372.434	303.25
372.884	350.06
373.333	324.31
373.782	298.56
374.231	305.59
374.68	319.63
375.129	300.91
375.578	298.56
376.027	279.84
376.475	336.01
376.924	263.46
377.373	352.4
377.822	317.29
378.27	368.78
378.719	312.61
379.167	286.86
379.616	321.97
380.064	303.25
380.512	310.27
380.961	310.27
381.409	317.29
381.857	338.35
382.305	296.22
382.753	291.54
383.201	338.35
383.649	303.25
384.097	338.35
384.545	284.52
384.992	291.54
385.44	258.78
385.888	338.35
386.335	347.72
386.783	272.82
387.231	324.31
387.678	307.93
388.125	380.48
388.573	291.54
389.02	296.22
389.467	307.93
389.914	336.01
390.362	340.69
390.809	314.95
391.256	340.69
391.703	307.93
392.15	293.88
392.596	319.63
393.043	289.2
393.49	310.27
393.937	354.74
394.383	333.67
394.83	296.22
395.276	293.88
395.723	305.59
396.169	317.29
396.616	284.52
397.062	312.61
397.508	319.63
397.954	284.52
398.401	340.69
398.847	286.86
399.293	286.86
399.739	310.27
400.185	282.18
400.631	268.14
401.076	321.97
401.522	275.16
401.968	291.54
402.414	296.22
402.859	373.46
403.305	258.78
403.75	310.27
404.196	352.4
404.641	293.88
405.086	265.8
405.532	345.38
405.977	305.59
406.422	317.29
406.867	291.54
407.312	338.35
407.757	326.65
408.202	289.2
408.647	247.07
409.092	319.63
409.537	314.95
409.982	331.33
410.426	279.84
410.871	286.86
411.316	314.95
411.76	247.07
412.205	319.63
412.649	293.88
413.093	331.33
413.538	312.61
413.982	333.67
414.426	310.27
414.87	343.03
415.314	324.31
415.758	291.54
416.202	321.97
416.646	357.08
417.09	284.52
417.534	270.48
417.978	300.91
418.421	333.67
418.865	338.35
419.309	371.12
419.752	307.93
420.196	282.18
420.639	279.84
421.083	291.54
421.526	321.97
421.969	340.69
422.412	347.72
422.856	317.29
423.299	286.86
423.742	282.18
424.185	305.59
424.628	291.54
425.071	242.39
425.513	298.56
425.956	310.27
426.399	312.61
426.842	258.78
427.284	331.33
427.727	233.03
428.169	263.46
428.612	291.54
429.054	256.43
429.497	333.67
429.939	345.38
430.381	258.78
430.823	310.27
431.265	314.95
431.707	350.06
432.149	298.56
432.591	303.25
433.033	291.54
433.475	261.12
433.917	305.59
434.359	312.61
434.8	310.27
435.242	333.67
435.684	354.74
436.125	265.8
436.567	343.03
437.008	314.95
437.449	312.61
437.891	321.97
438.332	277.5
438.773	350.06
439.214	265.8
439.656	263.46
440.097	282.18
440.538	284.52
440.978	268.14
441.419	282.18
441.86	310.27
442.301	291.54
442.742	286.86
443.182	336.01
443.623	282.18
444.063	286.86
444.504	310.27
444.944	354.74
445.385	331.33
445.825	324.31
446.265	364.1
446.706	314.95
447.146	298.56
447.586	328.99
448.026	326.65
448.466	261.12
448.906	326.65
449.346	312.61
449.786	361.76
450.225	298.56
450.665	359.42
451.105	336.01
451.544	314.95
451.984	331.33
452.424	321.97
452.863	328.99
453.302	270.48
453.742	289.2
454.181	291.54
454.62	385.16
455.059	300.91
455.499	331.33
455.938	326.65
456.377	282.18
456.816	305.59
457.254	263.46
457.693	268.14
458.132	336.01
458.571	300.91
459.01	359.42
459.448	296.22
459.887	307.93
460.325	345.38
460.764	268.14
461.202	399.21
461.641	364.1
462.079	331.33
462.517	284.52
462.955	340.69
463.393	293.88
463.832	279.84
464.27	272.82
464.708	319.63
465.145	286.86
465.583	328.99
466.021	326.65
466.459	263.46
466.897	338.35
467.334	284.52
467.772	277.5
468.209	307.93
468.647	338.35
469.084	314.95
469.522	319.63
469.959	303.25
470.396	345.38
470.833	277.5
471.271	279.84
471.708	300.91
472.145	338.35
472.582	340.69
473.019	326.65
473.456	340.69
473.892	352.4
474.329	305.59
474.766	371.12
475.202	307.93
475.639	263.46
476.076	256.43
476.512	298.56
476.949	340.69
477.385	275.16
477.821	310.27
478.258	277.5
478.694	270.48
479.13	375.8
479.566	343.03
480.002	314.95
480.438	275.16
480.874	275.16
481.31	357.08
481.746	293.88
482.181	312.61
482.617	226.01
483.053	277.5
483.488	291.54
483.924	399.21
484.36	310.27
484.795	296.22
485.23	293.88
485.666	282.18
486.101	326.65
486.536	343.03
486.971	354.74
487.407	319.63
487.842	310.27
488.277	247.07
488.712	336.01
489.146	307.93
489.581	277.5
490.016	268.14
490.451	338.35
490.885	303.25
491.32	298.56
491.755	298.56
492.189	354.74
492.624	319.63
493.058	268.14
493.492	378.14
493.927	312.61
494.361	209.62
494.795	366.44
495.229	307.93
495.663	286.86
496.097	282.18
496.531	282.18
496.965	272.82
497.399	340.69
497.833	265.8
498.266	291.54
498.7	328.99
499.134	300.91
499.567	314.95
500.001	291.54
500.434	328.99
500.868	286.86
501.301	282.18
501.734	312.61
502.168	347.72
502.601	305.59
503.034	350.06
503.467	361.76
503.9	366.44
504.333	296.22
504.766	321.97
505.199	291.54
505.632	336.01
506.064	338.35
506.497	284.52
506.93	296.22
507.362	296.22
507.795	336.01
508.227	343.03
508.66	286.86
509.092	331.33
509.524	233.03
509.956	326.65
510.389	317.29
510.821	317.29
511.253	352.4
511.685	284.52
512.117	321.97
512.549	307.93
512.981	284.52
513.412	303.25
513.844	310.27
514.276	226.01
514.707	270.48
515.139	314.95
515.571	296.22
516.002	249.41
516.433	314.95
516.865	284.52
517.296	396.87
517.727	279.84
518.159	298.56
518.59	331.33
519.021	286.86
519.452	305.59
519.883	303.25
520.314	307.93
520.744	268.14
521.175	321.97
521.606	331.33
522.037	296.22
522.467	326.65
522.898	261.12
523.328	347.72
523.759	296.22
524.189	331.33
524.62	312.61
525.05	321.97
525.48	343.03
525.91	326.65
526.341	347.72
526.771	328.99
527.201	277.5
527.631	312.61
528.061	345.38
528.49	333.67
528.92	324.31
529.35	401.55
529.78	333.67
530.209	289.2
530.639	373.46
531.068	293.88
531.498	298.56
531.927	378.14
532.357	228.35
532.786	312.61
533.215	268.14
533.644	303.25
534.074	305.59
534.503	300.91
534.932	300.91
535.361	303.25
535.79	361.76
536.218	331.33
536.647	324.31
537.076	249.41
537.505	272.82
537.933	307.93
538.362	319.63
538.79	317.29
539.219	289.2
539.647	277.5
540.076	298.56
540.504	291.54
540.932	270.48
541.36	331.33
541.788	261.12
542.217	312.61
542.645	319.63
543.073	298.56
543.5	263.46
543.928	321.97
544.356	324.31
544.784	300.91
545.211	359.42
545.639	324.31
546.067	272.82
546.494	317.29
546.922	305.59
547.349	371.12
547.776	303.25
548.204	319.63
548.631	298.56
549.058	378.14
549.485	336.01
549.912	272.82
550.339	277.5
550.766	265.8
551.193	300.91
551.62	368.78
552.047	268.14
552.474	354.74
552.9	361.76
553.327	314.95
553.754	249.41
554.18	336.01
554.607	298.56
555.033	307.93
555.459	289.2
555.886	303.25
556.312	270.48
556.738	284.52
557.164	321.97
557.59	350.06
558.016	286.86
558.442	307.93
558.868	347.72
559.294	347.72
559.72	282.18
560.145	340.69
560.571	270.48
560.997	291.54
561.422	207.28
561.848	263.46
562.273	282.18
562.699	289.2
563.124	305.59
563.549	296.22
563.974	333.67
564.4	277.5
564.825	307.93
565.25	312.61
565.675	336.01
566.1	321.97
566.525	251.75
566.95	303.25
567.374	366.44
567.799	331.33
568.224	296.22
568.648	265.8
569.073	328.99
569.497	314.95
569.922	310.27
570.346	326.65
570.771	296.22
571.195	282.18
571.619	373.46
572.043	300.91
572.467	340.69
572.891	312.61
573.315	277.5
573.739	345.38
574.163	277.5
574.587	328.99
575.011	286.86
575.435	284.52
575.858	350.06
576.282	256.43
576.705	277.5
577.129	396.87
577.552	282.18
577.976	249.41
578.399	352.4
578.822	307.93
579.245	343.03
579.669	282.18
580.092	307.93
580.515	336.01
580.938	317.29
581.361	321.97
581.784	296.22
582.206	321.97
582.629	359.42
583.052	340.69
583.474	282.18
583.897	275.16
584.32	343.03
584.742	272.82
585.165	258.78
585.587	300.91
586.009	291.54
586.431	289.2
586.854	268.14
587.276	364.1
587.698	319.63
588.12	319.63
588.542	326.65
588.964	350.06
589.386	298.56
589.807	240.05
590.229	328.99
590.651	265.8
591.073	333.67
591.494	237.71
591.916	270.48
592.337	263.46
592.759	296.22
593.18	289.2
593.601	300.91
594.022	364.1
594.444	235.37
594.865	265.8
595.286	307.93
595.707	249.41
596.128	350.06
596.549	310.27
596.97	291.54
597.39	350.06
597.811	307.93
598.232	268.14
598.652	328.99
599.073	314.95
599.494	314.95
599.914	368.78
600.334	317.29
600.755	286.86
601.175	350.06
601.595	284.52
602.015	310.27
602.436	364.1
602.856	410.91
603.276	258.78
603.696	319.63
604.115	314.95
604.535	345.38
604.955	275.16
605.375	270.48
605.794	282.18
606.214	321.97
606.634	270.48
607.053	291.54
607.473	303.25
607.892	333.67
608.311	380.48
608.731	317.29
609.15	286.86
609.569	324.31
609.988	289.2
610.407	251.75
610.826	312.61
611.245	387.5
611.664	293.88
612.083	331.33
612.501	312.61
612.92	254.09
613.339	305.59
613.757	305.59
614.176	314.95
614.594	324.31
615.013	310.27
615.431	279.84
615.85	317.29
616.268	298.56
616.686	289.2
617.104	268.14
617.522	303.25
617.94	303.25
618.358	382.82
618.776	336.01
619.194	251.75
619.612	249.41
620.03	226.01
620.447	209.62
620.865	293.88
621.282	270.48
621.7	336.01
622.117	305.59
622.535	338.35
622.952	254.09
623.369	275.16
623.787	289.2
624.204	275.16
624.621	258.78
625.038	305.59
625.455	282.18
625.872	307.93
626.289	343.03
626.706	331.33
627.123	312.61
627.539	380.48
627.956	321.97
628.373	312.61
628.789	314.95
629.206	300.91
629.622	284.52
630.038	328.99
630.455	282.18
630.871	284.52
631.287	272.82
631.703	244.73
632.12	300.91
632.536	366.44
632.952	291.54
633.368	324.31
633.783	385.16
634.199	314.95
634.615	277.5
635.031	286.86
635.446	317.29
635.862	324.31
636.277	265.8
636.693	317.29
637.108	251.75
637.524	298.56
637.939	289.2
638.354	305.59
638.77	317.29
639.185	303.25
639.6	270.48
640.015	307.93
640.43	242.39
640.845	270.48
641.259	352.4
641.674	289.2
642.089	317.29
642.504	284.52
642.918	298.56
643.333	284.52
643.747	354.74
644.162	293.88
644.576	296.22
644.991	336.01
645.405	310.27
645.819	279.84
646.233	258.78
646.647	293.88
647.061	336.01
647.475	305.59
647.889	289.2
648.303	284.52
648.717	305.59
649.131	336.01
649.545	312.61
649.958	317.29
650.372	296.22
650.785	307.93
651.199	317.29
651.612	319.63
652.026	289.2
652.439	350.06
652.852	340.69
653.266	293.88
653.679	328.99
654.092	317.29
654.505	296.22
654.918	286.86
655.331	371.12
655.744	361.76
656.156	345.38
656.569	326.65
656.982	331.33
657.394	256.43
657.807	317.29
658.22	251.75
658.632	270.48
659.044	296.22
659.457	343.03
659.869	265.8
660.281	289.2
660.693	331.33
661.106	298.56
661.518	331.33
661.93	296.22
662.342	275.16
662.754	268.14
663.165	303.25
663.577	338.35
663.989	247.07
664.401	305.59
664.812	336.01
665.224	277.5
665.635	268.14
666.047	300.91
666.458	303.25
666.869	289.2
667.281	350.06
667.692	303.25
668.103	249.41
668.514	380.48
668.925	312.61
669.336	277.5
669.747	263.46
670.158	293.88
670.569	293.88
670.979	357.08
671.39	303.25
671.801	291.54
672.211	291.54
672.622	333.67
673.032	357.08
673.443	319.63
673.853	291.54
674.263	300.91
674.674	326.65
675.084	328.99
675.494	328.99
675.904	352.4
676.314	305.59
676.724	270.48
677.134	286.86
677.544	235.37
677.953	326.65
678.363	289.2
678.773	293.88
679.182	317.29
679.592	357.08
680.001	354.74
680.411	345.38
680.82	305.59
681.23	307.93
681.639	319.63
682.048	289.2
682.457	326.65
682.866	293.88
683.275	298.56
683.684	319.63
684.093	326.65
684.502	195.58
684.911	296.22
685.32	359.42
685.728	291.54
686.137	326.65
686.546	312.61
686.954	251.75
687.363	314.95
687.771	277.5
688.179	279.84
688.588	300.91
688.996	284.52
689.404	270.48
689.812	321.97
690.22	242.39
690.628	272.82
691.036	277.5
691.444	345.38
691.852	296.22
692.26	326.65
692.667	291.54
693.075	303.25
693.483	270.48
693.89	368.78
694.298	284.52
694.705	291.54
695.112	221.33
695.52	307.93
695.927	263.46
696.334	277.5
696.741	272.82
697.148	317.29
697.555	237.71
697.962	328.99
698.369	307.93
698.776	258.78
699.183	331.33
699.59	254.09
699.996	282.18
700.403	317.29
700.81	303.25
701.216	333.67
701.623	282.18
702.029	272.82
702.435	289.2
702.842	314.95
703.248	345.38
703.654	272.82
704.06	328.99
704.466	331.33
704.872	382.82
705.278	289.2
705.684	282.18
706.09	319.63
706.496	357.08
706.901	336.01
707.307	261.12
707.712	300.91
708.118	240.05
708.523	272.82
708.929	321.97
709.334	321.97
709.74	296.22
710.145	275.16
710.55	254.09
710.955	305.59
711.36	296.22
711.765	284.52
712.17	347.72
712.575	282.18
712.98	902.42
713.385	321.97
713.789	272.82
714.194	254.09
714.599	296.22
715.003	263.46
715.408	347.72
715.812	282.18
716.217	357.08
716.621	279.84
717.025	277.5
717.429	310.27
717.833	240.05
718.238	319.63
718.642	275.16
719.046	373.46
719.449	324.31
719.853	307.93
720.257	338.35
720.661	314.95
721.065	331.33
721.468	387.5
721.872	233.03
722.275	314.95
722.679	326.65
723.082	333.67
723.485	291.54
723.889	326.65
724.292	373.46
724.695	275.16
725.098	336.01
725.501	282.18
725.904	284.52
726.307	270.48
726.71	286.86
727.113	284.52
727.516	268.14
727.918	333.67
728.321	312.61
728.724	275.16
729.126	310.27
729.529	289.2
729.931	359.42
730.333	277.5
730.736	371.12
731.138	291.54
731.54	396.87
731.942	277.5
732.344	340.69
732.746	298.56
733.148	249.41
733.55	296.22
733.952	261.12
734.354	328.99
734.756	307.93
735.157	345.38
735.559	284.52
735.96	317.29
736.362	361.76
736.763	336.01
737.165	317.29
737.566	338.35
737.967	331.33
738.368	284.52
738.77	279.84
739.171	284.52
739.572	296.22
739.973	286.86
740.374	291.54
740.774	307.93
741.175	305.59
741.576	321.97
741.977	298.56
742.377	338.35
742.778	279.84
743.178	303.25
743.579	417.93
743.979	270.48
744.379	296.22
744.78	336.01
745.18	296.22
745.58	256.43
745.98	307.93
746.38	378.14
746.78	275.16
747.18	312.61
747.58	300.91
747.98	279.84
748.38	300.91
748.779	296.22
749.179	314.95
749.578	286.86
749.978	289.2
750.377	286.86
750.777	289.2
751.176	321.97
751.575	275.16
751.975	321.97
752.374	256.43
752.773	251.75
753.172	319.63
753.571	277.5
753.97	314.95
754.369	319.63
754.768	354.74
755.166	300.91
755.565	354.74
755.964	293.88
756.362	286.86
756.761	200.26
757.159	352.4
757.558	340.69
757.956	324.31
758.354	275.16
758.753	314.95
759.151	326.65
759.549	333.67
759.947	350.06
760.345	328.99
760.743	312.61
761.141	345.38
761.539	321.97
761.936	277.5
762.334	319.63
762.732	314.95
763.129	242.39
763.527	277.5
763.924	256.43
764.322	263.46
