Data from Al_FLMS009871__724__15-12-40-129.txt Node

Date: Fri Mar 08 15:12:40 CST 2024
User: pe5414po
Spectrometer: FLMS00987
Trigger mode: 0
Integration Time (sec): 1.000000E-1
Scans to average: 1
Electric dark correction enabled: true
Nonlinearity correction enabled: false
Boxcar width: 0
XAxis mode: Wavelengths
Number of Pixels in Spectrum: 2048
>>>>>Begin Spectral Data<<<<<
188.938	-77.97
189.409	-77.97
189.879	-77.97
190.349	-141.16
190.819	-82.65
191.29	-92.01
191.76	-59.24
192.23	-176.27
192.7	-117.76
193.17	-117.76
193.64	-52.22
194.109	-49.88
194.579	36.72
195.049	-12.43
195.519	39.06
195.988	29.7
196.458	43.74
196.927	102.25
197.397	132.68
197.866	163.11
198.336	130.34
198.805	151.4
199.274	219.28
199.744	158.43
200.213	165.45
200.682	205.24
201.151	167.79
201.62	226.3
202.089	242.68
202.558	193.53
203.027	261.41
203.495	256.73
203.964	252.05
204.433	228.64
204.902	254.39
205.37	256.73
205.839	273.11
206.307	294.18
206.776	249.71
207.244	303.54
207.712	221.62
208.181	275.45
208.649	324.6
209.117	287.15
209.585	259.07
210.053	305.88
210.521	338.65
210.989	235.66
211.457	249.71
211.925	254.39
212.393	277.79
212.861	242.68
213.328	312.9
213.796	216.94
214.264	317.58
214.731	301.2
215.199	336.31
215.666	207.58
216.133	242.68
216.601	261.41
217.068	294.18
217.535	223.96
218.003	275.45
218.47	266.09
218.937	181.83
219.404	259.07
219.871	247.37
220.338	221.62
220.805	282.47
221.271	170.13
221.738	287.15
222.205	221.62
222.671	254.39
223.138	233.32
223.605	252.05
224.071	282.47
224.538	230.98
225.004	205.24
225.47	228.64
225.937	209.92
226.403	209.92
226.869	249.71
227.335	270.77
227.801	277.79
228.267	301.2
228.733	277.79
229.199	226.3
229.665	275.45
230.131	287.15
230.597	266.09
231.062	282.47
231.528	289.5
231.994	249.71
232.459	282.47
232.925	277.79
233.39	270.77
233.856	270.77
234.321	202.9
234.786	308.22
235.252	230.98
235.717	242.68
236.182	275.45
236.647	282.47
237.112	350.35
237.577	301.2
238.042	209.92
238.507	282.47
238.972	270.77
239.436	226.3
239.901	233.32
240.366	202.9
240.83	317.58
241.295	261.41
241.76	308.22
242.224	256.73
242.688	240.34
243.153	280.13
243.617	195.87
244.081	209.92
244.545	259.07
245.01	296.52
245.474	252.05
245.938	345.67
246.402	216.94
246.866	245.02
247.33	273.11
247.793	242.68
248.257	233.32
248.721	270.77
249.185	238
249.648	308.22
250.112	228.64
250.575	242.68
251.039	266.09
251.502	268.43
251.965	345.67
252.429	263.75
252.892	317.58
253.355	230.98
253.818	226.3
254.281	266.09
254.744	317.58
255.207	233.32
255.67	245.02
256.133	280.13
256.596	329.28
257.059	312.9
257.522	275.45
257.984	200.55
258.447	247.37
258.909	322.26
259.372	245.02
259.834	287.15
260.297	263.75
260.759	254.39
261.221	188.85
261.684	284.81
262.146	230.98
262.608	336.31
263.07	242.68
263.532	270.77
263.994	249.71
264.456	263.75
264.918	280.13
265.38	322.26
265.842	317.58
266.303	287.15
266.765	275.45
267.227	289.5
267.688	301.2
268.15	317.58
268.611	230.98
269.072	287.15
269.534	242.68
269.995	275.45
270.456	298.86
270.918	277.79
271.379	245.02
271.84	298.86
272.301	263.75
272.762	284.81
273.223	291.84
273.684	261.41
274.144	270.77
274.605	247.37
275.066	305.88
275.527	340.99
275.987	266.09
276.448	298.86
276.908	296.52
277.369	296.52
277.829	301.2
278.289	329.28
278.75	355.03
279.21	310.56
279.67	315.24
280.13	275.45
280.59	233.32
281.05	252.05
281.51	261.41
281.97	305.88
282.43	291.84
282.89	242.68
283.35	340.99
283.809	303.54
284.269	282.47
284.729	261.41
285.188	317.58
285.648	338.65
286.107	277.79
286.567	298.86
287.026	322.26
287.485	303.54
287.944	303.54
288.404	310.56
288.863	280.13
289.322	296.52
289.781	282.47
290.24	310.56
290.699	312.9
291.158	270.77
291.616	329.28
292.075	308.22
292.534	312.9
292.992	352.69
293.451	312.9
293.91	261.41
294.368	294.18
294.827	254.39
295.285	291.84
295.743	277.79
296.202	289.5
296.66	287.15
297.118	223.96
297.576	322.26
298.034	235.66
298.492	261.41
298.95	273.11
299.408	294.18
299.866	249.71
300.324	312.9
300.781	322.26
301.239	256.73
301.697	277.79
302.154	319.92
302.612	301.2
303.069	291.84
303.527	310.56
303.984	291.84
304.441	303.54
304.899	280.13
305.356	228.64
305.813	331.62
306.27	256.73
306.727	263.75
307.184	252.05
307.641	207.58
308.098	310.56
308.555	221.62
309.012	298.86
309.468	252.05
309.925	392.48
310.382	308.22
310.838	305.88
311.295	340.99
311.751	322.26
312.208	308.22
312.664	308.22
313.12	310.56
313.577	343.33
314.033	315.24
314.489	233.32
314.945	256.73
315.401	308.22
315.857	315.24
316.313	310.56
316.769	355.03
317.225	282.47
317.681	364.39
318.136	305.88
318.592	280.13
319.048	275.45
319.503	322.26
319.959	345.67
320.414	296.52
320.869	326.94
321.325	263.75
321.78	301.2
322.235	270.77
322.691	338.65
323.146	280.13
323.601	383.12
324.056	308.22
324.511	284.81
324.966	256.73
325.421	345.67
325.875	280.13
326.33	336.31
326.785	249.71
327.24	310.56
327.694	275.45
328.149	270.77
328.603	312.9
329.058	291.84
329.512	303.54
329.966	343.33
330.421	294.18
330.875	235.66
331.329	340.99
331.783	310.56
332.237	305.88
332.691	352.69
333.145	294.18
333.599	305.88
334.053	256.73
334.507	273.11
334.96	245.02
335.414	287.15
335.868	291.84
336.321	254.39
336.775	345.67
337.228	294.18
337.682	329.28
338.135	289.5
338.588	317.58
339.042	270.77
339.495	263.75
339.948	275.45
340.401	223.96
340.854	336.31
341.307	312.9
341.76	298.86
342.213	301.2
342.666	284.81
343.119	336.31
343.571	362.05
344.024	350.35
344.477	280.13
344.929	319.92
345.382	303.54
345.834	315.24
346.287	296.52
346.739	336.31
347.191	308.22
347.644	315.24
348.096	296.52
348.548	357.37
349	294.18
349.452	331.62
349.904	329.28
350.356	333.97
350.808	312.9
351.26	305.88
351.711	287.15
352.163	284.81
352.615	380.78
353.066	324.6
353.518	301.2
353.969	343.33
354.421	296.52
354.872	291.84
355.324	268.43
355.775	308.22
356.226	301.2
356.677	329.28
357.128	355.03
357.579	343.33
358.03	223.96
358.481	303.54
358.932	331.62
359.383	275.45
359.834	305.88
360.285	350.35
360.735	324.6
361.186	273.11
361.637	277.79
362.087	277.79
362.538	240.34
362.988	296.52
363.438	233.32
363.889	305.88
364.339	362.05
364.789	324.6
365.239	315.24
365.689	308.22
366.139	352.69
366.589	282.47
367.039	305.88
367.489	273.11
367.939	303.54
368.389	338.65
368.839	312.9
369.288	385.46
369.738	369.07
370.187	305.88
370.637	331.62
371.086	291.84
371.536	275.45
371.985	287.15
372.434	235.66
372.884	371.41
373.333	336.31
373.782	268.43
374.231	305.88
374.68	289.5
375.129	287.15
375.578	289.5
376.027	296.52
376.475	338.65
376.924	326.94
377.373	291.84
377.822	336.31
378.27	291.84
378.719	308.22
379.167	261.41
379.616	280.13
380.064	312.9
380.512	308.22
380.961	317.58
381.409	284.81
381.857	322.26
382.305	277.79
382.753	312.9
383.201	355.03
383.649	338.65
384.097	315.24
384.545	240.34
384.992	315.24
385.44	317.58
385.888	308.22
386.335	394.82
386.783	315.24
387.231	301.2
387.678	331.62
388.125	266.09
388.573	331.62
389.02	305.88
389.467	359.71
389.914	301.2
390.362	343.33
390.809	259.07
391.256	324.6
391.703	338.65
392.15	326.94
392.596	315.24
393.043	301.2
393.49	291.84
393.937	275.45
394.383	261.41
394.83	319.92
395.276	298.86
395.723	317.58
396.169	310.56
396.616	280.13
397.062	331.62
397.508	289.5
397.954	284.81
398.401	308.22
398.847	284.81
399.293	380.78
399.739	298.86
400.185	343.33
400.631	303.54
401.076	263.75
401.522	310.56
401.968	289.5
402.414	296.52
402.859	305.88
403.305	294.18
403.75	340.99
404.196	322.26
404.641	324.6
405.086	310.56
405.532	324.6
405.977	296.52
406.422	277.79
406.867	301.2
407.312	303.54
407.757	310.56
408.202	329.28
408.647	273.11
409.092	284.81
409.537	315.24
409.982	303.54
410.426	322.26
410.871	350.35
411.316	301.2
411.76	338.65
412.205	291.84
412.649	301.2
413.093	329.28
413.538	209.92
413.982	284.81
414.426	322.26
414.87	364.39
415.314	312.9
415.758	352.69
416.202	329.28
416.646	357.37
417.09	312.9
417.534	301.2
417.978	333.97
418.421	242.68
418.865	242.68
419.309	301.2
419.752	392.48
420.196	315.24
420.639	303.54
421.083	326.94
421.526	261.41
421.969	233.32
422.412	296.52
422.856	315.24
423.299	355.03
423.742	298.86
424.185	317.58
424.628	376.09
425.071	352.69
425.513	312.9
425.956	322.26
426.399	336.31
426.842	331.62
427.284	305.88
427.727	282.47
428.169	282.47
428.612	303.54
429.054	310.56
429.497	352.69
429.939	336.31
430.381	280.13
430.823	287.15
431.265	289.5
431.707	348.01
432.149	252.05
432.591	270.77
433.033	324.6
433.475	214.6
433.917	280.13
434.359	331.62
434.8	261.41
435.242	366.73
435.684	289.5
436.125	345.67
436.567	249.71
437.008	331.62
437.449	331.62
437.891	317.58
438.332	331.62
438.773	305.88
439.214	291.84
439.656	263.75
440.097	228.64
440.538	296.52
440.978	315.24
441.419	312.9
441.86	326.94
442.301	249.71
442.742	282.47
443.182	315.24
443.623	352.69
444.063	322.26
444.504	305.88
444.944	387.8
445.385	329.28
445.825	259.07
446.265	254.39
446.706	329.28
447.146	357.37
447.586	261.41
448.026	315.24
448.466	322.26
448.906	322.26
449.346	298.86
449.786	322.26
450.225	310.56
450.665	282.47
451.105	305.88
451.544	280.13
451.984	305.88
452.424	289.5
452.863	261.41
453.302	352.69
453.742	317.58
454.181	343.33
454.62	340.99
455.059	336.31
455.499	343.33
455.938	326.94
456.377	268.43
456.816	282.47
457.254	369.07
457.693	329.28
458.132	326.94
458.571	291.84
459.01	289.5
459.448	343.33
459.887	289.5
460.325	266.09
460.764	256.73
461.202	303.54
461.641	301.2
462.079	280.13
462.517	333.97
462.955	371.41
463.393	287.15
463.832	298.86
464.27	312.9
464.708	277.79
465.145	333.97
465.583	254.39
466.021	289.5
466.459	357.37
466.897	319.92
467.334	235.66
467.772	340.99
468.209	355.03
468.647	331.62
469.084	373.75
469.522	331.62
469.959	273.11
470.396	303.54
470.833	273.11
471.271	289.5
471.708	329.28
472.145	359.71
472.582	329.28
473.019	317.58
473.456	261.41
473.892	303.54
474.329	315.24
474.766	326.94
475.202	336.31
475.639	308.22
476.076	310.56
476.512	371.41
476.949	303.54
477.385	280.13
477.821	303.54
478.258	289.5
478.694	394.82
479.13	348.01
479.566	336.31
480.002	319.92
480.438	280.13
480.874	331.62
481.31	336.31
481.746	308.22
482.181	331.62
482.617	378.44
483.053	376.09
483.488	270.77
483.924	280.13
484.36	343.33
484.795	319.92
485.23	345.67
485.666	238
486.101	336.31
486.536	301.2
486.971	294.18
487.407	303.54
487.842	319.92
488.277	340.99
488.712	355.03
489.146	212.26
489.581	277.79
490.016	294.18
490.451	291.84
490.885	303.54
491.32	343.33
491.755	343.33
492.189	291.84
492.624	303.54
493.058	357.37
493.492	348.01
493.927	319.92
494.361	331.62
494.795	315.24
495.229	331.62
495.663	340.99
496.097	378.44
496.531	343.33
496.965	301.2
497.399	240.34
497.833	268.43
498.266	263.75
498.7	301.2
499.134	322.26
499.567	338.65
500.001	301.2
500.434	266.09
500.868	340.99
501.301	357.37
501.734	345.67
502.168	340.99
502.601	338.65
503.034	296.52
503.467	345.67
503.9	326.94
504.333	310.56
504.766	345.67
505.199	324.6
505.632	415.88
506.064	303.54
506.497	289.5
506.93	238
507.362	296.52
507.795	315.24
508.227	376.09
508.66	331.62
509.092	249.71
509.524	305.88
509.956	296.52
510.389	355.03
510.821	296.52
511.253	404.18
511.685	296.52
512.117	343.33
512.549	355.03
512.981	310.56
513.412	284.81
513.844	291.84
514.276	296.52
514.707	326.94
515.139	336.31
515.571	348.01
516.002	345.67
516.433	296.52
516.865	294.18
517.296	289.5
517.727	355.03
518.159	294.18
518.59	333.97
519.021	329.28
519.452	322.26
519.883	270.77
520.314	343.33
520.744	245.02
521.175	355.03
521.606	343.33
522.037	312.9
522.467	254.39
522.898	294.18
523.328	322.26
523.759	282.47
524.189	254.39
524.62	322.26
525.05	291.84
525.48	324.6
525.91	308.22
526.341	242.68
526.771	259.07
527.201	280.13
527.631	277.79
528.061	308.22
528.49	294.18
528.92	221.62
529.35	289.5
529.78	273.11
530.209	308.22
530.639	305.88
531.068	268.43
531.498	298.86
531.927	312.9
532.357	266.09
532.786	315.24
533.215	296.52
533.644	345.67
534.074	324.6
534.503	296.52
534.932	310.56
535.361	291.84
535.79	331.62
536.218	259.07
536.647	315.24
537.076	308.22
537.505	336.31
537.933	357.37
538.362	259.07
538.79	240.34
539.219	364.39
539.647	317.58
540.076	280.13
540.504	338.65
540.932	315.24
541.36	378.44
541.788	284.81
542.217	261.41
542.645	294.18
543.073	245.02
543.5	333.97
543.928	305.88
544.356	359.71
544.784	357.37
545.211	340.99
545.639	291.84
546.067	319.92
546.494	319.92
546.922	317.58
547.349	310.56
547.776	326.94
548.204	298.86
548.631	340.99
549.058	345.67
549.485	373.75
549.912	359.71
550.339	317.58
550.766	319.92
551.193	252.05
551.62	289.5
552.047	305.88
552.474	308.22
552.9	261.41
553.327	312.9
553.754	336.31
554.18	348.01
554.607	284.81
555.033	308.22
555.459	343.33
555.886	336.31
556.312	256.73
556.738	277.79
557.164	284.81
557.59	277.79
558.016	270.77
558.442	315.24
558.868	333.97
559.294	333.97
559.72	296.52
560.145	303.54
560.571	366.73
560.997	324.6
561.422	366.73
561.848	352.69
562.273	333.97
562.699	322.26
563.124	249.71
563.549	322.26
563.974	277.79
564.4	296.52
564.825	310.56
565.25	338.65
565.675	291.84
566.1	315.24
566.525	263.75
566.95	322.26
567.374	336.31
567.799	284.81
568.224	362.05
568.648	326.94
569.073	305.88
569.497	294.18
569.922	273.11
570.346	352.69
570.771	261.41
571.195	329.28
571.619	305.88
572.043	280.13
572.467	315.24
572.891	322.26
573.315	294.18
573.739	315.24
574.163	298.86
574.587	338.65
575.011	329.28
575.435	310.56
575.858	324.6
576.282	355.03
576.705	270.77
577.129	270.77
577.552	303.54
577.976	296.52
578.399	312.9
578.822	275.45
579.245	294.18
579.669	315.24
580.092	291.84
580.515	315.24
580.938	315.24
581.361	343.33
581.784	282.47
582.206	294.18
582.629	263.75
583.052	333.97
583.474	366.73
583.897	345.67
584.32	329.28
584.742	275.45
585.165	366.73
585.587	312.9
586.009	284.81
586.431	317.58
586.854	319.92
587.276	326.94
587.698	338.65
588.12	324.6
588.542	350.35
588.964	275.45
589.386	298.86
589.807	275.45
590.229	305.88
590.651	291.84
591.073	291.84
591.494	331.62
591.916	301.2
592.337	310.56
592.759	326.94
593.18	303.54
593.601	301.2
594.022	336.31
594.444	322.26
594.865	242.68
595.286	352.69
595.707	275.45
596.128	364.39
596.549	301.2
596.97	322.26
597.39	301.2
597.811	254.39
598.232	308.22
598.652	280.13
599.073	362.05
599.494	312.9
599.914	322.26
600.334	317.58
600.755	350.35
601.175	343.33
601.595	380.78
602.015	291.84
602.436	308.22
602.856	408.86
603.276	324.6
603.696	315.24
604.115	359.71
604.535	289.5
604.955	315.24
605.375	305.88
605.794	207.58
606.214	287.15
606.634	303.54
607.053	371.41
607.473	301.2
607.892	266.09
608.311	282.47
608.731	282.47
609.15	263.75
609.569	336.31
609.988	362.05
610.407	294.18
610.826	308.22
611.245	326.94
611.664	308.22
612.083	277.79
612.501	282.47
612.92	317.58
613.339	275.45
613.757	317.58
614.176	315.24
614.594	303.54
615.013	294.18
615.431	315.24
615.85	369.07
616.268	263.75
616.686	319.92
617.104	259.07
617.522	310.56
617.94	324.6
618.358	336.31
618.776	322.26
619.194	348.01
619.612	298.86
620.03	277.79
620.447	280.13
620.865	301.2
621.282	280.13
621.7	331.62
622.117	333.97
622.535	350.35
622.952	322.26
623.369	233.32
623.787	287.15
624.204	263.75
624.621	277.79
625.038	371.41
625.455	326.94
625.872	301.2
626.289	294.18
626.706	287.15
627.123	310.56
627.539	280.13
627.956	289.5
628.373	291.84
628.789	362.05
629.206	303.54
629.622	294.18
630.038	340.99
630.455	289.5
630.871	329.28
631.287	282.47
631.703	291.84
632.12	333.97
632.536	298.86
632.952	294.18
633.368	233.32
633.783	298.86
634.199	305.88
634.615	331.62
635.031	291.84
635.446	312.9
635.862	317.58
636.277	287.15
636.693	310.56
637.108	364.39
637.524	408.86
637.939	298.86
638.354	319.92
638.77	270.77
639.185	294.18
639.6	394.82
640.015	345.67
640.43	317.58
640.845	247.37
641.259	273.11
641.674	284.81
642.089	280.13
642.504	317.58
642.918	259.07
643.333	247.37
643.747	301.2
644.162	331.62
644.576	275.45
644.991	338.65
645.405	263.75
645.819	289.5
646.233	259.07
646.647	296.52
647.061	294.18
647.475	303.54
647.889	326.94
648.303	263.75
648.717	259.07
649.131	315.24
649.545	357.37
649.958	345.67
650.372	340.99
650.785	245.02
651.199	291.84
651.612	275.45
652.026	294.18
652.439	310.56
652.852	275.45
653.266	294.18
653.679	305.88
654.092	296.52
654.505	308.22
654.918	310.56
655.331	357.37
655.744	263.75
656.156	301.2
656.569	275.45
656.982	336.31
657.394	214.6
657.807	322.26
658.22	336.31
658.632	333.97
659.044	336.31
659.457	294.18
659.869	315.24
660.281	284.81
660.693	315.24
661.106	308.22
661.518	287.15
661.93	352.69
662.342	343.33
662.754	357.37
663.165	266.09
663.577	282.47
663.989	348.01
664.401	245.02
664.812	294.18
665.224	315.24
665.635	280.13
666.047	369.07
666.458	266.09
666.869	315.24
667.281	333.97
667.692	345.67
668.103	310.56
668.514	329.28
668.925	305.88
669.336	282.47
669.747	303.54
670.158	298.86
670.569	303.54
670.979	249.71
671.39	261.41
671.801	301.2
672.211	238
672.622	263.75
673.032	296.52
673.443	336.31
673.853	289.5
674.263	357.37
674.674	312.9
675.084	333.97
675.494	369.07
675.904	336.31
676.314	378.44
676.724	245.02
677.134	310.56
677.544	291.84
677.953	298.86
678.363	315.24
678.773	373.75
679.182	317.58
679.592	270.77
680.001	275.45
680.411	268.43
680.82	345.67
681.23	294.18
681.639	228.64
682.048	254.39
682.457	263.75
682.866	303.54
683.275	301.2
683.684	319.92
684.093	308.22
684.502	280.13
684.911	263.75
685.32	275.45
685.728	326.94
686.137	331.62
686.546	317.58
686.954	312.9
687.363	282.47
687.771	294.18
688.179	259.07
688.588	308.22
688.996	338.65
689.404	289.5
689.812	315.24
690.22	268.43
690.628	284.81
691.036	294.18
691.444	336.31
691.852	352.69
692.26	362.05
692.667	315.24
693.075	338.65
693.483	294.18
693.89	287.15
694.298	357.37
694.705	352.69
695.112	289.5
695.52	273.11
695.927	273.11
696.334	317.58
696.741	291.84
697.148	303.54
697.555	331.62
697.962	308.22
698.369	270.77
698.776	280.13
699.183	329.28
699.59	301.2
699.996	312.9
700.403	317.58
700.81	238
701.216	312.9
701.623	298.86
702.029	291.84
702.435	256.73
702.842	259.07
703.248	352.69
703.654	350.35
704.06	317.58
704.466	315.24
704.872	366.73
705.278	333.97
705.684	277.79
706.09	355.03
706.496	301.2
706.901	275.45
707.307	319.92
707.712	319.92
708.118	228.64
708.523	256.73
708.929	273.11
709.334	359.71
709.74	308.22
710.145	259.07
710.55	315.24
710.955	317.58
711.36	305.88
711.765	261.41
712.17	310.56
712.575	296.52
712.98	860.59
713.385	333.97
713.789	355.03
714.194	270.77
714.599	371.41
715.003	256.73
715.408	273.11
715.812	247.37
716.217	284.81
716.621	333.97
717.025	305.88
717.429	289.5
717.833	305.88
718.238	305.88
718.642	357.37
719.046	245.02
719.449	340.99
719.853	287.15
720.257	296.52
720.661	298.86
721.065	397.16
721.468	315.24
721.872	305.88
722.275	301.2
722.679	270.77
723.082	305.88
723.485	305.88
723.889	245.02
724.292	322.26
724.695	294.18
725.098	277.79
725.501	348.01
725.904	284.81
726.307	254.39
726.71	352.69
727.113	287.15
727.516	303.54
727.918	357.37
728.321	294.18
728.724	310.56
729.126	310.56
729.529	310.56
729.931	359.71
730.333	352.69
730.736	242.68
731.138	298.86
731.54	336.31
731.942	268.43
732.344	273.11
732.746	284.81
733.148	322.26
733.55	340.99
733.952	291.84
734.354	289.5
734.756	287.15
735.157	254.39
735.559	301.2
735.96	331.62
736.362	298.86
736.763	301.2
737.165	228.64
737.566	270.77
737.967	324.6
738.368	336.31
738.77	242.68
739.171	329.28
739.572	322.26
739.973	291.84
740.374	289.5
740.774	364.39
741.175	312.9
741.576	273.11
741.977	369.07
742.377	289.5
742.778	280.13
743.178	263.75
743.579	294.18
743.979	230.98
744.379	256.73
744.78	294.18
745.18	266.09
745.58	268.43
745.98	296.52
746.38	296.52
746.78	338.65
747.18	291.84
747.58	268.43
747.98	310.56
748.38	357.37
748.779	387.8
749.179	331.62
749.578	273.11
749.978	355.03
750.377	331.62
750.777	273.11
751.176	329.28
751.575	331.62
751.975	326.94
752.374	301.2
752.773	280.13
753.172	336.31
753.571	287.15
753.97	294.18
754.369	359.71
754.768	275.45
755.166	322.26
755.565	319.92
755.964	310.56
756.362	287.15
756.761	268.43
757.159	277.79
757.558	284.81
757.956	373.75
758.354	343.33
758.753	301.2
759.151	333.97
759.549	315.24
759.947	322.26
760.345	287.15
760.743	350.35
761.141	408.86
761.539	329.28
761.936	333.97
762.334	282.47
762.732	282.47
763.129	273.11
763.527	350.35
763.924	315.24
764.322	373.75
764.719	261.41
765.117	397.16
