Data from Al_FLMS009871__734__15-12-41-129.txt Node

Date: Fri Mar 08 15:12:41 CST 2024
User: pe5414po
Spectrometer: FLMS00987
Trigger mode: 0
Integration Time (sec): 1.000000E-1
Scans to average: 1
Electric dark correction enabled: true
Nonlinearity correction enabled: false
Boxcar width: 0
XAxis mode: Wavelengths
Number of Pixels in Spectrum: 2048
>>>>>Begin Spectral Data<<<<<
188.938	-31.74
189.409	-31.74
189.879	-31.74
190.349	-97.28
190.819	-113.66
191.29	-118.34
191.76	-127.71
192.23	-125.36
192.7	-80.89
193.17	-57.49
193.64	-59.83
194.109	-3.66
194.579	-6
195.049	-3.66
195.519	50.18
195.988	50.18
196.458	78.26
196.927	94.65
197.397	101.67
197.866	89.96
198.336	118.05
198.805	192.95
199.274	211.67
199.744	190.61
200.213	171.88
200.682	251.46
201.151	242.1
201.62	195.29
202.089	206.99
202.558	286.57
203.027	232.74
203.495	265.5
203.964	251.46
204.433	291.25
204.902	340.4
205.37	270.19
205.839	309.97
206.307	251.46
206.776	263.16
207.244	314.66
207.712	246.78
208.181	281.89
208.649	293.59
209.117	314.66
209.585	326.36
210.053	291.25
210.521	263.16
210.989	333.38
211.457	265.5
211.925	284.23
212.393	328.7
212.861	324.02
213.328	242.1
213.796	277.21
214.264	277.21
214.731	253.8
215.199	279.55
215.666	214.01
216.133	298.27
216.601	265.5
217.068	244.44
217.535	265.5
218.003	331.04
218.47	270.19
218.937	216.35
219.404	291.25
219.871	272.53
220.338	314.66
220.805	312.32
221.271	286.57
221.738	221.03
222.205	211.67
222.671	293.59
223.138	235.08
223.605	302.95
224.071	274.87
224.538	251.46
225.004	328.7
225.47	333.38
225.937	324.02
226.403	291.25
226.869	218.69
227.335	253.8
227.801	228.06
228.267	288.91
228.733	263.16
229.199	230.4
229.665	295.93
230.131	272.53
230.597	199.97
231.062	314.66
231.528	284.23
231.994	270.19
232.459	319.34
232.925	244.44
233.39	274.87
233.856	328.7
234.321	326.36
234.786	253.8
235.252	277.21
235.717	244.44
236.182	258.48
236.647	260.82
237.112	263.16
237.577	284.23
238.042	258.48
238.507	256.14
238.972	298.27
239.436	206.99
239.901	267.85
240.366	260.82
240.83	291.25
241.295	307.63
241.76	249.12
242.224	218.69
242.688	293.59
243.153	249.12
243.617	331.04
244.081	307.63
244.545	309.97
245.01	277.21
245.474	293.59
245.938	253.8
246.402	312.32
246.866	295.93
247.33	298.27
247.793	225.72
248.257	239.76
248.721	342.74
249.185	237.42
249.648	228.06
250.112	309.97
250.575	307.63
251.039	298.27
251.502	267.85
251.965	295.93
252.429	249.12
252.892	274.87
253.355	298.27
253.818	279.55
254.281	265.5
254.744	293.59
255.207	253.8
255.67	302.95
256.133	279.55
256.596	300.61
257.059	263.16
257.522	235.08
257.984	239.76
258.447	223.37
258.909	258.48
259.372	286.57
259.834	291.25
260.297	274.87
260.759	246.78
261.221	265.5
261.684	256.14
262.146	295.93
262.608	305.29
263.07	272.53
263.532	305.29
263.994	333.38
264.456	317
264.918	302.95
265.38	309.97
265.842	270.19
266.303	256.14
266.765	260.82
267.227	277.21
267.688	253.8
268.15	274.87
268.611	291.25
269.072	256.14
269.534	270.19
269.995	338.06
270.456	328.7
270.918	300.61
271.379	258.48
271.84	260.82
272.301	328.7
272.762	328.7
273.223	305.29
273.684	373.17
274.144	345.08
274.605	281.89
275.066	272.53
275.527	321.68
275.987	298.27
276.448	279.55
276.908	235.08
277.369	286.57
277.829	230.4
278.289	293.59
278.75	265.5
279.21	267.85
279.67	256.14
280.13	317
280.59	277.21
281.05	338.06
281.51	340.4
281.97	347.42
282.43	279.55
282.89	302.95
283.35	249.12
283.809	253.8
284.269	328.7
284.729	293.59
285.188	225.72
285.648	293.59
286.107	291.25
286.567	300.61
287.026	258.48
287.485	305.29
287.944	277.21
288.404	286.57
288.863	253.8
289.322	298.27
289.781	382.53
290.24	321.68
290.699	279.55
291.158	305.29
291.616	302.95
292.075	246.78
292.534	291.25
292.992	288.91
293.451	256.14
293.91	272.53
294.368	352.1
294.827	272.53
295.285	326.36
295.743	333.38
296.202	333.38
296.66	345.08
297.118	272.53
297.576	331.04
298.034	293.59
298.492	270.19
298.95	293.59
299.408	305.29
299.866	324.02
300.324	314.66
300.781	326.36
301.239	305.29
301.697	354.44
302.154	368.49
302.612	349.76
303.069	368.49
303.527	317
303.984	363.81
304.441	342.74
304.899	295.93
305.356	291.25
305.813	317
306.27	331.04
306.727	354.44
307.184	321.68
307.641	272.53
308.098	349.76
308.555	263.16
309.012	317
309.468	338.06
309.925	333.38
310.382	253.8
310.838	305.29
311.295	335.72
311.751	258.48
312.208	312.32
312.664	291.25
313.12	340.4
313.577	321.68
314.033	331.04
314.489	309.97
314.945	314.66
315.401	338.06
315.857	258.48
316.313	300.61
316.769	291.25
317.225	274.87
317.681	370.83
318.136	321.68
318.592	277.21
319.048	375.51
319.503	286.57
319.959	265.5
320.414	309.97
320.869	349.76
321.325	324.02
321.78	321.68
322.235	328.7
322.691	347.42
323.146	291.25
323.601	251.46
324.056	286.57
324.511	277.21
324.966	319.34
325.421	333.38
325.875	256.14
326.33	331.04
326.785	298.27
327.24	281.89
327.694	274.87
328.149	361.47
328.603	300.61
329.058	302.95
329.512	281.89
329.966	356.79
330.421	317
330.875	356.79
331.329	338.06
331.783	370.83
332.237	324.02
332.691	256.14
333.145	286.57
333.599	328.7
334.053	293.59
334.507	312.32
334.96	375.51
335.414	326.36
335.868	319.34
336.321	305.29
336.775	324.02
337.228	258.48
337.682	260.82
338.135	361.47
338.588	363.81
339.042	326.36
339.495	321.68
339.948	307.63
340.401	265.5
340.854	345.08
341.307	326.36
341.76	221.03
342.213	312.32
342.666	295.93
343.119	270.19
343.571	340.4
344.024	307.63
344.477	291.25
344.929	270.19
345.382	359.13
345.834	267.85
346.287	284.23
346.739	239.76
347.191	349.76
347.644	305.29
348.096	345.08
348.548	286.57
349	298.27
349.452	347.42
349.904	298.27
350.356	265.5
350.808	274.87
351.26	373.17
351.711	356.79
352.163	331.04
352.615	380.19
353.066	380.19
353.518	326.36
353.969	267.85
354.421	412.96
354.872	256.14
355.324	293.59
355.775	349.76
356.226	293.59
356.677	356.79
357.128	347.42
357.579	263.16
358.03	305.29
358.481	291.25
358.932	258.48
359.383	272.53
359.834	258.48
360.285	274.87
360.735	333.38
361.186	326.36
361.637	333.38
362.087	288.91
362.538	389.55
362.988	331.04
363.438	321.68
363.889	251.46
364.339	331.04
364.789	331.04
365.239	300.61
365.689	314.66
366.139	317
366.589	277.21
367.039	267.85
367.489	305.29
367.939	284.23
368.389	317
368.839	340.4
369.288	256.14
369.738	284.23
370.187	328.7
370.637	312.32
371.086	286.57
371.536	300.61
371.985	295.93
372.434	352.1
372.884	281.89
373.333	302.95
373.782	286.57
374.231	326.36
374.68	279.55
375.129	356.79
375.578	300.61
376.027	274.87
376.475	321.68
376.924	345.08
377.373	342.74
377.822	347.42
378.27	286.57
378.719	253.8
379.167	307.63
379.616	349.76
380.064	286.57
380.512	307.63
380.961	319.34
381.409	214.01
381.857	300.61
382.305	326.36
382.753	251.46
383.201	338.06
383.649	335.72
384.097	338.06
384.545	349.76
384.992	331.04
385.44	384.87
385.888	312.32
386.335	314.66
386.783	291.25
387.231	375.51
387.678	333.38
388.125	324.02
388.573	302.95
389.02	309.97
389.467	338.06
389.914	312.32
390.362	335.72
390.809	398.92
391.256	352.1
391.703	281.89
392.15	375.51
392.596	326.36
393.043	260.82
393.49	288.91
393.937	263.16
394.383	314.66
394.83	321.68
395.276	298.27
395.723	288.91
396.169	347.42
396.616	363.81
397.062	380.19
397.508	326.36
397.954	377.85
398.401	324.02
398.847	321.68
399.293	331.04
399.739	345.08
400.185	338.06
400.631	331.04
401.076	291.25
401.522	281.89
401.968	359.13
402.414	370.83
402.859	356.79
403.305	319.34
403.75	263.16
404.196	324.02
404.641	256.14
405.086	319.34
405.532	333.38
405.977	286.57
406.422	317
406.867	324.02
407.312	338.06
407.757	368.49
408.202	288.91
408.647	284.23
409.092	335.72
409.537	314.66
409.982	314.66
410.426	354.44
410.871	300.61
411.316	298.27
411.76	373.17
412.205	284.23
412.649	345.08
413.093	295.93
413.538	284.23
413.982	321.68
414.426	342.74
414.87	307.63
415.314	326.36
415.758	235.08
416.202	356.79
416.646	288.91
417.09	293.59
417.534	368.49
417.978	295.93
418.421	333.38
418.865	228.06
419.309	230.4
419.752	309.97
420.196	326.36
420.639	274.87
421.083	295.93
421.526	260.82
421.969	286.57
422.412	270.19
422.856	286.57
423.299	260.82
423.742	274.87
424.185	373.17
424.628	274.87
425.071	359.13
425.513	396.57
425.956	384.87
426.399	363.81
426.842	324.02
427.284	342.74
427.727	314.66
428.169	291.25
428.612	317
429.054	354.44
429.497	340.4
429.939	331.04
430.381	338.06
430.823	331.04
431.265	354.44
431.707	347.42
432.149	352.1
432.591	333.38
433.033	277.21
433.475	340.4
433.917	314.66
434.359	274.87
434.8	345.08
435.242	284.23
435.684	295.93
436.125	331.04
436.567	366.15
437.008	331.04
437.449	314.66
437.891	321.68
438.332	342.74
438.773	333.38
439.214	324.02
439.656	284.23
440.097	319.34
440.538	345.08
440.978	331.04
441.419	288.91
441.86	338.06
442.301	277.21
442.742	293.59
443.182	328.7
443.623	335.72
444.063	291.25
444.504	274.87
444.944	338.06
445.385	347.42
445.825	349.76
446.265	305.29
446.706	384.87
447.146	291.25
447.586	295.93
448.026	300.61
448.466	335.72
448.906	291.25
449.346	347.42
449.786	312.32
450.225	295.93
450.665	345.08
451.105	328.7
451.544	281.89
451.984	347.42
452.424	312.32
452.863	288.91
453.302	314.66
453.742	324.02
454.181	380.19
454.62	356.79
455.059	345.08
455.499	345.08
455.938	321.68
456.377	363.81
456.816	333.38
457.254	307.63
457.693	251.46
458.132	338.06
458.571	293.59
459.01	270.19
459.448	284.23
459.887	284.23
460.325	347.42
460.764	342.74
461.202	284.23
461.641	375.51
462.079	361.47
462.517	319.34
462.955	256.14
463.393	281.89
463.832	295.93
464.27	302.95
464.708	352.1
465.145	342.74
465.583	286.57
466.021	354.44
466.459	305.29
466.897	359.13
467.334	288.91
467.772	340.4
468.209	302.95
468.647	354.44
469.084	333.38
469.522	373.17
469.959	338.06
470.396	319.34
470.833	363.81
471.271	317
471.708	363.81
472.145	333.38
472.582	295.93
473.019	293.59
473.456	312.32
473.892	326.36
474.329	293.59
474.766	345.08
475.202	356.79
475.639	352.1
476.076	279.55
476.512	291.25
476.949	298.27
477.385	319.34
477.821	288.91
478.258	307.63
478.694	281.89
479.13	331.04
479.566	338.06
480.002	349.76
480.438	288.91
480.874	272.53
481.31	281.89
481.746	333.38
482.181	324.02
482.617	377.85
483.053	338.06
483.488	295.93
483.924	279.55
484.36	331.04
484.795	281.89
485.23	347.42
485.666	317
486.101	288.91
486.536	230.4
486.971	300.61
487.407	338.06
487.842	317
488.277	335.72
488.712	302.95
489.146	309.97
489.581	314.66
490.016	331.04
490.451	317
490.885	352.1
491.32	361.47
491.755	331.04
492.189	361.47
492.624	293.59
493.058	288.91
493.492	312.32
493.927	333.38
494.361	293.59
494.795	300.61
495.229	359.13
495.663	366.15
496.097	349.76
496.531	356.79
496.965	338.06
497.399	333.38
497.833	263.16
498.266	286.57
498.7	291.25
499.134	427
499.567	363.81
500.001	384.87
500.434	307.63
500.868	328.7
501.301	331.04
501.734	326.36
502.168	347.42
502.601	274.87
503.034	309.97
503.467	319.34
503.9	302.95
504.333	324.02
504.766	281.89
505.199	370.83
505.632	295.93
506.064	267.85
506.497	307.63
506.93	338.06
507.362	270.19
507.795	359.13
508.227	321.68
508.66	396.57
509.092	295.93
509.524	242.1
509.956	342.74
510.389	272.53
510.821	361.47
511.253	335.72
511.685	298.27
512.117	270.19
512.549	328.7
512.981	288.91
513.412	317
513.844	359.13
514.276	391.89
514.707	375.51
515.139	326.36
515.571	349.76
516.002	267.85
516.433	265.5
516.865	277.21
517.296	321.68
517.727	286.57
518.159	321.68
518.59	300.61
519.021	293.59
519.452	338.06
519.883	321.68
520.314	295.93
520.744	333.38
521.175	291.25
521.606	342.74
522.037	291.25
522.467	298.27
522.898	354.44
523.328	314.66
523.759	317
524.189	281.89
524.62	331.04
525.05	312.32
525.48	368.49
525.91	331.04
526.341	319.34
526.771	235.08
527.201	291.25
527.631	328.7
528.061	324.02
528.49	300.61
528.92	286.57
529.35	333.38
529.78	263.16
530.209	321.68
530.639	324.02
531.068	298.27
531.498	302.95
531.927	356.79
532.357	342.74
532.786	321.68
533.215	317
533.644	356.79
534.074	309.97
534.503	302.95
534.932	277.21
535.361	298.27
535.79	314.66
536.218	352.1
536.647	361.47
537.076	335.72
537.505	293.59
537.933	307.63
538.362	293.59
538.79	317
539.219	345.08
539.647	281.89
540.076	335.72
540.504	384.87
540.932	391.89
541.36	265.5
541.788	380.19
542.217	326.36
542.645	319.34
543.073	377.85
543.5	380.19
543.928	321.68
544.356	321.68
544.784	356.79
545.211	347.42
545.639	363.81
546.067	361.47
546.494	333.38
546.922	375.51
547.349	277.21
547.776	331.04
548.204	265.5
548.631	373.17
549.058	324.02
549.485	373.17
549.912	300.61
550.339	338.06
550.766	331.04
551.193	340.4
551.62	270.19
552.047	389.55
552.474	272.53
552.9	370.83
553.327	352.1
553.754	307.63
554.18	246.78
554.607	380.19
555.033	331.04
555.459	349.76
555.886	331.04
556.312	319.34
556.738	354.44
557.164	328.7
557.59	314.66
558.016	324.02
558.442	319.34
558.868	331.04
559.294	328.7
559.72	331.04
560.145	331.04
560.571	305.29
560.997	309.97
561.422	338.06
561.848	389.55
562.273	295.93
562.699	298.27
563.124	319.34
563.549	281.89
563.974	354.44
564.4	256.14
564.825	270.19
565.25	291.25
565.675	277.21
566.1	359.13
566.525	324.02
566.95	312.32
567.374	277.21
567.799	335.72
568.224	291.25
568.648	321.68
569.073	305.29
569.497	363.81
569.922	284.23
570.346	324.02
570.771	286.57
571.195	279.55
571.619	274.87
572.043	263.16
572.467	349.76
572.891	321.68
573.315	270.19
573.739	314.66
574.163	338.06
574.587	291.25
575.011	291.25
575.435	321.68
575.858	274.87
576.282	375.51
576.705	300.61
577.129	305.29
577.552	295.93
577.976	319.34
578.399	380.19
578.822	319.34
579.245	335.72
579.669	260.82
580.092	305.29
580.515	302.95
580.938	319.34
581.361	302.95
581.784	284.23
582.206	279.55
582.629	291.25
583.052	356.79
583.474	333.38
583.897	366.15
584.32	293.59
584.742	221.03
585.165	305.29
585.587	307.63
586.009	333.38
586.431	356.79
586.854	284.23
587.276	345.08
587.698	317
588.12	340.4
588.542	356.79
588.964	361.47
589.386	331.04
589.807	265.5
590.229	394.23
590.651	309.97
591.073	307.63
591.494	300.61
591.916	342.74
592.337	286.57
592.759	295.93
593.18	307.63
593.601	211.67
594.022	335.72
594.444	284.23
594.865	312.32
595.286	373.17
595.707	312.32
596.128	302.95
596.549	352.1
596.97	328.7
597.39	335.72
597.811	319.34
598.232	286.57
598.652	363.81
599.073	352.1
599.494	321.68
599.914	305.29
600.334	302.95
600.755	317
601.175	312.32
601.595	380.19
602.015	321.68
602.436	286.57
602.856	466.79
603.276	352.1
603.696	368.49
604.115	281.89
604.535	317
604.955	317
605.375	326.36
605.794	295.93
606.214	267.85
606.634	321.68
607.053	284.23
607.473	368.49
607.892	326.36
608.311	377.85
608.731	300.61
609.15	342.74
609.569	300.61
609.988	302.95
610.407	291.25
610.826	281.89
611.245	349.76
611.664	328.7
612.083	267.85
612.501	272.53
612.92	281.89
613.339	328.7
613.757	324.02
614.176	359.13
614.594	319.34
615.013	305.29
615.431	277.21
615.85	331.04
616.268	366.15
616.686	347.42
617.104	274.87
617.522	391.89
617.94	295.93
618.358	342.74
618.776	342.74
619.194	352.1
619.612	340.4
620.03	270.19
620.447	335.72
620.865	326.36
621.282	340.4
621.7	305.29
622.117	326.36
622.535	302.95
622.952	228.06
623.369	342.74
623.787	317
624.204	317
624.621	328.7
625.038	352.1
625.455	331.04
625.872	274.87
626.289	251.46
626.706	338.06
627.123	293.59
627.539	281.89
627.956	361.47
628.373	317
628.789	319.34
629.206	342.74
629.622	380.19
630.038	284.23
630.455	340.4
630.871	295.93
631.287	298.27
631.703	317
632.12	235.08
632.536	277.21
632.952	387.21
633.368	377.85
633.783	302.95
634.199	239.76
634.615	237.42
635.031	295.93
635.446	277.21
635.862	324.02
636.277	317
636.693	319.34
637.108	302.95
637.524	331.04
637.939	326.36
638.354	270.19
638.77	342.74
639.185	324.02
639.6	394.23
640.015	298.27
640.43	349.76
640.845	302.95
641.259	284.23
641.674	258.48
642.089	368.49
642.504	342.74
642.918	300.61
643.333	300.61
643.747	251.46
644.162	281.89
644.576	307.63
644.991	347.42
645.405	314.66
645.819	349.76
646.233	263.16
646.647	349.76
647.061	375.51
647.475	331.04
647.889	263.16
648.303	295.93
648.717	328.7
649.131	295.93
649.545	328.7
649.958	295.93
650.372	340.4
650.785	347.42
651.199	335.72
651.612	300.61
652.026	349.76
652.439	370.83
652.852	324.02
653.266	335.72
653.679	384.87
654.092	347.42
654.505	284.23
654.918	368.49
655.331	298.27
655.744	319.34
656.156	305.29
656.569	314.66
656.982	352.1
657.394	256.14
657.807	342.74
658.22	368.49
658.632	331.04
659.044	340.4
659.457	356.79
659.869	326.36
660.281	305.29
660.693	295.93
661.106	361.47
661.518	286.57
661.93	293.59
662.342	387.21
662.754	340.4
663.165	293.59
663.577	321.68
663.989	324.02
664.401	309.97
664.812	314.66
665.224	366.15
665.635	305.29
666.047	246.78
666.458	309.97
666.869	288.91
667.281	291.25
667.692	307.63
668.103	319.34
668.514	305.29
668.925	321.68
669.336	291.25
669.747	312.32
670.158	314.66
670.569	326.36
670.979	309.97
671.39	281.89
671.801	366.15
672.211	307.63
672.622	345.08
673.032	300.61
673.443	258.48
673.853	347.42
674.263	321.68
674.674	349.76
675.084	309.97
675.494	270.19
675.904	361.47
676.314	277.21
676.724	366.15
677.134	281.89
677.544	359.13
677.953	321.68
678.363	317
678.773	366.15
679.182	272.53
679.592	338.06
680.001	239.76
680.411	377.85
680.82	272.53
681.23	338.06
681.639	263.16
682.048	298.27
682.457	389.55
682.866	309.97
683.275	277.21
683.684	300.61
684.093	288.91
684.502	293.59
684.911	309.97
685.32	340.4
685.728	375.51
686.137	340.4
686.546	338.06
686.954	286.57
687.363	300.61
687.771	361.47
688.179	314.66
688.588	356.79
688.996	321.68
689.404	295.93
689.812	363.81
690.22	359.13
690.628	342.74
691.036	319.34
691.444	284.23
691.852	279.55
692.26	305.29
692.667	387.21
693.075	272.53
693.483	319.34
693.89	279.55
694.298	340.4
694.705	314.66
695.112	295.93
695.52	314.66
695.927	284.23
696.334	267.85
696.741	340.4
697.148	270.19
697.555	345.08
697.962	281.89
698.369	298.27
698.776	281.89
699.183	298.27
699.59	326.36
699.996	263.16
700.403	251.46
700.81	305.29
701.216	312.32
701.623	326.36
702.029	394.23
702.435	387.21
702.842	302.95
703.248	249.12
703.654	349.76
704.06	277.21
704.466	366.15
704.872	347.42
705.278	335.72
705.684	300.61
706.09	349.76
706.496	389.55
706.901	305.29
707.307	298.27
707.712	281.89
708.118	253.8
708.523	326.36
708.929	307.63
709.334	345.08
709.74	324.02
710.145	305.29
710.55	298.27
710.955	331.04
711.36	307.63
711.765	368.49
712.17	274.87
712.575	260.82
712.98	890.43
713.385	405.94
713.789	305.29
714.194	314.66
714.599	298.27
715.003	258.48
715.408	314.66
715.812	331.04
716.217	349.76
716.621	331.04
717.025	340.4
717.429	326.36
717.833	263.16
718.238	328.7
718.642	314.66
719.046	277.21
719.449	288.91
719.853	319.34
720.257	333.38
720.661	293.59
721.065	373.17
721.468	345.08
721.872	295.93
722.275	317
722.679	342.74
723.082	274.87
723.485	256.14
723.889	279.55
724.292	288.91
724.695	302.95
725.098	328.7
725.501	328.7
725.904	354.44
726.307	340.4
726.71	361.47
727.113	314.66
727.516	314.66
727.918	368.49
728.321	309.97
728.724	340.4
729.126	326.36
729.529	349.76
729.931	291.25
730.333	295.93
730.736	319.34
731.138	288.91
731.54	352.1
731.942	272.53
732.344	274.87
732.746	361.47
733.148	349.76
733.55	345.08
733.952	338.06
734.354	281.89
734.756	284.23
735.157	277.21
735.559	321.68
735.96	324.02
736.362	394.23
736.763	291.25
737.165	368.49
737.566	347.42
737.967	331.04
738.368	267.85
738.77	324.02
739.171	324.02
739.572	305.29
739.973	338.06
740.374	391.89
740.774	279.55
741.175	321.68
741.576	298.27
741.977	314.66
742.377	340.4
742.778	274.87
743.178	314.66
743.579	321.68
743.979	246.78
744.379	370.83
744.78	347.42
745.18	368.49
745.58	389.55
745.98	338.06
746.38	317
746.78	267.85
747.18	291.25
747.58	321.68
747.98	291.25
748.38	326.36
748.779	246.78
749.179	230.4
749.578	361.47
749.978	324.02
750.377	345.08
750.777	295.93
751.176	279.55
751.575	302.95
751.975	317
752.374	373.17
752.773	251.46
753.172	345.08
753.571	333.38
753.97	270.19
754.369	345.08
754.768	298.27
755.166	256.14
755.565	363.81
755.964	335.72
756.362	359.13
756.761	293.59
757.159	300.61
757.558	298.27
757.956	302.95
758.354	295.93
758.753	272.53
759.151	333.38
759.549	326.36
759.947	342.74
760.345	340.4
760.743	314.66
761.141	345.08
761.539	321.68
761.936	335.72
762.334	333.38
762.732	345.08
763.129	307.63
763.527	305.29
763.924	293.59
764.322	317
764.719	288.91
765.117	307.63
765.514	265.5
765.911	347.42
766.308	256.14
766.705	326.36
767.102	284.23
