Data from Al_FLMS009871__721__15-12-39-829.txt Node

Date: Fri Mar 08 15:12:39 CST 2024
User: pe5414po
Spectrometer: FLMS00987
Trigger mode: 0
Integration Time (sec): 1.000000E-1
Scans to average: 1
Electric dark correction enabled: true
Nonlinearity correction enabled: false
Boxcar width: 0
XAxis mode: Wavelengths
Number of Pixels in Spectrum: 2048
>>>>>Begin Spectral Data<<<<<
188.938	-42.13
189.409	-42.13
189.879	-42.13
190.349	-112.35
190.819	-114.69
191.29	-100.64
191.76	-124.05
192.23	-86.6
192.7	-88.94
193.17	-67.88
193.64	-74.9
194.109	35.11
194.579	-7.02
195.049	7.02
195.519	35.11
195.988	23.41
196.458	2.34
196.927	56.17
197.397	86.6
197.866	156.82
198.336	147.45
198.805	154.48
199.274	168.52
199.744	196.61
200.213	166.18
200.682	217.67
201.151	184.9
201.62	196.61
202.089	252.78
202.558	203.63
203.027	205.97
203.495	269.16
203.964	252.78
204.433	285.55
204.902	301.93
205.37	280.86
205.839	325.33
206.307	299.59
206.776	292.57
207.244	290.23
207.712	327.68
208.181	311.29
208.649	252.78
209.117	262.14
209.585	271.5
210.053	252.78
210.521	229.37
210.989	266.82
211.457	299.59
211.925	327.68
212.393	257.46
212.861	325.33
213.328	306.61
213.796	318.31
214.264	234.05
214.731	273.84
215.199	236.39
215.666	250.44
216.133	285.55
216.601	304.27
217.068	220.01
217.535	346.4
218.003	269.16
218.47	241.08
218.937	278.52
219.404	259.8
219.871	313.63
220.338	287.89
220.805	255.12
221.271	311.29
221.738	194.26
222.205	255.12
222.671	250.44
223.138	234.05
223.605	290.23
224.071	245.76
224.538	168.52
225.004	292.57
225.47	294.91
225.937	280.86
226.403	262.14
226.869	337.04
227.335	266.82
227.801	236.39
228.267	229.37
228.733	276.18
229.199	243.42
229.665	259.8
230.131	276.18
230.597	259.8
231.062	320.65
231.528	234.05
231.994	269.16
232.459	315.97
232.925	283.2
233.39	290.23
233.856	276.18
234.321	273.84
234.786	306.61
235.252	266.82
235.717	290.23
236.182	250.44
236.647	285.55
237.112	283.2
237.577	320.65
238.042	229.37
238.507	292.57
238.972	203.63
239.436	276.18
239.901	229.37
240.366	278.52
240.83	308.95
241.295	236.39
241.76	255.12
242.224	222.35
242.688	273.84
243.153	294.91
243.617	346.4
244.081	238.73
244.545	222.35
245.01	243.42
245.474	315.97
245.938	304.27
246.402	231.71
246.866	241.08
247.33	285.55
247.793	301.93
248.257	250.44
248.721	334.7
249.185	339.38
249.648	278.52
250.112	308.95
250.575	259.8
251.039	264.48
251.502	337.04
251.965	227.03
252.429	234.05
252.892	241.08
253.355	271.5
253.818	337.04
254.281	327.68
254.744	276.18
255.207	287.89
255.67	248.1
256.133	304.27
256.596	299.59
257.059	287.89
257.522	278.52
257.984	301.93
258.447	297.25
258.909	294.91
259.372	344.06
259.834	278.52
260.297	290.23
260.759	339.38
261.221	283.2
261.684	278.52
262.146	255.12
262.608	294.91
263.07	290.23
263.532	322.99
263.994	278.52
264.456	252.78
264.918	208.31
265.38	290.23
265.842	236.39
266.303	231.71
266.765	243.42
267.227	341.72
267.688	304.27
268.15	294.91
268.611	269.16
269.072	266.82
269.534	264.48
269.995	297.25
270.456	283.2
270.918	301.93
271.379	320.65
271.84	262.14
272.301	278.52
272.762	262.14
273.223	299.59
273.684	299.59
274.144	313.63
274.605	175.54
275.066	383.85
275.527	290.23
275.987	276.18
276.448	283.2
276.908	381.51
277.369	308.95
277.829	304.27
278.289	273.84
278.75	351.08
279.21	278.52
279.67	308.95
280.13	344.06
280.59	262.14
281.05	250.44
281.51	311.29
281.97	369.8
282.43	330.02
282.89	266.82
283.35	344.06
283.809	308.95
284.269	386.19
284.729	290.23
285.188	362.78
285.648	330.02
286.107	210.65
286.567	210.65
287.026	355.76
287.485	311.29
287.944	318.31
288.404	311.29
288.863	320.65
289.322	294.91
289.781	332.36
290.24	332.36
290.699	299.59
291.158	393.21
291.616	283.2
292.075	320.65
292.534	245.76
292.992	308.95
293.451	304.27
293.91	266.82
294.368	290.23
294.827	280.86
295.285	262.14
295.743	269.16
296.202	320.65
296.66	220.01
297.118	341.72
297.576	280.86
298.034	273.84
298.492	248.1
298.95	250.44
299.408	292.57
299.866	308.95
300.324	327.68
300.781	330.02
301.239	330.02
301.697	252.78
302.154	322.99
302.612	322.99
303.069	322.99
303.527	308.95
303.984	318.31
304.441	315.97
304.899	320.65
305.356	292.57
305.813	337.04
306.27	257.46
306.727	273.84
307.184	285.55
307.641	248.1
308.098	243.42
308.555	306.61
309.012	280.86
309.468	353.42
309.925	339.38
310.382	308.95
310.838	287.89
311.295	341.72
311.751	259.8
312.208	290.23
312.664	271.5
313.12	273.84
313.577	320.65
314.033	348.74
314.489	332.36
314.945	351.08
315.401	276.18
315.857	308.95
316.313	271.5
316.769	269.16
317.225	292.57
317.681	362.78
318.136	248.1
318.592	285.55
319.048	339.38
319.503	337.04
319.959	311.29
320.414	278.52
320.869	278.52
321.325	346.4
321.78	318.31
322.235	308.95
322.691	301.93
323.146	311.29
323.601	248.1
324.056	304.27
324.511	262.14
324.966	346.4
325.421	299.59
325.875	330.02
326.33	292.57
326.785	313.63
327.24	351.08
327.694	290.23
328.149	294.91
328.603	337.04
329.058	320.65
329.512	320.65
329.966	327.68
330.421	301.93
330.875	327.68
331.329	332.36
331.783	318.31
332.237	355.76
332.691	257.46
333.145	369.8
333.599	320.65
334.053	337.04
334.507	322.99
334.96	292.57
335.414	320.65
335.868	332.36
336.321	276.18
336.775	339.38
337.228	327.68
337.682	369.8
338.135	334.7
338.588	283.2
339.042	304.27
339.495	308.95
339.948	334.7
340.401	334.7
340.854	322.99
341.307	283.2
341.76	360.44
342.213	287.89
342.666	325.33
343.119	255.12
343.571	313.63
344.024	255.12
344.477	306.61
344.929	287.89
345.382	294.91
345.834	353.42
346.287	337.04
346.739	334.7
347.191	264.48
347.644	306.61
348.096	292.57
348.548	313.63
349	241.08
349.452	327.68
349.904	320.65
350.356	285.55
350.808	320.65
351.26	292.57
351.711	322.99
352.163	322.99
352.615	320.65
353.066	393.21
353.518	351.08
353.969	358.1
354.421	320.65
354.872	266.82
355.324	355.76
355.775	315.97
356.226	290.23
356.677	332.36
357.128	273.84
357.579	318.31
358.03	311.29
358.481	290.23
358.932	306.61
359.383	266.82
359.834	299.59
360.285	313.63
360.735	248.1
361.186	297.25
361.637	287.89
362.087	308.95
362.538	306.61
362.988	264.48
363.438	344.06
363.889	353.42
364.339	332.36
364.789	390.87
365.239	266.82
365.689	320.65
366.139	320.65
366.589	330.02
367.039	264.48
367.489	315.97
367.939	318.31
368.389	304.27
368.839	346.4
369.288	280.86
369.738	287.89
370.187	379.17
370.637	344.06
371.086	346.4
371.536	304.27
371.985	330.02
372.434	334.7
372.884	292.57
373.333	290.23
373.782	325.33
374.231	327.68
374.68	334.7
375.129	294.91
375.578	280.86
376.027	311.29
376.475	271.5
376.924	315.97
377.373	330.02
377.822	276.18
378.27	383.85
378.719	337.04
379.167	306.61
379.616	238.73
380.064	283.2
380.512	290.23
380.961	299.59
381.409	353.42
381.857	358.1
382.305	346.4
382.753	280.86
383.201	248.1
383.649	297.25
384.097	304.27
384.545	355.76
384.992	322.99
385.44	306.61
385.888	348.74
386.335	245.76
386.783	383.85
387.231	325.33
387.678	292.57
388.125	327.68
388.573	351.08
389.02	285.55
389.467	348.74
389.914	285.55
390.362	318.31
390.809	348.74
391.256	301.93
391.703	322.99
392.15	325.33
392.596	318.31
393.043	346.4
393.49	337.04
393.937	283.2
394.383	311.29
394.83	351.08
395.276	266.82
395.723	360.44
396.169	365.12
396.616	337.04
397.062	348.74
397.508	334.7
397.954	315.97
398.401	304.27
398.847	299.59
399.293	313.63
399.739	381.51
400.185	367.46
400.631	344.06
401.076	299.59
401.522	395.55
401.968	339.38
402.414	369.8
402.859	320.65
403.305	393.21
403.75	332.36
404.196	360.44
404.641	358.1
405.086	327.68
405.532	318.31
405.977	320.65
406.422	292.57
406.867	308.95
407.312	365.12
407.757	280.86
408.202	280.86
408.647	327.68
409.092	276.18
409.537	276.18
409.982	379.17
410.426	294.91
410.871	271.5
411.316	306.61
411.76	255.12
412.205	301.93
412.649	372.15
413.093	304.27
413.538	334.7
413.982	290.23
414.426	285.55
414.87	320.65
415.314	301.93
415.758	362.78
416.202	304.27
416.646	315.97
417.09	304.27
417.534	351.08
417.978	381.51
418.421	315.97
418.865	376.83
419.309	301.93
419.752	376.83
420.196	315.97
420.639	358.1
421.083	294.91
421.526	327.68
421.969	313.63
422.412	325.33
422.856	318.31
423.299	358.1
423.742	290.23
424.185	353.42
424.628	376.83
425.071	351.08
425.513	341.72
425.956	374.49
426.399	348.74
426.842	332.36
427.284	334.7
427.727	250.44
428.169	322.99
428.612	290.23
429.054	320.65
429.497	339.38
429.939	283.2
430.381	315.97
430.823	308.95
431.265	318.31
431.707	365.12
432.149	360.44
432.591	353.42
433.033	318.31
433.475	252.78
433.917	290.23
434.359	344.06
434.8	292.57
435.242	304.27
435.684	294.91
436.125	318.31
436.567	325.33
437.008	337.04
437.449	292.57
437.891	297.25
438.332	318.31
438.773	367.46
439.214	280.86
439.656	276.18
440.097	320.65
440.538	276.18
440.978	294.91
441.419	318.31
441.86	292.57
442.301	355.76
442.742	325.33
443.182	367.46
443.623	355.76
444.063	280.86
444.504	341.72
444.944	301.93
445.385	332.36
445.825	285.55
446.265	388.53
446.706	283.2
447.146	313.63
447.586	325.33
448.026	372.15
448.466	325.33
448.906	318.31
449.346	292.57
449.786	325.33
450.225	264.48
450.665	334.7
451.105	276.18
451.544	365.12
451.984	358.1
452.424	337.04
452.863	297.25
453.302	325.33
453.742	337.04
454.181	327.68
454.62	322.99
455.059	283.2
455.499	390.87
455.938	271.5
456.377	299.59
456.816	325.33
457.254	313.63
457.693	301.93
458.132	332.36
458.571	355.76
459.01	273.84
459.448	315.97
459.887	351.08
460.325	339.38
460.764	304.27
461.202	266.82
461.641	330.02
462.079	320.65
462.517	308.95
462.955	311.29
463.393	269.16
463.832	374.49
464.27	294.91
464.708	313.63
465.145	374.49
465.583	330.02
466.021	276.18
466.459	344.06
466.897	376.83
467.334	313.63
467.772	332.36
468.209	348.74
468.647	287.89
469.084	304.27
469.522	264.48
469.959	315.97
470.396	351.08
470.833	278.52
471.271	315.97
471.708	318.31
472.145	311.29
472.582	325.33
473.019	311.29
473.456	372.15
473.892	280.86
474.329	313.63
474.766	344.06
475.202	327.68
475.639	306.61
476.076	308.95
476.512	334.7
476.949	334.7
477.385	360.44
477.821	259.8
478.258	266.82
478.694	325.33
479.13	372.15
479.566	372.15
480.002	259.8
480.438	236.39
480.874	306.61
481.31	283.2
481.746	255.12
482.181	297.25
482.617	369.8
483.053	283.2
483.488	365.12
483.924	346.4
484.36	278.52
484.795	334.7
485.23	332.36
485.666	308.95
486.101	299.59
486.536	344.06
486.971	301.93
487.407	278.52
487.842	332.36
488.277	332.36
488.712	334.7
489.146	294.91
489.581	325.33
490.016	339.38
490.451	362.78
490.885	330.02
491.32	306.61
491.755	362.78
492.189	308.95
492.624	325.33
493.058	346.4
493.492	301.93
493.927	330.02
494.361	290.23
494.795	292.57
495.229	346.4
495.663	308.95
496.097	351.08
496.531	220.01
496.965	299.59
497.399	351.08
497.833	327.68
498.266	306.61
498.7	297.25
499.134	276.18
499.567	311.29
500.001	276.18
500.434	292.57
500.868	330.02
501.301	344.06
501.734	341.72
502.168	297.25
502.601	271.5
503.034	351.08
503.467	330.02
503.9	278.52
504.333	315.97
504.766	369.8
505.199	325.33
505.632	365.12
506.064	292.57
506.497	287.89
506.93	306.61
507.362	330.02
507.795	252.78
508.227	369.8
508.66	348.74
509.092	283.2
509.524	294.91
509.956	374.49
510.389	278.52
510.821	332.36
511.253	290.23
511.685	339.38
512.117	308.95
512.549	212.99
512.981	348.74
513.412	280.86
513.844	294.91
514.276	280.86
514.707	353.42
515.139	308.95
515.571	308.95
516.002	297.25
516.433	355.76
516.865	278.52
517.296	346.4
517.727	294.91
518.159	287.89
518.59	322.99
519.021	325.33
519.452	332.36
519.883	292.57
520.314	315.97
520.744	315.97
521.175	330.02
521.606	273.84
522.037	262.14
522.467	306.61
522.898	269.16
523.328	285.55
523.759	294.91
524.189	337.04
524.62	386.19
525.05	269.16
525.48	334.7
525.91	353.42
526.341	327.68
526.771	337.04
527.201	330.02
527.631	297.25
528.061	311.29
528.49	294.91
528.92	304.27
529.35	374.49
529.78	287.89
530.209	369.8
530.639	344.06
531.068	320.65
531.498	308.95
531.927	330.02
532.357	330.02
532.786	330.02
533.215	351.08
533.644	280.86
534.074	299.59
534.503	341.72
534.932	365.12
535.361	348.74
535.79	318.31
536.218	355.76
536.647	320.65
537.076	308.95
537.505	322.99
537.933	318.31
538.362	304.27
538.79	379.17
539.219	276.18
539.647	278.52
540.076	346.4
540.504	292.57
540.932	330.02
541.36	311.29
541.788	325.33
542.217	322.99
542.645	318.31
543.073	332.36
543.5	294.91
543.928	287.89
544.356	325.33
544.784	332.36
545.211	358.1
545.639	344.06
546.067	297.25
546.494	362.78
546.922	330.02
547.349	332.36
547.776	330.02
548.204	315.97
548.631	283.2
549.058	313.63
549.485	264.48
549.912	337.04
550.339	301.93
550.766	360.44
551.193	320.65
551.62	252.78
552.047	313.63
552.474	276.18
552.9	325.33
553.327	346.4
553.754	332.36
554.18	287.89
554.607	273.84
555.033	372.15
555.459	332.36
555.886	236.39
556.312	245.76
556.738	276.18
557.164	358.1
557.59	301.93
558.016	290.23
558.442	318.31
558.868	395.55
559.294	341.72
559.72	365.12
560.145	327.68
560.571	341.72
560.997	294.91
561.422	315.97
561.848	318.31
562.273	299.59
562.699	292.57
563.124	297.25
563.549	315.97
563.974	294.91
564.4	266.82
564.825	266.82
565.25	306.61
565.675	311.29
566.1	372.15
566.525	269.16
566.95	334.7
567.374	311.29
567.799	388.53
568.224	353.42
568.648	301.93
569.073	315.97
569.497	276.18
569.922	278.52
570.346	264.48
570.771	337.04
571.195	273.84
571.619	301.93
572.043	358.1
572.467	337.04
572.891	365.12
573.315	280.86
573.739	294.91
574.163	341.72
574.587	332.36
575.011	290.23
575.435	322.99
575.858	315.97
576.282	339.38
576.705	273.84
577.129	341.72
577.552	344.06
577.976	325.33
578.399	313.63
578.822	313.63
579.245	273.84
579.669	292.57
580.092	311.29
580.515	283.2
580.938	315.97
581.361	285.55
581.784	369.8
582.206	332.36
582.629	332.36
583.052	358.1
583.474	320.65
583.897	330.02
584.32	311.29
584.742	269.16
585.165	276.18
585.587	248.1
586.009	355.76
586.431	351.08
586.854	264.48
587.276	311.29
587.698	315.97
588.12	407.25
588.542	367.46
588.964	337.04
589.386	327.68
589.807	297.25
590.229	367.46
590.651	262.14
591.073	327.68
591.494	304.27
591.916	315.97
592.337	299.59
592.759	327.68
593.18	308.95
593.601	344.06
594.022	301.93
594.444	299.59
594.865	280.86
595.286	374.49
595.707	344.06
596.128	271.5
596.549	351.08
596.97	266.82
597.39	308.95
597.811	390.87
598.232	290.23
598.652	311.29
599.073	311.29
599.494	322.99
599.914	381.51
600.334	318.31
600.755	318.31
601.175	337.04
601.595	259.8
602.015	283.2
602.436	290.23
602.856	365.12
603.276	304.27
603.696	390.87
604.115	318.31
604.535	294.91
604.955	327.68
605.375	269.16
605.794	348.74
606.214	304.27
606.634	344.06
607.053	294.91
607.473	292.57
607.892	351.08
608.311	339.38
608.731	348.74
609.15	311.29
609.569	369.8
609.988	292.57
610.407	308.95
610.826	365.12
611.245	313.63
611.664	362.78
612.083	421.3
612.501	327.68
612.92	318.31
613.339	315.97
613.757	306.61
614.176	318.31
614.594	290.23
615.013	318.31
615.431	311.29
615.85	278.52
616.268	346.4
616.686	308.95
617.104	294.91
617.522	327.68
617.94	325.33
618.358	327.68
618.776	318.31
619.194	278.52
619.612	351.08
620.03	367.46
620.447	318.31
620.865	327.68
621.282	353.42
621.7	311.29
622.117	308.95
622.535	299.59
622.952	280.86
623.369	250.44
623.787	280.86
624.204	346.4
624.621	313.63
625.038	308.95
625.455	315.97
625.872	313.63
626.289	276.18
626.706	297.25
627.123	290.23
627.539	339.38
627.956	334.7
628.373	297.25
628.789	255.12
629.206	351.08
629.622	308.95
630.038	348.74
630.455	358.1
630.871	248.1
631.287	325.33
631.703	262.14
632.12	360.44
632.536	215.33
632.952	362.78
633.368	315.97
633.783	332.36
634.199	297.25
634.615	280.86
635.031	334.7
635.446	301.93
635.862	315.97
636.277	301.93
636.693	337.04
637.108	334.7
637.524	393.21
637.939	362.78
638.354	341.72
638.77	308.95
639.185	306.61
639.6	299.59
640.015	423.64
640.43	292.57
640.845	276.18
641.259	362.78
641.674	299.59
642.089	346.4
642.504	351.08
642.918	339.38
643.333	344.06
643.747	299.59
644.162	294.91
644.576	367.46
644.991	308.95
645.405	367.46
645.819	304.27
646.233	231.71
646.647	322.99
647.061	318.31
647.475	285.55
647.889	315.97
648.303	372.15
648.717	339.38
649.131	266.82
649.545	301.93
649.958	283.2
650.372	348.74
650.785	369.8
651.199	367.46
651.612	351.08
652.026	313.63
652.439	234.05
652.852	348.74
653.266	355.76
653.679	320.65
654.092	344.06
654.505	290.23
654.918	299.59
655.331	280.86
655.744	374.49
656.156	339.38
656.569	351.08
656.982	313.63
657.394	290.23
657.807	337.04
658.22	322.99
658.632	320.65
659.044	325.33
659.457	299.59
659.869	337.04
660.281	287.89
660.693	308.95
661.106	297.25
661.518	257.46
661.93	318.31
662.342	292.57
662.754	322.99
663.165	320.65
663.577	325.33
663.989	332.36
664.401	327.68
664.812	278.52
665.224	313.63
665.635	301.93
666.047	376.83
666.458	351.08
666.869	320.65
667.281	344.06
667.692	313.63
668.103	355.76
668.514	339.38
668.925	285.55
669.336	372.15
669.747	297.25
670.158	299.59
670.569	266.82
670.979	297.25
671.39	311.29
671.801	372.15
672.211	369.8
672.622	301.93
673.032	325.33
673.443	332.36
673.853	344.06
674.263	212.99
674.674	369.8
675.084	358.1
675.494	278.52
675.904	325.33
676.314	339.38
676.724	269.16
677.134	322.99
677.544	301.93
677.953	250.44
678.363	355.76
678.773	292.57
679.182	348.74
679.592	294.91
680.001	306.61
680.411	294.91
680.82	351.08
681.23	322.99
681.639	334.7
682.048	353.42
682.457	315.97
682.866	320.65
683.275	315.97
683.684	306.61
684.093	320.65
684.502	325.33
684.911	351.08
685.32	259.8
685.728	306.61
686.137	266.82
686.546	372.15
686.954	334.7
687.363	339.38
687.771	315.97
688.179	273.84
688.588	320.65
688.996	367.46
689.404	337.04
689.812	334.7
690.22	351.08
690.628	304.27
691.036	341.72
691.444	276.18
691.852	311.29
692.26	306.61
692.667	325.33
693.075	334.7
693.483	362.78
693.89	304.27
694.298	358.1
694.705	278.52
695.112	297.25
695.52	334.7
695.927	287.89
696.334	337.04
696.741	278.52
697.148	273.84
697.555	287.89
697.962	339.38
698.369	294.91
698.776	376.83
699.183	290.23
699.59	339.38
699.996	276.18
700.403	315.97
700.81	299.59
701.216	304.27
701.623	322.99
702.029	264.48
702.435	334.7
702.842	276.18
703.248	348.74
703.654	287.89
704.06	304.27
704.466	311.29
704.872	278.52
705.278	262.14
705.684	269.16
706.09	339.38
706.496	318.31
706.901	376.83
707.307	308.95
707.712	339.38
708.118	332.36
708.523	290.23
708.929	299.59
709.334	318.31
709.74	294.91
710.145	325.33
710.55	304.27
710.955	332.36
711.36	313.63
711.765	287.89
712.17	334.7
712.575	325.33
712.98	905.79
713.385	362.78
713.789	297.25
714.194	339.38
714.599	311.29
715.003	236.39
715.408	297.25
715.812	273.84
716.217	351.08
716.621	322.99
717.025	327.68
717.429	306.61
717.833	332.36
718.238	358.1
718.642	283.2
719.046	271.5
719.449	320.65
719.853	269.16
720.257	248.1
720.661	294.91
721.065	294.91
721.468	313.63
721.872	334.7
722.275	278.52
722.679	259.8
723.082	358.1
723.485	301.93
723.889	311.29
724.292	292.57
724.695	344.06
725.098	327.68
725.501	379.17
725.904	304.27
726.307	332.36
726.71	362.78
727.113	341.72
727.516	320.65
727.918	311.29
728.321	315.97
728.724	292.57
729.126	311.29
729.529	308.95
729.931	369.8
730.333	353.42
730.736	360.44
731.138	285.55
731.54	332.36
731.942	376.83
732.344	301.93
732.746	311.29
733.148	353.42
733.55	292.57
733.952	351.08
734.354	299.59
734.756	294.91
735.157	273.84
735.559	313.63
735.96	297.25
736.362	290.23
736.763	404.91
737.165	248.1
737.566	297.25
737.967	306.61
738.368	327.68
738.77	365.12
739.171	367.46
739.572	273.84
739.973	362.78
740.374	304.27
740.774	318.31
741.175	308.95
741.576	337.04
741.977	330.02
742.377	297.25
742.778	299.59
743.178	355.76
743.579	280.86
743.979	262.14
744.379	264.48
744.78	229.37
745.18	276.18
745.58	280.86
745.98	304.27
746.38	290.23
746.78	283.2
747.18	320.65
747.58	299.59
747.98	358.1
748.38	313.63
748.779	262.14
749.179	271.5
749.578	304.27
749.978	383.85
750.377	301.93
750.777	257.46
751.176	290.23
751.575	297.25
751.975	351.08
752.374	346.4
752.773	353.42
753.172	304.27
753.571	330.02
753.97	330.02
754.369	304.27
754.768	353.42
755.166	339.38
755.565	285.55
755.964	308.95
756.362	344.06
756.761	306.61
757.159	308.95
757.558	325.33
757.956	285.55
758.354	315.97
758.753	306.61
759.151	360.44
759.549	250.44
759.947	250.44
760.345	283.2
760.743	297.25
761.141	259.8
761.539	334.7
761.936	325.33
762.334	313.63
762.732	358.1
763.129	297.25
763.527	376.83
763.924	306.61
764.322	250.44
764.719	318.31
765.117	339.38
