Data from Al_FLMS009871__1189__16-40-38-882.txt Node

Date: Fri Mar 08 16:40:38 CST 2024
User: pe5414po
Spectrometer: FLMS00987
Trigger mode: 0
Integration Time (sec): 1.000000E-1
Scans to average: 1
Electric dark correction enabled: true
Nonlinearity correction enabled: false
Boxcar width: 0
XAxis mode: Wavelengths
Number of Pixels in Spectrum: 2048
>>>>>Begin Spectral Data<<<<<
188.938	-63.05
189.409	-63.05
189.879	-63.05
190.349	-119.22
190.819	-144.97
191.29	-142.63
191.76	-116.88
192.23	-51.35
192.7	-49
193.17	-49
193.64	-46.66
194.109	7.17
194.579	2.49
195.049	-32.62
195.519	-37.3
195.988	18.87
196.458	37.59
196.927	86.75
197.397	138.24
197.866	121.85
198.336	112.49
198.805	149.94
199.274	133.56
199.744	210.79
200.213	224.84
200.682	168.66
201.151	154.62
201.62	241.22
202.089	222.5
202.558	290.37
203.027	243.56
203.495	264.63
203.964	266.97
204.433	281.01
204.902	163.98
205.37	323.14
205.839	269.31
206.307	292.71
206.776	276.33
207.244	264.63
207.712	259.95
208.181	355.91
208.649	273.99
209.117	316.12
209.585	339.52
210.053	304.42
210.521	271.65
210.989	255.26
211.457	271.65
211.925	259.95
212.393	250.58
212.861	257.61
213.328	306.76
213.796	285.69
214.264	248.24
214.731	224.84
215.199	288.03
215.666	290.37
216.133	250.58
216.601	297.39
217.068	290.37
217.535	220.16
218.003	257.61
218.47	201.43
218.937	234.2
219.404	271.65
219.871	283.35
220.338	231.86
220.805	259.95
221.271	271.65
221.738	266.97
222.205	250.58
222.671	229.52
223.138	210.79
223.605	206.11
224.071	245.9
224.538	290.37
225.004	213.14
225.47	255.26
225.937	295.05
226.403	288.03
226.869	252.92
227.335	262.29
227.801	264.63
228.267	236.54
228.733	201.43
229.199	257.61
229.665	248.24
230.131	269.31
230.597	288.03
231.062	297.39
231.528	180.37
231.994	217.82
232.459	290.37
232.925	266.97
233.39	337.18
233.856	231.86
234.321	250.58
234.786	285.69
235.252	231.86
235.717	271.65
236.182	257.61
236.647	224.84
237.112	311.44
237.577	304.42
238.042	210.79
238.507	255.26
238.972	257.61
239.436	250.58
239.901	222.5
240.366	283.35
240.83	283.35
241.295	236.54
241.76	238.88
242.224	210.79
242.688	259.95
243.153	316.12
243.617	264.63
244.081	222.5
244.545	236.54
245.01	313.78
245.474	262.29
245.938	288.03
246.402	346.55
246.866	278.67
247.33	255.26
247.793	271.65
248.257	351.23
248.721	234.2
249.185	290.37
249.648	236.54
250.112	266.97
250.575	241.22
251.039	229.52
251.502	257.61
251.965	278.67
252.429	259.95
252.892	266.97
253.355	217.82
253.818	241.22
254.281	290.37
254.744	257.61
255.207	316.12
255.67	213.14
256.133	238.88
256.596	323.14
257.059	278.67
257.522	276.33
257.984	224.84
258.447	264.63
258.909	283.35
259.372	290.37
259.834	278.67
260.297	248.24
260.759	259.95
261.221	241.22
261.684	243.56
262.146	281.01
262.608	236.54
263.07	299.73
263.532	238.88
263.994	309.1
264.456	351.23
264.918	241.22
265.38	271.65
265.842	288.03
266.303	290.37
266.765	292.71
267.227	262.29
267.688	346.55
268.15	229.52
268.611	248.24
269.072	241.22
269.534	234.2
269.995	248.24
270.456	316.12
270.918	259.95
271.379	271.65
271.84	248.24
272.301	269.31
272.762	266.97
273.223	234.2
273.684	341.86
274.144	227.18
274.605	257.61
275.066	320.8
275.527	224.84
275.987	227.18
276.448	344.21
276.908	273.99
277.369	306.76
277.829	234.2
278.289	231.86
278.75	276.33
279.21	334.84
279.67	313.78
280.13	309.1
280.59	318.46
281.05	288.03
281.51	379.31
281.97	292.71
282.43	309.1
282.89	313.78
283.35	266.97
283.809	311.44
284.269	325.48
284.729	257.61
285.188	306.76
285.648	217.82
286.107	278.67
286.567	285.69
287.026	217.82
287.485	266.97
287.944	316.12
288.404	304.42
288.863	255.26
289.322	288.03
289.781	311.44
290.24	285.69
290.699	269.31
291.158	320.8
291.616	285.69
292.075	311.44
292.534	325.48
292.992	309.1
293.451	288.03
293.91	208.45
294.368	292.71
294.827	215.48
295.285	266.97
295.743	295.05
296.202	283.35
296.66	348.89
297.118	281.01
297.576	264.63
298.034	302.08
298.492	306.76
298.95	325.48
299.408	252.92
299.866	316.12
300.324	250.58
300.781	337.18
301.239	346.55
301.697	262.29
302.154	257.61
302.612	257.61
303.069	257.61
303.527	285.69
303.984	295.05
304.441	292.71
304.899	269.31
305.356	306.76
305.813	297.39
306.27	283.35
306.727	297.39
307.184	360.59
307.641	262.29
308.098	271.65
308.555	269.31
309.012	323.14
309.468	255.26
309.925	299.73
310.382	309.1
310.838	318.46
311.295	372.29
311.751	306.76
312.208	323.14
312.664	304.42
313.12	220.16
313.577	271.65
314.033	318.46
314.489	325.48
314.945	311.44
315.401	311.44
315.857	341.86
316.313	304.42
316.769	262.29
317.225	245.9
317.681	302.08
318.136	288.03
318.592	283.35
319.048	323.14
319.503	292.71
319.959	259.95
320.414	266.97
320.869	255.26
321.325	278.67
321.78	297.39
322.235	341.86
322.691	255.26
323.146	330.16
323.601	276.33
324.056	323.14
324.511	395.7
324.966	255.26
325.421	330.16
325.875	330.16
326.33	306.76
326.785	236.54
327.24	288.03
327.694	297.39
328.149	269.31
328.603	243.56
329.058	334.84
329.512	248.24
329.966	313.78
330.421	346.55
330.875	281.01
331.329	281.01
331.783	273.99
332.237	362.93
332.691	276.33
333.145	332.5
333.599	271.65
334.053	306.76
334.507	252.92
334.96	250.58
335.414	278.67
335.868	290.37
336.321	257.61
336.775	271.65
337.228	285.69
337.682	327.82
338.135	295.05
338.588	194.41
339.042	262.29
339.495	339.52
339.948	304.42
340.401	297.39
340.854	266.97
341.307	295.05
341.76	348.89
342.213	334.84
342.666	295.05
343.119	325.48
343.571	334.84
344.024	273.99
344.477	323.14
344.929	222.5
345.382	299.73
345.834	337.18
346.287	264.63
346.739	278.67
347.191	285.69
347.644	304.42
348.096	266.97
348.548	302.08
349	281.01
349.452	325.48
349.904	255.26
350.356	334.84
350.808	316.12
351.26	346.55
351.711	285.69
352.163	283.35
352.615	262.29
353.066	304.42
353.518	290.37
353.969	288.03
354.421	283.35
354.872	327.82
355.324	245.9
355.775	341.86
356.226	332.5
356.677	334.84
357.128	276.33
357.579	362.93
358.03	264.63
358.481	297.39
358.932	332.5
359.383	320.8
359.834	327.82
360.285	259.95
360.735	271.65
361.186	320.8
361.637	302.08
362.087	295.05
362.538	318.46
362.988	337.18
363.438	302.08
363.889	288.03
364.339	269.31
364.789	290.37
365.239	360.59
365.689	353.57
366.139	313.78
366.589	323.14
367.039	299.73
367.489	245.9
367.939	304.42
368.389	302.08
368.839	358.25
369.288	309.1
369.738	250.58
370.187	311.44
370.637	199.09
371.086	255.26
371.536	369.95
371.985	266.97
372.434	227.18
372.884	311.44
373.333	278.67
373.782	269.31
374.231	306.76
374.68	311.44
375.129	245.9
375.578	290.37
376.027	332.5
376.475	243.56
376.924	372.29
377.373	362.93
377.822	281.01
378.27	292.71
378.719	337.18
379.167	285.69
379.616	285.69
380.064	327.82
380.512	311.44
380.961	332.5
381.409	297.39
381.857	222.5
382.305	234.2
382.753	306.76
383.201	358.25
383.649	313.78
384.097	351.23
384.545	276.33
384.992	332.5
385.44	316.12
385.888	344.21
386.335	292.71
386.783	231.86
387.231	358.25
387.678	327.82
388.125	257.61
388.573	316.12
389.02	285.69
389.467	297.39
389.914	346.55
390.362	269.31
390.809	365.27
391.256	362.93
391.703	266.97
392.15	341.86
392.596	346.55
393.043	295.05
393.49	313.78
393.937	283.35
394.383	325.48
394.83	327.82
395.276	292.71
395.723	236.54
396.169	250.58
396.616	243.56
397.062	304.42
397.508	330.16
397.954	320.8
398.401	304.42
398.847	285.69
399.293	264.63
399.739	297.39
400.185	273.99
400.631	316.12
401.076	269.31
401.522	264.63
401.968	295.05
402.414	297.39
402.859	327.82
403.305	262.29
403.75	292.71
404.196	302.08
404.641	304.42
405.086	327.82
405.532	304.42
405.977	278.67
406.422	255.26
406.867	231.86
407.312	295.05
407.757	339.52
408.202	327.82
408.647	288.03
409.092	299.73
409.537	311.44
409.982	316.12
410.426	332.5
410.871	299.73
411.316	281.01
411.76	320.8
412.205	318.46
412.649	330.16
413.093	266.97
413.538	351.23
413.982	330.16
414.426	257.61
414.87	273.99
415.314	306.76
415.758	320.8
416.202	330.16
416.646	292.71
417.09	283.35
417.534	327.82
417.978	288.03
418.421	311.44
418.865	255.26
419.309	264.63
419.752	299.73
420.196	351.23
420.639	376.97
421.083	344.21
421.526	316.12
421.969	252.92
422.412	302.08
422.856	334.84
423.299	285.69
423.742	346.55
424.185	262.29
424.628	269.31
425.071	369.95
425.513	250.58
425.956	271.65
426.399	332.5
426.842	365.27
427.284	348.89
427.727	323.14
428.169	299.73
428.612	283.35
429.054	295.05
429.497	217.82
429.939	344.21
430.381	281.01
430.823	316.12
431.265	348.89
431.707	311.44
432.149	285.69
432.591	365.27
433.033	304.42
433.475	245.9
433.917	269.31
434.359	320.8
434.8	351.23
435.242	250.58
435.684	278.67
436.125	290.37
436.567	353.57
437.008	292.71
437.449	309.1
437.891	337.18
438.332	365.27
438.773	309.1
439.214	311.44
439.656	295.05
440.097	332.5
440.538	323.14
440.978	276.33
441.419	273.99
441.86	264.63
442.301	320.8
442.742	288.03
443.182	288.03
443.623	325.48
444.063	259.95
444.504	325.48
444.944	281.01
445.385	332.5
445.825	323.14
446.265	262.29
446.706	313.78
447.146	327.82
447.586	259.95
448.026	245.9
448.466	327.82
448.906	273.99
449.346	257.61
449.786	266.97
450.225	316.12
450.665	346.55
451.105	306.76
451.544	278.67
451.984	278.67
452.424	323.14
452.863	341.86
453.302	285.69
453.742	299.73
454.181	318.46
454.62	325.48
455.059	273.99
455.499	292.71
455.938	290.37
456.377	290.37
456.816	332.5
457.254	269.31
457.693	325.48
458.132	243.56
458.571	295.05
459.01	344.21
459.448	369.95
459.887	266.97
460.325	304.42
460.764	330.16
461.202	290.37
461.641	325.48
462.079	330.16
462.517	302.08
462.955	320.8
463.393	266.97
463.832	323.14
464.27	283.35
464.708	264.63
465.145	339.52
465.583	278.67
466.021	292.71
466.459	288.03
466.897	316.12
467.334	353.57
467.772	285.69
468.209	255.26
468.647	243.56
469.084	313.78
469.522	309.1
469.959	264.63
470.396	372.29
470.833	341.86
471.271	283.35
471.708	337.18
472.145	273.99
472.582	304.42
473.019	278.67
473.456	325.48
473.892	327.82
474.329	316.12
474.766	278.67
475.202	323.14
475.639	281.01
476.076	369.95
476.512	318.46
476.949	257.61
477.385	283.35
477.821	313.78
478.258	325.48
478.694	318.46
479.13	217.82
479.566	339.52
480.002	320.8
480.438	332.5
480.874	337.18
481.31	316.12
481.746	297.39
482.181	297.39
482.617	297.39
483.053	276.33
483.488	257.61
483.924	281.01
484.36	337.18
484.795	266.97
485.23	297.39
485.666	245.9
486.101	332.5
486.536	266.97
486.971	334.84
487.407	276.33
487.842	302.08
488.277	264.63
488.712	278.67
489.146	313.78
489.581	302.08
490.016	297.39
490.451	311.44
490.885	313.78
491.32	311.44
491.755	325.48
492.189	271.65
492.624	320.8
493.058	302.08
493.492	259.95
493.927	295.05
494.361	337.18
494.795	334.84
495.229	311.44
495.663	355.91
496.097	311.44
496.531	323.14
496.965	309.1
497.399	334.84
497.833	295.05
498.266	339.52
498.7	353.57
499.134	290.37
499.567	327.82
500.001	288.03
500.434	297.39
500.868	229.52
501.301	323.14
501.734	304.42
502.168	252.92
502.601	248.24
503.034	278.67
503.467	278.67
503.9	255.26
504.333	290.37
504.766	334.84
505.199	355.91
505.632	332.5
506.064	344.21
506.497	337.18
506.93	295.05
507.362	327.82
507.795	311.44
508.227	299.73
508.66	257.61
509.092	320.8
509.524	318.46
509.956	306.76
510.389	238.88
510.821	311.44
511.253	330.16
511.685	341.86
512.117	243.56
512.549	236.54
512.981	288.03
513.412	259.95
513.844	306.76
514.276	327.82
514.707	245.9
515.139	295.05
515.571	355.91
516.002	243.56
516.433	271.65
516.865	325.48
517.296	273.99
517.727	304.42
518.159	248.24
518.59	318.46
519.021	290.37
519.452	273.99
519.883	316.12
520.314	348.89
520.744	313.78
521.175	346.55
521.606	283.35
522.037	271.65
522.467	330.16
522.898	306.76
523.328	323.14
523.759	288.03
524.189	304.42
524.62	339.52
525.05	337.18
525.48	264.63
525.91	398.04
526.341	316.12
526.771	311.44
527.201	285.69
527.631	302.08
528.061	339.52
528.49	313.78
528.92	241.22
529.35	306.76
529.78	330.16
530.209	222.5
530.639	316.12
531.068	327.82
531.498	276.33
531.927	311.44
532.357	332.5
532.786	341.86
533.215	313.78
533.644	273.99
534.074	325.48
534.503	297.39
534.932	381.65
535.361	306.76
535.79	259.95
536.218	346.55
536.647	346.55
537.076	323.14
537.505	337.18
537.933	318.46
538.362	323.14
538.79	285.69
539.219	353.57
539.647	290.37
540.076	318.46
540.504	283.35
540.932	302.08
541.36	313.78
541.788	295.05
542.217	271.65
542.645	269.31
543.073	269.31
543.5	358.25
543.928	348.89
544.356	285.69
544.784	327.82
545.211	281.01
545.639	334.84
546.067	269.31
546.494	302.08
546.922	299.73
547.349	252.92
547.776	337.18
548.204	257.61
548.631	250.58
549.058	313.78
549.485	266.97
549.912	276.33
550.339	283.35
550.766	276.33
551.193	316.12
551.62	330.16
552.047	311.44
552.474	330.16
552.9	302.08
553.327	276.33
553.754	339.52
554.18	330.16
554.607	330.16
555.033	367.61
555.459	362.93
555.886	358.25
556.312	362.93
556.738	306.76
557.164	236.54
557.59	304.42
558.016	241.22
558.442	332.5
558.868	318.46
559.294	283.35
559.72	259.95
560.145	281.01
560.571	320.8
560.997	271.65
561.422	353.57
561.848	313.78
562.273	346.55
562.699	316.12
563.124	243.56
563.549	271.65
563.974	306.76
564.4	290.37
564.825	304.42
565.25	337.18
565.675	285.69
566.1	299.73
566.525	309.1
566.95	311.44
567.374	290.37
567.799	306.76
568.224	285.69
568.648	313.78
569.073	358.25
569.497	327.82
569.922	299.73
570.346	269.31
570.771	381.65
571.195	325.48
571.619	243.56
572.043	299.73
572.467	276.33
572.891	299.73
573.315	271.65
573.739	271.65
574.163	313.78
574.587	362.93
575.011	323.14
575.435	351.23
575.858	337.18
576.282	297.39
576.705	234.2
577.129	306.76
577.552	325.48
577.976	323.14
578.399	248.24
578.822	313.78
579.245	304.42
579.669	276.33
580.092	297.39
580.515	353.57
580.938	344.21
581.361	241.22
581.784	358.25
582.206	355.91
582.629	318.46
583.052	332.5
583.474	369.95
583.897	334.84
584.32	295.05
584.742	215.48
585.165	269.31
585.587	302.08
586.009	276.33
586.431	297.39
586.854	271.65
587.276	295.05
587.698	330.16
588.12	273.99
588.542	309.1
588.964	281.01
589.386	273.99
589.807	255.26
590.229	273.99
590.651	252.92
591.073	304.42
591.494	325.48
591.916	288.03
592.337	344.21
592.759	313.78
593.18	325.48
593.601	299.73
594.022	295.05
594.444	309.1
594.865	288.03
595.286	313.78
595.707	318.46
596.128	264.63
596.549	318.46
596.97	351.23
597.39	311.44
597.811	313.78
598.232	255.26
598.652	318.46
599.073	255.26
599.494	348.89
599.914	283.35
600.334	325.48
600.755	323.14
601.175	297.39
601.595	330.16
602.015	330.16
602.436	299.73
602.856	409.74
603.276	271.65
603.696	278.67
604.115	250.58
604.535	299.73
604.955	318.46
605.375	304.42
605.794	323.14
606.214	266.97
606.634	318.46
607.053	323.14
607.473	297.39
607.892	320.8
608.311	241.22
608.731	318.46
609.15	339.52
609.569	266.97
609.988	325.48
610.407	341.86
610.826	266.97
611.245	316.12
611.664	334.84
612.083	360.59
612.501	311.44
612.92	278.67
613.339	309.1
613.757	318.46
614.176	325.48
614.594	386.33
615.013	248.24
615.431	257.61
615.85	369.95
616.268	327.82
616.686	311.44
617.104	283.35
617.522	358.25
617.94	306.76
618.358	281.01
618.776	273.99
619.194	278.67
619.612	288.03
620.03	309.1
620.447	309.1
620.865	311.44
621.282	318.46
621.7	388.68
622.117	290.37
622.535	351.23
622.952	348.89
623.369	309.1
623.787	311.44
624.204	285.69
624.621	292.71
625.038	316.12
625.455	341.86
625.872	362.93
626.289	297.39
626.706	348.89
627.123	238.88
627.539	283.35
627.956	281.01
628.373	252.92
628.789	297.39
629.206	348.89
629.622	259.95
630.038	332.5
630.455	318.46
630.871	304.42
631.287	273.99
631.703	285.69
632.12	334.84
632.536	309.1
632.952	316.12
633.368	353.57
633.783	339.52
634.199	351.23
634.615	271.65
635.031	248.24
635.446	327.82
635.862	381.65
636.277	311.44
636.693	323.14
637.108	283.35
637.524	360.59
637.939	304.42
638.354	302.08
638.77	297.39
639.185	255.26
639.6	320.8
640.015	302.08
640.43	325.48
640.845	257.61
641.259	302.08
641.674	302.08
642.089	358.25
642.504	281.01
642.918	255.26
643.333	273.99
643.747	325.48
644.162	288.03
644.576	295.05
644.991	344.21
645.405	344.21
645.819	341.86
646.233	238.88
646.647	344.21
647.061	318.46
647.475	299.73
647.889	245.9
648.303	306.76
648.717	318.46
649.131	285.69
649.545	332.5
649.958	288.03
650.372	281.01
650.785	323.14
651.199	278.67
651.612	245.9
652.026	309.1
652.439	281.01
652.852	297.39
653.266	351.23
653.679	297.39
654.092	337.18
654.505	318.46
654.918	346.55
655.331	330.16
655.744	281.01
656.156	285.69
656.569	276.33
656.982	285.69
657.394	409.74
657.807	271.65
658.22	278.67
658.632	255.26
659.044	259.95
659.457	276.33
659.869	309.1
660.281	281.01
660.693	320.8
661.106	351.23
661.518	306.76
661.93	220.16
662.342	313.78
662.754	250.58
663.165	325.48
663.577	332.5
663.989	297.39
664.401	311.44
664.812	299.73
665.224	285.69
665.635	297.39
666.047	304.42
666.458	302.08
666.869	341.86
667.281	358.25
667.692	295.05
668.103	325.48
668.514	245.9
668.925	283.35
669.336	288.03
669.747	344.21
670.158	276.33
670.569	259.95
670.979	269.31
671.39	318.46
671.801	290.37
672.211	348.89
672.622	318.46
673.032	271.65
673.443	313.78
673.853	323.14
674.263	320.8
674.674	295.05
675.084	210.79
675.494	250.58
675.904	311.44
676.314	288.03
676.724	297.39
677.134	348.89
677.544	281.01
677.953	288.03
678.363	299.73
678.773	304.42
679.182	297.39
679.592	252.92
680.001	281.01
680.411	323.14
680.82	316.12
681.23	323.14
681.639	262.29
682.048	290.37
682.457	259.95
682.866	257.61
683.275	302.08
683.684	346.55
684.093	309.1
684.502	351.23
684.911	278.67
685.32	320.8
685.728	337.18
686.137	290.37
686.546	259.95
686.954	327.82
687.363	292.71
687.771	304.42
688.179	337.18
688.588	355.91
688.996	229.52
689.404	264.63
689.812	334.84
690.22	266.97
690.628	351.23
691.036	325.48
691.444	292.71
691.852	341.86
692.26	302.08
692.667	372.29
693.075	341.86
693.483	259.95
693.89	306.76
694.298	292.71
694.705	304.42
695.112	288.03
695.52	295.05
695.927	271.65
696.334	302.08
696.741	311.44
697.148	252.92
697.555	283.35
697.962	271.65
698.369	292.71
698.776	269.31
699.183	299.73
699.59	241.22
699.996	327.82
700.403	344.21
700.81	290.37
701.216	323.14
701.623	295.05
702.029	290.37
702.435	313.78
702.842	327.82
703.248	175.69
703.654	292.71
704.06	262.29
704.466	269.31
704.872	266.97
705.278	341.86
705.684	278.67
706.09	309.1
706.496	290.37
706.901	320.8
707.307	302.08
707.712	351.23
708.118	318.46
708.523	257.61
708.929	344.21
709.334	334.84
709.74	259.95
710.145	229.52
710.55	292.71
710.955	309.1
711.36	290.37
711.765	285.69
712.17	269.31
712.575	306.76
712.98	814.65
713.385	346.55
713.789	269.31
714.194	257.61
714.599	318.46
715.003	351.23
715.408	341.86
715.812	257.61
716.217	302.08
716.621	257.61
717.025	292.71
717.429	269.31
717.833	367.61
718.238	353.57
718.642	311.44
719.046	283.35
719.449	295.05
719.853	325.48
720.257	295.05
720.661	334.84
721.065	316.12
721.468	297.39
721.872	285.69
722.275	278.67
722.679	234.2
723.082	266.97
723.485	318.46
723.889	283.35
724.292	262.29
724.695	266.97
725.098	297.39
725.501	355.91
725.904	288.03
726.307	351.23
726.71	334.84
727.113	304.42
727.516	323.14
727.918	327.82
728.321	348.89
728.724	238.88
729.126	344.21
729.529	311.44
729.931	337.18
730.333	292.71
730.736	339.52
731.138	309.1
731.54	306.76
731.942	262.29
732.344	250.58
732.746	358.25
733.148	276.33
733.55	323.14
733.952	285.69
734.354	281.01
734.756	311.44
735.157	236.54
735.559	231.86
735.96	320.8
736.362	281.01
736.763	325.48
737.165	325.48
737.566	337.18
737.967	288.03
738.368	309.1
738.77	285.69
739.171	285.69
739.572	318.46
739.973	290.37
740.374	332.5
740.774	302.08
741.175	269.31
741.576	257.61
741.977	285.69
742.377	330.16
742.778	297.39
743.178	341.86
743.579	259.95
743.979	306.76
744.379	316.12
744.78	243.56
745.18	255.26
745.58	271.65
745.98	285.69
746.38	281.01
746.78	262.29
747.18	316.12
747.58	238.88
747.98	320.8
748.38	299.73
748.779	304.42
749.179	299.73
749.578	330.16
749.978	362.93
750.377	337.18
750.777	306.76
751.176	332.5
751.575	273.99
751.975	262.29
752.374	323.14
752.773	262.29
753.172	302.08
753.571	269.31
753.97	360.59
754.369	288.03
754.768	210.79
755.166	320.8
755.565	243.56
755.964	283.35
756.362	248.24
756.761	302.08
757.159	297.39
757.558	327.82
757.956	330.16
758.354	311.44
758.753	245.9
759.151	346.55
759.549	323.14
759.947	320.8
760.345	283.35
760.743	306.76
761.141	309.1
761.539	273.99
761.936	283.35
762.334	273.99
762.732	313.78
763.129	323.14
763.527	273.99
763.924	288.03
764.322	288.03
