Data from Al_FLMS009871__1198__16-40-39-782.txt Node

Date: Fri Mar 08 16:40:39 CST 2024
User: pe5414po
Spectrometer: FLMS00987
Trigger mode: 0
Integration Time (sec): 1.000000E-1
Scans to average: 1
Electric dark correction enabled: true
Nonlinearity correction enabled: false
Boxcar width: 0
XAxis mode: Wavelengths
Number of Pixels in Spectrum: 2048
>>>>>Begin Spectral Data<<<<<
188.938	-24.87
189.409	-24.87
189.879	-24.87
190.349	-111.47
190.819	-116.15
191.29	-59.98
191.76	-102.11
192.23	-111.47
192.7	-111.47
193.17	-52.95
193.64	-6.14
194.109	-27.21
194.579	38.33
195.049	-41.25
195.519	-27.21
195.988	33.65
196.458	43.01
196.927	117.9
197.397	12.58
197.866	150.67
198.336	143.65
198.805	78.12
199.274	153.01
199.744	192.8
200.213	211.53
200.682	267.7
201.151	244.29
201.62	206.84
202.089	213.87
202.558	302.81
203.027	284.08
203.495	258.34
203.964	305.15
204.433	298.13
204.902	248.97
205.37	281.74
205.839	288.76
206.307	265.36
206.776	298.13
207.244	302.81
207.712	337.91
208.181	293.44
208.649	281.74
209.117	270.04
209.585	333.23
210.053	291.1
210.521	253.66
210.989	272.38
211.457	312.17
211.925	274.72
212.393	267.7
212.861	192.8
213.328	286.42
213.796	286.42
214.264	234.93
214.731	256
215.199	232.59
215.666	274.72
216.133	307.49
216.601	234.93
217.068	244.29
217.535	274.72
218.003	277.06
218.47	302.81
218.937	295.79
219.404	272.38
219.871	281.74
220.338	279.4
220.805	263.02
221.271	246.63
221.738	267.7
222.205	277.06
222.671	265.36
223.138	169.4
223.605	263.02
224.071	307.49
224.538	358.98
225.004	319.19
225.47	202.16
225.937	277.06
226.403	340.26
226.869	263.02
227.335	277.06
227.801	256
228.267	237.27
228.733	258.34
229.199	272.38
229.665	274.72
230.131	277.06
230.597	258.34
231.062	279.4
231.528	267.7
231.994	267.7
232.459	246.63
232.925	270.04
233.39	237.27
233.856	209.19
234.321	284.08
234.786	295.79
235.252	288.76
235.717	267.7
236.182	234.93
236.647	342.6
237.112	293.44
237.577	335.57
238.042	279.4
238.507	305.15
238.972	288.76
239.436	286.42
239.901	326.21
240.366	270.04
240.83	265.36
241.295	274.72
241.76	260.68
242.224	270.04
242.688	274.72
243.153	230.25
243.617	234.93
244.081	307.49
244.545	293.44
245.01	216.21
245.474	274.72
245.938	281.74
246.402	218.55
246.866	286.42
247.33	263.02
247.793	272.38
248.257	295.79
248.721	281.74
249.185	298.13
249.648	342.6
250.112	305.15
250.575	288.76
251.039	253.66
251.502	265.36
251.965	288.76
252.429	218.55
252.892	288.76
253.355	267.7
253.818	263.02
254.281	284.08
254.744	272.38
255.207	288.76
255.67	302.81
256.133	305.15
256.596	314.51
257.059	234.93
257.522	279.4
257.984	295.79
258.447	288.76
258.909	288.76
259.372	300.47
259.834	260.68
260.297	293.44
260.759	260.68
261.221	284.08
261.684	281.74
262.146	279.4
262.608	277.06
263.07	246.63
263.532	248.97
263.994	314.51
264.456	284.08
264.918	293.44
265.38	309.83
265.842	298.13
266.303	330.89
266.765	342.6
267.227	277.06
267.688	342.6
268.15	335.57
268.611	319.19
269.072	307.49
269.534	284.08
269.995	232.59
270.456	284.08
270.918	281.74
271.379	227.91
271.84	286.42
272.301	288.76
272.762	319.19
273.223	258.34
273.684	258.34
274.144	335.57
274.605	326.21
275.066	328.55
275.527	246.63
275.987	293.44
276.448	251.32
276.908	312.17
277.369	305.15
277.829	319.19
278.289	211.53
278.75	302.81
279.21	305.15
279.67	330.89
280.13	356.64
280.59	256
281.05	342.6
281.51	321.53
281.97	319.19
282.43	319.19
282.89	370.68
283.35	298.13
283.809	323.87
284.269	319.19
284.729	295.79
285.188	340.26
285.648	330.89
286.107	302.81
286.567	281.74
287.026	298.13
287.485	291.1
287.944	319.19
288.404	300.47
288.863	319.19
289.322	340.26
289.781	366
290.24	314.51
290.699	234.93
291.158	291.1
291.616	277.06
292.075	314.51
292.534	302.81
292.992	328.55
293.451	234.93
293.91	284.08
294.368	293.44
294.827	295.79
295.285	281.74
295.743	248.97
296.202	337.91
296.66	277.06
297.118	274.72
297.576	305.15
298.034	307.49
298.492	216.21
298.95	279.4
299.408	286.42
299.866	260.68
300.324	284.08
300.781	342.6
301.239	307.49
301.697	260.68
302.154	237.27
302.612	277.06
303.069	265.36
303.527	293.44
303.984	279.4
304.441	342.6
304.899	321.53
305.356	295.79
305.813	281.74
306.27	302.81
306.727	274.72
307.184	309.83
307.641	274.72
308.098	323.87
308.555	323.87
309.012	277.06
309.468	295.79
309.925	309.83
310.382	321.53
310.838	270.04
311.295	279.4
311.751	256
312.208	328.55
312.664	286.42
313.12	293.44
313.577	298.13
314.033	295.79
314.489	253.66
314.945	363.66
315.401	314.51
315.857	284.08
316.313	298.13
316.769	291.1
317.225	316.85
317.681	344.94
318.136	300.47
318.592	246.63
319.048	281.74
319.503	251.32
319.959	302.81
320.414	291.1
320.869	305.15
321.325	328.55
321.78	223.23
322.235	291.1
322.691	333.23
323.146	270.04
323.601	272.38
324.056	344.94
324.511	314.51
324.966	344.94
325.421	288.76
325.875	314.51
326.33	279.4
326.785	302.81
327.24	265.36
327.694	241.95
328.149	232.59
328.603	321.53
329.058	272.38
329.512	272.38
329.966	326.21
330.421	335.57
330.875	380.04
331.329	351.96
331.783	263.02
332.237	321.53
332.691	340.26
333.145	354.3
333.599	270.04
334.053	286.42
334.507	295.79
334.96	337.91
335.414	298.13
335.868	307.49
336.321	307.49
336.775	293.44
337.228	319.19
337.682	241.95
338.135	302.81
338.588	270.04
339.042	291.1
339.495	281.74
339.948	302.81
340.401	216.21
340.854	302.81
341.307	258.34
341.76	366
342.213	319.19
342.666	234.93
343.119	328.55
343.571	349.62
344.024	337.91
344.477	295.79
344.929	319.19
345.382	286.42
345.834	342.6
346.287	375.36
346.739	293.44
347.191	281.74
347.644	260.68
348.096	326.21
348.548	263.02
349	337.91
349.452	267.7
349.904	312.17
350.356	270.04
350.808	277.06
351.26	281.74
351.711	298.13
352.163	295.79
352.615	368.34
353.066	270.04
353.518	361.32
353.969	316.85
354.421	227.91
354.872	286.42
355.324	284.08
355.775	288.76
356.226	344.94
356.677	309.83
357.128	302.81
357.579	337.91
358.03	340.26
358.481	326.21
358.932	328.55
359.383	305.15
359.834	314.51
360.285	319.19
360.735	326.21
361.186	361.32
361.637	279.4
362.087	382.39
362.538	277.06
362.988	316.85
363.438	316.85
363.889	321.53
364.339	377.7
364.789	288.76
365.239	284.08
365.689	377.7
366.139	342.6
366.589	314.51
367.039	265.36
367.489	291.1
367.939	342.6
368.389	321.53
368.839	373.02
369.288	253.66
369.738	333.23
370.187	270.04
370.637	295.79
371.086	382.39
371.536	263.02
371.985	326.21
372.434	279.4
372.884	288.76
373.333	204.5
373.782	291.1
374.231	330.89
374.68	270.04
375.129	251.32
375.578	260.68
376.027	295.79
376.475	263.02
376.924	251.32
377.373	312.17
377.822	298.13
378.27	354.3
378.719	319.19
379.167	274.72
379.616	309.83
380.064	298.13
380.512	293.44
380.961	333.23
381.409	300.47
381.857	305.15
382.305	391.75
382.753	337.91
383.201	344.94
383.649	309.83
384.097	265.36
384.545	307.49
384.992	319.19
385.44	358.98
385.888	351.96
386.335	281.74
386.783	354.3
387.231	263.02
387.678	356.64
388.125	335.57
388.573	342.6
389.02	284.08
389.467	300.47
389.914	309.83
390.362	251.32
390.809	302.81
391.256	309.83
391.703	356.64
392.15	351.96
392.596	326.21
393.043	314.51
393.49	272.38
393.937	323.87
394.383	335.57
394.83	316.85
395.276	288.76
395.723	220.89
396.169	326.21
396.616	246.63
397.062	284.08
397.508	316.85
397.954	326.21
398.401	340.26
398.847	361.32
399.293	300.47
399.739	340.26
400.185	312.17
400.631	351.96
401.076	270.04
401.522	281.74
401.968	328.55
402.414	309.83
402.859	330.89
403.305	330.89
403.75	202.16
404.196	314.51
404.641	300.47
405.086	323.87
405.532	342.6
405.977	326.21
406.422	312.17
406.867	319.19
407.312	335.57
407.757	340.26
408.202	279.4
408.647	305.15
409.092	328.55
409.537	251.32
409.982	300.47
410.426	265.36
410.871	321.53
411.316	295.79
411.76	340.26
412.205	281.74
412.649	314.51
413.093	286.42
413.538	321.53
413.982	281.74
414.426	277.06
414.87	363.66
415.314	344.94
415.758	291.1
416.202	337.91
416.646	284.08
417.09	288.76
417.534	335.57
417.978	319.19
418.421	342.6
418.865	351.96
419.309	307.49
419.752	321.53
420.196	333.23
420.639	349.62
421.083	293.44
421.526	298.13
421.969	314.51
422.412	335.57
422.856	272.38
423.299	323.87
423.742	302.81
424.185	344.94
424.628	312.17
425.071	309.83
425.513	312.17
425.956	328.55
426.399	302.81
426.842	281.74
427.284	291.1
427.727	286.42
428.169	351.96
428.612	258.34
429.054	309.83
429.497	328.55
429.939	344.94
430.381	284.08
430.823	288.76
431.265	305.15
431.707	300.47
432.149	293.44
432.591	300.47
433.033	382.39
433.475	330.89
433.917	300.47
434.359	253.66
434.8	323.87
435.242	377.7
435.684	305.15
436.125	333.23
436.567	258.34
437.008	316.85
437.449	347.28
437.891	349.62
438.332	368.34
438.773	387.07
439.214	256
439.656	295.79
440.097	286.42
440.538	309.83
440.978	323.87
441.419	333.23
441.86	321.53
442.301	321.53
442.742	309.83
443.182	326.21
443.623	316.85
444.063	300.47
444.504	300.47
444.944	295.79
445.385	340.26
445.825	335.57
446.265	337.91
446.706	370.68
447.146	293.44
447.586	309.83
448.026	358.98
448.466	351.96
448.906	354.3
449.346	263.02
449.786	394.09
450.225	314.51
450.665	279.4
451.105	316.85
451.544	361.32
451.984	309.83
452.424	312.17
452.863	358.98
453.302	358.98
453.742	335.57
454.181	291.1
454.62	333.23
455.059	258.34
455.499	319.19
455.938	349.62
456.377	291.1
456.816	340.26
457.254	363.66
457.693	281.74
458.132	234.93
458.571	300.47
459.01	314.51
459.448	284.08
459.887	239.61
460.325	337.91
460.764	253.66
461.202	298.13
461.641	375.36
462.079	293.44
462.517	356.64
462.955	314.51
463.393	274.72
463.832	277.06
464.27	244.29
464.708	370.68
465.145	270.04
465.583	263.02
466.021	284.08
466.459	323.87
466.897	256
467.334	316.85
467.772	314.51
468.209	319.19
468.647	284.08
469.084	323.87
469.522	340.26
469.959	330.89
470.396	436.22
470.833	295.79
471.271	307.49
471.708	295.79
472.145	281.74
472.582	321.53
473.019	307.49
473.456	312.17
473.892	312.17
474.329	337.91
474.766	314.51
475.202	307.49
475.639	300.47
476.076	314.51
476.512	314.51
476.949	312.17
477.385	344.94
477.821	305.15
478.258	256
478.694	288.76
479.13	333.23
479.566	326.21
480.002	363.66
480.438	300.47
480.874	302.81
481.31	298.13
481.746	340.26
482.181	349.62
482.617	314.51
483.053	267.7
483.488	288.76
483.924	319.19
484.36	234.93
484.795	349.62
485.23	279.4
485.666	316.85
486.101	295.79
486.536	295.79
486.971	286.42
487.407	298.13
487.842	316.85
488.277	363.66
488.712	288.76
489.146	405.79
489.581	326.21
490.016	284.08
490.451	293.44
490.885	298.13
491.32	286.42
491.755	279.4
492.189	323.87
492.624	309.83
493.058	302.81
493.492	340.26
493.927	312.17
494.361	265.36
494.795	300.47
495.229	366
495.663	253.66
496.097	314.51
496.531	314.51
496.965	333.23
497.399	342.6
497.833	380.04
498.266	344.94
498.7	349.62
499.134	279.4
499.567	274.72
500.001	344.94
500.434	326.21
500.868	337.91
501.301	284.08
501.734	314.51
502.168	284.08
502.601	330.89
503.034	281.74
503.467	305.15
503.9	335.57
504.333	295.79
504.766	361.32
505.199	342.6
505.632	284.08
506.064	237.27
506.497	340.26
506.93	307.49
507.362	354.3
507.795	305.15
508.227	300.47
508.66	295.79
509.092	330.89
509.524	284.08
509.956	354.3
510.389	314.51
510.821	368.34
511.253	342.6
511.685	305.15
512.117	279.4
512.549	302.81
512.981	300.47
513.412	265.36
513.844	368.34
514.276	279.4
514.707	323.87
515.139	300.47
515.571	356.64
516.002	412.81
516.433	302.81
516.865	349.62
517.296	281.74
517.727	309.83
518.159	370.68
518.59	347.28
519.021	248.97
519.452	305.15
519.883	328.55
520.314	298.13
520.744	305.15
521.175	307.49
521.606	349.62
522.037	319.19
522.467	293.44
522.898	312.17
523.328	307.49
523.759	347.28
524.189	309.83
524.62	286.42
525.05	337.91
525.48	302.81
525.91	323.87
526.341	333.23
526.771	279.4
527.201	267.7
527.631	291.1
528.061	344.94
528.49	302.81
528.92	335.57
529.35	354.3
529.78	323.87
530.209	298.13
530.639	300.47
531.068	284.08
531.498	358.98
531.927	330.89
532.357	251.32
532.786	272.38
533.215	361.32
533.644	286.42
534.074	305.15
534.503	241.95
534.932	239.61
535.361	335.57
535.79	284.08
536.218	349.62
536.647	326.21
537.076	302.81
537.505	307.49
537.933	356.64
538.362	366
538.79	279.4
539.219	309.83
539.647	335.57
540.076	328.55
540.504	319.19
540.932	349.62
541.36	351.96
541.788	302.81
542.217	351.96
542.645	300.47
543.073	333.23
543.5	293.44
543.928	333.23
544.356	316.85
544.784	305.15
545.211	293.44
545.639	328.55
546.067	354.3
546.494	344.94
546.922	330.89
547.349	347.28
547.776	323.87
548.204	288.76
548.631	316.85
549.058	263.02
549.485	291.1
549.912	344.94
550.339	340.26
550.766	293.44
551.193	305.15
551.62	281.74
552.047	330.89
552.474	272.38
552.9	319.19
553.327	321.53
553.754	314.51
554.18	328.55
554.607	384.73
555.033	356.64
555.459	286.42
555.886	284.08
556.312	314.51
556.738	337.91
557.164	277.06
557.59	312.17
558.016	356.64
558.442	321.53
558.868	319.19
559.294	260.68
559.72	314.51
560.145	323.87
560.571	342.6
560.997	342.6
561.422	363.66
561.848	302.81
562.273	279.4
562.699	298.13
563.124	349.62
563.549	316.85
563.974	258.34
564.4	227.91
564.825	358.98
565.25	323.87
565.675	302.81
566.1	284.08
566.525	375.36
566.95	356.64
567.374	279.4
567.799	319.19
568.224	351.96
568.648	291.1
569.073	281.74
569.497	321.53
569.922	333.23
570.346	335.57
570.771	314.51
571.195	263.02
571.619	230.25
572.043	298.13
572.467	307.49
572.891	316.85
573.315	286.42
573.739	326.21
574.163	302.81
574.587	288.76
575.011	298.13
575.435	316.85
575.858	312.17
576.282	389.41
576.705	349.62
577.129	326.21
577.552	256
577.976	319.19
578.399	335.57
578.822	366
579.245	274.72
579.669	319.19
580.092	337.91
580.515	330.89
580.938	305.15
581.361	380.04
581.784	394.09
582.206	333.23
582.629	314.51
583.052	335.57
583.474	330.89
583.897	267.7
584.32	251.32
584.742	312.17
585.165	330.89
585.587	295.79
586.009	368.34
586.431	284.08
586.854	291.1
587.276	361.32
587.698	260.68
588.12	248.97
588.542	305.15
588.964	356.64
589.386	307.49
589.807	270.04
590.229	330.89
590.651	284.08
591.073	305.15
591.494	298.13
591.916	373.02
592.337	328.55
592.759	272.38
593.18	344.94
593.601	260.68
594.022	363.66
594.444	347.28
594.865	295.79
595.286	373.02
595.707	298.13
596.128	265.36
596.549	309.83
596.97	358.98
597.39	274.72
597.811	307.49
598.232	347.28
598.652	277.06
599.073	333.23
599.494	295.79
599.914	312.17
600.334	333.23
600.755	312.17
601.175	312.17
601.595	293.44
602.015	328.55
602.436	316.85
602.856	478.35
603.276	281.74
603.696	384.73
604.115	258.34
604.535	344.94
604.955	328.55
605.375	300.47
605.794	309.83
606.214	312.17
606.634	270.04
607.053	347.28
607.473	342.6
607.892	328.55
608.311	323.87
608.731	321.53
609.15	328.55
609.569	326.21
609.988	394.09
610.407	298.13
610.826	281.74
611.245	342.6
611.664	321.53
612.083	333.23
612.501	316.85
612.92	244.29
613.339	312.17
613.757	319.19
614.176	251.32
614.594	312.17
615.013	291.1
615.431	286.42
615.85	309.83
616.268	307.49
616.686	384.73
617.104	375.36
617.522	330.89
617.94	225.57
618.358	326.21
618.776	389.41
619.194	314.51
619.612	244.29
620.03	272.38
620.447	312.17
620.865	340.26
621.282	302.81
621.7	305.15
622.117	305.15
622.535	300.47
622.952	319.19
623.369	300.47
623.787	307.49
624.204	279.4
624.621	333.23
625.038	361.32
625.455	366
625.872	274.72
626.289	279.4
626.706	256
627.123	335.57
627.539	309.83
627.956	309.83
628.373	312.17
628.789	319.19
629.206	312.17
629.622	337.91
630.038	314.51
630.455	323.87
630.871	337.91
631.287	291.1
631.703	314.51
632.12	368.34
632.536	358.98
632.952	319.19
633.368	403.45
633.783	330.89
634.199	333.23
634.615	281.74
635.031	366
635.446	333.23
635.862	351.96
636.277	349.62
636.693	281.74
637.108	333.23
637.524	293.44
637.939	344.94
638.354	333.23
638.77	333.23
639.185	349.62
639.6	319.19
640.015	316.85
640.43	358.98
640.845	270.04
641.259	333.23
641.674	286.42
642.089	321.53
642.504	248.97
642.918	307.49
643.333	330.89
643.747	288.76
644.162	258.34
644.576	354.3
644.991	340.26
645.405	323.87
645.819	265.36
646.233	335.57
646.647	223.23
647.061	309.83
647.475	354.3
647.889	178.76
648.303	387.07
648.717	302.81
649.131	351.96
649.545	241.95
649.958	300.47
650.372	305.15
650.785	291.1
651.199	293.44
651.612	316.85
652.026	305.15
652.439	270.04
652.852	267.7
653.266	314.51
653.679	246.63
654.092	265.36
654.505	335.57
654.918	302.81
655.331	321.53
655.744	277.06
656.156	323.87
656.569	270.04
656.982	328.55
657.394	258.34
657.807	302.81
658.22	302.81
658.632	312.17
659.044	323.87
659.457	316.85
659.869	309.83
660.281	333.23
660.693	333.23
661.106	368.34
661.518	265.36
661.93	323.87
662.342	270.04
662.754	293.44
663.165	319.19
663.577	286.42
663.989	335.57
664.401	335.57
664.812	295.79
665.224	281.74
665.635	321.53
666.047	358.98
666.458	344.94
666.869	302.81
667.281	314.51
667.692	347.28
668.103	347.28
668.514	312.17
668.925	286.42
669.336	326.21
669.747	314.51
670.158	333.23
670.569	356.64
670.979	316.85
671.39	330.89
671.801	279.4
672.211	302.81
672.622	314.51
673.032	349.62
673.443	263.02
673.853	391.75
674.263	356.64
674.674	321.53
675.084	337.91
675.494	291.1
675.904	241.95
676.314	337.91
676.724	291.1
677.134	305.15
677.544	347.28
677.953	302.81
678.363	300.47
678.773	384.73
679.182	307.49
679.592	356.64
680.001	351.96
680.411	347.28
680.82	337.91
681.23	302.81
681.639	309.83
682.048	302.81
682.457	277.06
682.866	295.79
683.275	286.42
683.684	361.32
684.093	328.55
684.502	326.21
684.911	293.44
685.32	373.02
685.728	307.49
686.137	277.06
686.546	279.4
686.954	323.87
687.363	312.17
687.771	326.21
688.179	377.7
688.588	326.21
688.996	312.17
689.404	300.47
689.812	232.59
690.22	291.1
690.628	279.4
691.036	361.32
691.444	319.19
691.852	358.98
692.26	272.38
692.667	298.13
693.075	377.7
693.483	323.87
693.89	300.47
694.298	300.47
694.705	344.94
695.112	291.1
695.52	373.02
695.927	295.79
696.334	328.55
696.741	307.49
697.148	366
697.555	330.89
697.962	330.89
698.369	389.41
698.776	279.4
699.183	351.96
699.59	375.36
699.996	351.96
700.403	307.49
700.81	256
701.216	265.36
701.623	319.19
702.029	363.66
702.435	293.44
702.842	253.66
703.248	389.41
703.654	333.23
704.06	307.49
704.466	291.1
704.872	286.42
705.278	419.83
705.684	335.57
706.09	349.62
706.496	333.23
706.901	312.17
707.307	358.98
707.712	293.44
708.118	366
708.523	349.62
708.929	314.51
709.334	286.42
709.74	323.87
710.145	263.02
710.55	272.38
710.955	293.44
711.36	316.85
711.765	260.68
712.17	370.68
712.575	253.66
712.98	824.75
713.385	358.98
713.789	382.39
714.194	316.85
714.599	253.66
715.003	337.91
715.408	305.15
715.812	284.08
716.217	335.57
716.621	337.91
717.025	342.6
717.429	316.85
717.833	337.91
718.238	340.26
718.642	347.28
719.046	293.44
719.449	284.08
719.853	319.19
720.257	300.47
720.661	263.02
721.065	216.21
721.468	309.83
721.872	263.02
722.275	309.83
722.679	375.36
723.082	366
723.485	277.06
723.889	281.74
724.292	267.7
724.695	314.51
725.098	281.74
725.501	302.81
725.904	291.1
726.307	316.85
726.71	241.95
727.113	337.91
727.516	291.1
727.918	380.04
728.321	335.57
728.724	326.21
729.126	248.97
729.529	323.87
729.931	326.21
730.333	335.57
730.736	354.3
731.138	298.13
731.54	260.68
731.942	326.21
732.344	330.89
732.746	307.49
733.148	312.17
733.55	298.13
733.952	316.85
734.354	319.19
734.756	293.44
735.157	263.02
735.559	274.72
735.96	307.49
736.362	328.55
736.763	333.23
737.165	281.74
737.566	366
737.967	270.04
738.368	277.06
738.77	279.4
739.171	314.51
739.572	361.32
739.973	307.49
740.374	298.13
740.774	307.49
741.175	274.72
741.576	251.32
741.977	274.72
742.377	312.17
742.778	307.49
743.178	295.79
743.579	302.81
743.979	234.93
744.379	323.87
744.78	358.98
745.18	307.49
745.58	328.55
745.98	337.91
746.38	298.13
746.78	267.7
747.18	284.08
747.58	328.55
747.98	380.04
748.38	260.68
748.779	316.85
749.179	342.6
749.578	323.87
749.978	349.62
750.377	279.4
750.777	358.98
751.176	279.4
751.575	363.66
751.975	384.73
752.374	307.49
752.773	272.38
753.172	288.76
753.571	326.21
753.97	291.1
754.369	321.53
754.768	351.96
755.166	363.66
755.565	321.53
755.964	305.15
756.362	366
756.761	288.76
757.159	349.62
757.558	319.19
757.956	288.76
758.354	314.51
758.753	302.81
759.151	370.68
759.549	319.19
759.947	274.72
760.345	335.57
760.743	323.87
761.141	316.85
761.539	281.74
761.936	272.38
762.334	307.49
762.732	335.57
763.129	377.7
763.527	370.68
763.924	337.91
764.322	326.21
764.719	326.21
765.117	319.19
765.514	349.62
765.911	337.91
766.308	260.68
