Data from Al_FLMS009871__1197__16-40-39-682.txt Node

Date: Fri Mar 08 16:40:39 CST 2024
User: pe5414po
Spectrometer: FLMS00987
Trigger mode: 0
Integration Time (sec): 1.000000E-1
Scans to average: 1
Electric dark correction enabled: true
Nonlinearity correction enabled: false
Boxcar width: 0
XAxis mode: Wavelengths
Number of Pixels in Spectrum: 2048
>>>>>Begin Spectral Data<<<<<
188.938	-85.28
189.409	-85.28
189.879	-85.28
190.349	-80.6
190.819	-148.48
191.29	-50.18
191.76	-104.01
192.23	-73.58
192.7	-43.15
193.17	-50.18
193.64	36.42
194.109	-87.62
194.579	15.36
195.049	-66.56
195.519	17.7
195.988	-54.86
196.458	45.79
196.927	55.15
197.397	108.98
197.866	165.15
198.336	85.58
198.805	197.92
199.274	202.6
199.744	214.31
200.213	120.68
200.682	211.96
201.151	277.5
201.62	303.25
202.089	240.05
202.558	235.37
203.027	242.39
203.495	218.99
203.964	251.75
204.433	242.39
204.902	282.18
205.37	338.35
205.839	312.61
206.307	352.4
206.776	319.63
207.244	272.82
207.712	333.67
208.181	293.88
208.649	354.74
209.117	324.31
209.585	272.82
210.053	364.1
210.521	317.29
210.989	328.99
211.457	321.97
211.925	314.95
212.393	300.91
212.861	296.22
213.328	286.86
213.796	364.1
214.264	326.65
214.731	282.18
215.199	340.69
215.666	317.29
216.133	277.5
216.601	296.22
217.068	272.82
217.535	331.33
218.003	272.82
218.47	275.16
218.937	279.84
219.404	207.28
219.871	265.8
220.338	328.99
220.805	340.69
221.271	272.82
221.738	258.78
222.205	256.43
222.671	244.73
223.138	326.65
223.605	319.63
224.071	307.93
224.538	312.61
225.004	221.33
225.47	324.31
225.937	263.46
226.403	249.41
226.869	242.39
227.335	261.12
227.801	298.56
228.267	324.31
228.733	321.97
229.199	240.05
229.665	244.73
230.131	235.37
230.597	214.31
231.062	218.99
231.528	275.16
231.994	343.03
232.459	254.09
232.925	207.28
233.39	293.88
233.856	293.88
234.321	261.12
234.786	202.6
235.252	324.31
235.717	275.16
236.182	312.61
236.647	263.46
237.112	247.07
237.577	270.48
238.042	284.52
238.507	275.16
238.972	258.78
239.436	247.07
239.901	286.86
240.366	331.33
240.83	284.52
241.295	275.16
241.76	321.97
242.224	350.06
242.688	321.97
243.153	237.71
243.617	261.12
244.081	340.69
244.545	326.65
245.01	345.38
245.474	317.29
245.938	333.67
246.402	289.2
246.866	268.14
247.33	282.18
247.793	296.22
248.257	321.97
248.721	300.91
249.185	303.25
249.648	254.09
250.112	298.56
250.575	223.67
251.039	272.82
251.502	279.84
251.965	244.73
252.429	216.65
252.892	300.91
253.355	366.44
253.818	268.14
254.281	291.54
254.744	296.22
255.207	319.63
255.67	268.14
256.133	331.33
256.596	319.63
257.059	275.16
257.522	333.67
257.984	303.25
258.447	270.48
258.909	300.91
259.372	336.01
259.834	284.52
260.297	298.56
260.759	314.95
261.221	300.91
261.684	375.8
262.146	317.29
262.608	310.27
263.07	326.65
263.532	291.54
263.994	314.95
264.456	310.27
264.918	268.14
265.38	333.67
265.842	389.85
266.303	354.74
266.765	328.99
267.227	354.74
267.688	307.93
268.15	293.88
268.611	314.95
269.072	258.78
269.534	277.5
269.995	343.03
270.456	307.93
270.918	275.16
271.379	331.33
271.84	317.29
272.301	303.25
272.762	272.82
273.223	261.12
273.684	317.29
274.144	305.59
274.605	364.1
275.066	371.12
275.527	300.91
275.987	286.86
276.448	350.06
276.908	296.22
277.369	256.43
277.829	291.54
278.289	312.61
278.75	293.88
279.21	303.25
279.67	420.27
280.13	310.27
280.59	303.25
281.05	317.29
281.51	317.29
281.97	254.09
282.43	319.63
282.89	312.61
283.35	226.01
283.809	343.03
284.269	314.95
284.729	366.44
285.188	284.52
285.648	343.03
286.107	331.33
286.567	326.65
287.026	333.67
287.485	261.12
287.944	265.8
288.404	317.29
288.863	347.72
289.322	293.88
289.781	361.76
290.24	293.88
290.699	272.82
291.158	319.63
291.616	354.74
292.075	293.88
292.534	307.93
292.992	361.76
293.451	319.63
293.91	343.03
294.368	307.93
294.827	375.8
295.285	289.2
295.743	338.35
296.202	359.42
296.66	343.03
297.118	328.99
297.576	296.22
298.034	324.31
298.492	340.69
298.95	298.56
299.408	366.44
299.866	331.33
300.324	312.61
300.781	340.69
301.239	277.5
301.697	258.78
302.154	237.71
302.612	345.38
303.069	321.97
303.527	312.61
303.984	340.69
304.441	331.33
304.899	338.35
305.356	350.06
305.813	354.74
306.27	331.33
306.727	378.14
307.184	328.99
307.641	326.65
308.098	319.63
308.555	312.61
309.012	303.25
309.468	343.03
309.925	282.18
310.382	333.67
310.838	284.52
311.295	336.01
311.751	354.74
312.208	282.18
312.664	265.8
313.12	307.93
313.577	254.09
314.033	343.03
314.489	300.91
314.945	331.33
315.401	272.82
315.857	343.03
316.313	340.69
316.769	328.99
317.225	373.46
317.681	286.86
318.136	293.88
318.592	303.25
319.048	240.05
319.503	314.95
319.959	303.25
320.414	307.93
320.869	279.84
321.325	354.74
321.78	368.78
322.235	293.88
322.691	277.5
323.146	319.63
323.601	338.35
324.056	354.74
324.511	336.01
324.966	312.61
325.421	305.59
325.875	343.03
326.33	328.99
326.785	441.34
327.24	321.97
327.694	326.65
328.149	312.61
328.603	305.59
329.058	319.63
329.512	420.27
329.966	375.8
330.421	340.69
330.875	321.97
331.329	286.86
331.783	258.78
332.237	324.31
332.691	312.61
333.145	284.52
333.599	378.14
334.053	359.42
334.507	373.46
334.96	331.33
335.414	359.42
335.868	284.52
336.321	321.97
336.775	305.59
337.228	289.2
337.682	307.93
338.135	331.33
338.588	317.29
339.042	298.56
339.495	380.48
339.948	333.67
340.401	359.42
340.854	333.67
341.307	314.95
341.76	279.84
342.213	326.65
342.666	307.93
343.119	298.56
343.571	336.01
344.024	338.35
344.477	268.14
344.929	328.99
345.382	394.53
345.834	343.03
346.287	291.54
346.739	289.2
347.191	305.59
347.644	343.03
348.096	326.65
348.548	328.99
349	263.46
349.452	336.01
349.904	312.61
350.356	324.31
350.808	328.99
351.26	319.63
351.711	333.67
352.163	312.61
352.615	359.42
353.066	244.73
353.518	357.08
353.969	307.93
354.421	303.25
354.872	345.38
355.324	375.8
355.775	366.44
356.226	385.16
356.677	317.29
357.128	328.99
357.579	371.12
358.03	357.08
358.481	324.31
358.932	314.95
359.383	422.61
359.834	331.33
360.285	399.21
360.735	317.29
361.186	359.42
361.637	347.72
362.087	303.25
362.538	303.25
362.988	333.67
363.438	312.61
363.889	314.95
364.339	321.97
364.789	289.2
365.239	307.93
365.689	368.78
366.139	298.56
366.589	270.48
367.039	319.63
367.489	314.95
367.939	326.65
368.389	352.4
368.839	310.27
369.288	394.53
369.738	382.82
370.187	310.27
370.637	251.75
371.086	347.72
371.536	324.31
371.985	343.03
372.434	291.54
372.884	324.31
373.333	328.99
373.782	270.48
374.231	251.75
374.68	314.95
375.129	265.8
375.578	310.27
376.027	338.35
376.475	366.44
376.924	321.97
377.373	331.33
377.822	300.91
378.27	296.22
378.719	333.67
379.167	317.29
379.616	340.69
380.064	394.53
380.512	317.29
380.961	382.82
381.409	277.5
381.857	350.06
382.305	375.8
382.753	310.27
383.201	314.95
383.649	251.75
384.097	275.16
384.545	314.95
384.992	389.85
385.44	345.38
385.888	305.59
386.335	359.42
386.783	340.69
387.231	293.88
387.678	300.91
388.125	279.84
388.573	354.74
389.02	317.29
389.467	233.03
389.914	389.85
390.362	282.18
390.809	361.76
391.256	333.67
391.703	314.95
392.15	289.2
392.596	343.03
393.043	289.2
393.49	345.38
393.937	359.42
394.383	319.63
394.83	312.61
395.276	380.48
395.723	347.72
396.169	317.29
396.616	277.5
397.062	270.48
397.508	303.25
397.954	286.86
398.401	343.03
398.847	317.29
399.293	319.63
399.739	284.52
400.185	345.38
400.631	312.61
401.076	319.63
401.522	324.31
401.968	378.14
402.414	347.72
402.859	340.69
403.305	282.18
403.75	364.1
404.196	354.74
404.641	268.14
405.086	345.38
405.532	319.63
405.977	324.31
406.422	291.54
406.867	401.55
407.312	361.76
407.757	338.35
408.202	340.69
408.647	324.31
409.092	305.59
409.537	326.65
409.982	366.44
410.426	359.42
410.871	350.06
411.316	350.06
411.76	319.63
412.205	310.27
412.649	270.48
413.093	247.07
413.538	298.56
413.982	314.95
414.426	296.22
414.87	319.63
415.314	317.29
415.758	319.63
416.202	336.01
416.646	279.84
417.09	291.54
417.534	338.35
417.978	305.59
418.421	300.91
418.865	361.76
419.309	333.67
419.752	314.95
420.196	354.74
420.639	324.31
421.083	350.06
421.526	368.78
421.969	340.69
422.412	352.4
422.856	303.25
423.299	345.38
423.742	293.88
424.185	373.46
424.628	364.1
425.071	303.25
425.513	408.57
425.956	401.55
426.399	366.44
426.842	413.25
427.284	317.29
427.727	331.33
428.169	347.72
428.612	305.59
429.054	347.72
429.497	314.95
429.939	312.61
430.381	300.91
430.823	307.93
431.265	361.76
431.707	410.91
432.149	364.1
432.591	347.72
433.033	314.95
433.475	364.1
433.917	305.59
434.359	300.91
434.8	319.63
435.242	378.14
435.684	338.35
436.125	293.88
436.567	324.31
437.008	282.18
437.449	350.06
437.891	357.08
438.332	303.25
438.773	275.16
439.214	361.76
439.656	382.82
440.097	366.44
440.538	340.69
440.978	289.2
441.419	354.74
441.86	347.72
442.301	352.4
442.742	303.25
443.182	291.54
443.623	277.5
444.063	333.67
444.504	326.65
444.944	354.74
445.385	291.54
445.825	378.14
446.265	298.56
446.706	385.16
447.146	338.35
447.586	314.95
448.026	340.69
448.466	328.99
448.906	286.86
449.346	324.31
449.786	275.16
450.225	307.93
450.665	310.27
451.105	326.65
451.544	350.06
451.984	378.14
452.424	324.31
452.863	347.72
453.302	328.99
453.742	279.84
454.181	354.74
454.62	387.5
455.059	389.85
455.499	296.22
455.938	357.08
456.377	422.61
456.816	321.97
457.254	331.33
457.693	321.97
458.132	319.63
458.571	338.35
459.01	307.93
459.448	331.33
459.887	350.06
460.325	352.4
460.764	343.03
461.202	314.95
461.641	378.14
462.079	321.97
462.517	350.06
462.955	406.23
463.393	293.88
463.832	279.84
464.27	312.61
464.708	331.33
465.145	321.97
465.583	396.87
466.021	277.5
466.459	373.46
466.897	303.25
467.334	284.52
467.772	293.88
468.209	312.61
468.647	296.22
469.084	321.97
469.522	275.16
469.959	293.88
470.396	373.46
470.833	392.19
471.271	364.1
471.708	289.2
472.145	354.74
472.582	310.27
473.019	357.08
473.456	333.67
473.892	263.46
474.329	357.08
474.766	324.31
475.202	319.63
475.639	336.01
476.076	333.67
476.512	310.27
476.949	354.74
477.385	305.59
477.821	385.16
478.258	373.46
478.694	328.99
479.13	291.54
479.566	354.74
480.002	343.03
480.438	371.12
480.874	305.59
481.31	300.91
481.746	338.35
482.181	345.38
482.617	354.74
483.053	359.42
483.488	291.54
483.924	347.72
484.36	310.27
484.795	347.72
485.23	354.74
485.666	328.99
486.101	291.54
486.536	328.99
486.971	291.54
487.407	300.91
487.842	357.08
488.277	249.41
488.712	263.46
489.146	310.27
489.581	399.21
490.016	343.03
490.451	293.88
490.885	324.31
491.32	324.31
491.755	312.61
492.189	345.38
492.624	321.97
493.058	326.65
493.492	345.38
493.927	359.42
494.361	328.99
494.795	298.56
495.229	347.72
495.663	310.27
496.097	364.1
496.531	366.44
496.965	366.44
497.399	282.18
497.833	371.12
498.266	338.35
498.7	282.18
499.134	366.44
499.567	324.31
500.001	312.61
500.434	310.27
500.868	394.53
501.301	328.99
501.734	331.33
502.168	307.93
502.601	333.67
503.034	328.99
503.467	385.16
503.9	373.46
504.333	366.44
504.766	359.42
505.199	328.99
505.632	357.08
506.064	328.99
506.497	394.53
506.93	326.65
507.362	380.48
507.795	394.53
508.227	338.35
508.66	389.85
509.092	417.93
509.524	415.59
509.956	319.63
510.389	286.86
510.821	359.42
511.253	312.61
511.685	392.19
512.117	371.12
512.549	387.5
512.981	364.1
513.412	340.69
513.844	328.99
514.276	293.88
514.707	307.93
515.139	291.54
515.571	378.14
516.002	357.08
516.433	326.65
516.865	399.21
517.296	319.63
517.727	364.1
518.159	413.25
518.59	333.67
519.021	312.61
519.452	333.67
519.883	272.82
520.314	272.82
520.744	350.06
521.175	312.61
521.606	317.29
522.037	310.27
522.467	328.99
522.898	364.1
523.328	350.06
523.759	314.95
524.189	333.67
524.62	328.99
525.05	319.63
525.48	307.93
525.91	317.29
526.341	298.56
526.771	338.35
527.201	347.72
527.631	296.22
528.061	333.67
528.49	361.76
528.92	296.22
529.35	296.22
529.78	293.88
530.209	317.29
530.639	406.23
531.068	270.48
531.498	265.8
531.927	368.78
532.357	366.44
532.786	312.61
533.215	333.67
533.644	293.88
534.074	284.52
534.503	324.31
534.932	312.61
535.361	298.56
535.79	279.84
536.218	354.74
536.647	317.29
537.076	387.5
537.505	305.59
537.933	352.4
538.362	338.35
538.79	272.82
539.219	364.1
539.647	340.69
540.076	289.2
540.504	324.31
540.932	314.95
541.36	310.27
541.788	307.93
542.217	375.8
542.645	336.01
543.073	303.25
543.5	300.91
543.928	328.99
544.356	300.91
544.784	371.12
545.211	331.33
545.639	380.48
546.067	375.8
546.494	361.76
546.922	321.97
547.349	350.06
547.776	340.69
548.204	333.67
548.631	350.06
549.058	368.78
549.485	345.38
549.912	350.06
550.339	317.29
550.766	364.1
551.193	331.33
551.62	371.12
552.047	345.38
552.474	352.4
552.9	347.72
553.327	345.38
553.754	406.23
554.18	399.21
554.607	331.33
555.033	305.59
555.459	314.95
555.886	261.12
556.312	261.12
556.738	303.25
557.164	326.65
557.59	336.01
558.016	300.91
558.442	338.35
558.868	275.16
559.294	366.44
559.72	324.31
560.145	366.44
560.571	403.89
560.997	303.25
561.422	291.54
561.848	298.56
562.273	389.85
562.699	357.08
563.124	317.29
563.549	314.95
563.974	371.12
564.4	401.55
564.825	347.72
565.25	352.4
565.675	350.06
566.1	354.74
566.525	291.54
566.95	300.91
567.374	284.52
567.799	336.01
568.224	361.76
568.648	357.08
569.073	249.41
569.497	331.33
569.922	357.08
570.346	298.56
570.771	357.08
571.195	392.19
571.619	279.84
572.043	244.73
572.467	357.08
572.891	394.53
573.315	258.78
573.739	403.89
574.163	324.31
574.587	366.44
575.011	333.67
575.435	307.93
575.858	389.85
576.282	340.69
576.705	352.4
577.129	354.74
577.552	324.31
577.976	321.97
578.399	406.23
578.822	307.93
579.245	338.35
579.669	265.8
580.092	350.06
580.515	364.1
580.938	291.54
581.361	300.91
581.784	373.46
582.206	317.29
582.629	361.76
583.052	338.35
583.474	343.03
583.897	230.69
584.32	296.22
584.742	312.61
585.165	296.22
585.587	298.56
586.009	378.14
586.431	359.42
586.854	317.29
587.276	307.93
587.698	380.48
588.12	284.52
588.542	331.33
588.964	338.35
589.386	324.31
589.807	336.01
590.229	340.69
590.651	303.25
591.073	291.54
591.494	298.56
591.916	333.67
592.337	345.38
592.759	350.06
593.18	357.08
593.601	361.76
594.022	336.01
594.444	319.63
594.865	303.25
595.286	263.46
595.707	326.65
596.128	347.72
596.549	389.85
596.97	279.84
597.39	380.48
597.811	343.03
598.232	333.67
598.652	279.84
599.073	314.95
599.494	303.25
599.914	279.84
600.334	354.74
600.755	399.21
601.175	392.19
601.595	307.93
602.015	333.67
602.436	268.14
602.856	434.32
603.276	380.48
603.696	366.44
604.115	364.1
604.535	307.93
604.955	336.01
605.375	321.97
605.794	305.59
606.214	319.63
606.634	324.31
607.053	394.53
607.473	340.69
607.892	275.16
608.311	310.27
608.731	354.74
609.15	300.91
609.569	340.69
609.988	345.38
610.407	338.35
610.826	394.53
611.245	394.53
611.664	368.78
612.083	324.31
612.501	347.72
612.92	371.12
613.339	389.85
613.757	331.33
614.176	326.65
614.594	380.48
615.013	331.33
615.431	289.2
615.85	401.55
616.268	361.76
616.686	350.06
617.104	326.65
617.522	357.08
617.94	352.4
618.358	303.25
618.776	331.33
619.194	338.35
619.612	291.54
620.03	378.14
620.447	326.65
620.865	284.52
621.282	333.67
621.7	338.35
622.117	298.56
622.535	300.91
622.952	350.06
623.369	340.69
623.787	357.08
624.204	319.63
624.621	385.16
625.038	321.97
625.455	401.55
625.872	371.12
626.289	328.99
626.706	352.4
627.123	317.29
627.539	333.67
627.956	340.69
628.373	371.12
628.789	303.25
629.206	310.27
629.622	401.55
630.038	424.95
630.455	373.46
630.871	364.1
631.287	333.67
631.703	333.67
632.12	321.97
632.536	333.67
632.952	347.72
633.368	368.78
633.783	321.97
634.199	359.42
634.615	317.29
635.031	371.12
635.446	331.33
635.862	293.88
636.277	312.61
636.693	268.14
637.108	298.56
637.524	415.59
637.939	326.65
638.354	293.88
638.77	331.33
639.185	310.27
639.6	317.29
640.015	263.46
640.43	354.74
640.845	340.69
641.259	314.95
641.674	328.99
642.089	352.4
642.504	319.63
642.918	354.74
643.333	359.42
643.747	314.95
644.162	279.84
644.576	328.99
644.991	324.31
645.405	401.55
645.819	307.93
646.233	314.95
646.647	347.72
647.061	340.69
647.475	371.12
647.889	328.99
648.303	298.56
648.717	258.78
649.131	275.16
649.545	345.38
649.958	305.59
650.372	352.4
650.785	336.01
651.199	364.1
651.612	314.95
652.026	345.38
652.439	270.48
652.852	314.95
653.266	319.63
653.679	368.78
654.092	328.99
654.505	319.63
654.918	354.74
655.331	385.16
655.744	326.65
656.156	268.14
656.569	338.35
656.982	300.91
657.394	314.95
657.807	300.91
658.22	321.97
658.632	328.99
659.044	347.72
659.457	326.65
659.869	347.72
660.281	359.42
660.693	375.8
661.106	375.8
661.518	300.91
661.93	375.8
662.342	336.01
662.754	352.4
663.165	286.86
663.577	272.82
663.989	314.95
664.401	347.72
664.812	279.84
665.224	275.16
665.635	338.35
666.047	317.29
666.458	291.54
666.869	300.91
667.281	321.97
667.692	333.67
668.103	328.99
668.514	286.86
668.925	263.46
669.336	359.42
669.747	354.74
670.158	300.91
670.569	359.42
670.979	300.91
671.39	364.1
671.801	352.4
672.211	343.03
672.622	410.91
673.032	375.8
673.443	324.31
673.853	336.01
674.263	289.2
674.674	357.08
675.084	310.27
675.494	293.88
675.904	310.27
676.314	343.03
676.724	371.12
677.134	310.27
677.544	326.65
677.953	268.14
678.363	331.33
678.773	340.69
679.182	310.27
679.592	366.44
680.001	270.48
680.411	307.93
680.82	307.93
681.23	361.76
681.639	375.8
682.048	352.4
682.457	319.63
682.866	328.99
683.275	392.19
683.684	389.85
684.093	307.93
684.502	343.03
684.911	328.99
685.32	324.31
685.728	336.01
686.137	328.99
686.546	331.33
686.954	338.35
687.363	350.06
687.771	305.59
688.179	314.95
688.588	368.78
688.996	286.86
689.404	336.01
689.812	242.39
690.22	350.06
690.628	382.82
691.036	340.69
691.444	314.95
691.852	300.91
692.26	284.52
692.667	352.4
693.075	326.65
693.483	284.52
693.89	343.03
694.298	275.16
694.705	284.52
695.112	357.08
695.52	373.46
695.927	279.84
696.334	265.8
696.741	354.74
697.148	333.67
697.555	272.82
697.962	282.18
698.369	387.5
698.776	277.5
699.183	364.1
699.59	310.27
699.996	361.76
700.403	326.65
700.81	326.65
701.216	375.8
701.623	328.99
702.029	317.29
702.435	310.27
702.842	291.54
703.248	361.76
703.654	319.63
704.06	408.57
704.466	343.03
704.872	324.31
705.278	284.52
705.684	385.16
706.09	321.97
706.496	284.52
706.901	261.12
707.307	345.38
707.712	333.67
708.118	233.03
708.523	378.14
708.929	357.08
709.334	310.27
709.74	373.46
710.145	324.31
710.55	420.27
710.955	244.73
711.36	300.91
711.765	338.35
712.17	303.25
712.575	300.91
712.98	783.06
713.385	366.44
713.789	286.86
714.194	364.1
714.599	314.95
715.003	289.2
715.408	347.72
715.812	307.93
716.217	333.67
716.621	354.74
717.025	357.08
717.429	314.95
717.833	305.59
718.238	326.65
718.642	324.31
719.046	296.22
719.449	251.75
719.853	289.2
720.257	361.76
720.661	336.01
721.065	359.42
721.468	347.72
721.872	296.22
722.275	340.69
722.679	389.85
723.082	331.33
723.485	324.31
723.889	331.33
724.292	326.65
724.695	303.25
725.098	331.33
725.501	336.01
725.904	354.74
726.307	291.54
726.71	331.33
727.113	307.93
727.516	319.63
727.918	357.08
728.321	272.82
728.724	368.78
729.126	310.27
729.529	366.44
729.931	352.4
730.333	333.67
730.736	368.78
731.138	319.63
731.54	314.95
731.942	317.29
732.344	307.93
732.746	373.46
733.148	380.48
733.55	289.2
733.952	347.72
734.354	282.18
734.756	371.12
735.157	340.69
735.559	296.22
735.96	300.91
736.362	357.08
736.763	293.88
737.165	279.84
737.566	312.61
737.967	319.63
738.368	319.63
738.77	261.12
739.171	333.67
739.572	256.43
739.973	361.76
740.374	310.27
740.774	305.59
741.175	345.38
741.576	331.33
741.977	293.88
742.377	300.91
742.778	326.65
743.178	324.31
743.579	350.06
743.979	321.97
744.379	268.14
744.78	389.85
745.18	368.78
745.58	364.1
745.98	307.93
746.38	387.5
746.78	331.33
747.18	345.38
747.58	389.85
747.98	305.59
748.38	340.69
748.779	321.97
749.179	296.22
749.578	345.38
749.978	396.87
750.377	368.78
750.777	336.01
751.176	307.93
751.575	305.59
751.975	307.93
752.374	312.61
752.773	371.12
753.172	338.35
753.571	317.29
753.97	347.72
754.369	247.07
754.768	303.25
755.166	338.35
755.565	343.03
755.964	328.99
756.362	298.56
756.761	364.1
757.159	324.31
757.558	279.84
757.956	263.46
758.354	361.76
758.753	347.72
759.151	307.93
759.549	347.72
759.947	296.22
760.345	279.84
760.743	272.82
761.141	324.31
761.539	328.99
761.936	326.65
762.334	352.4
762.732	314.95
763.129	340.69
763.527	352.4
763.924	338.35
