Data from Al_FLMS009871__1188__16-40-38-782.txt Node

Date: Fri Mar 08 16:40:38 CST 2024
User: pe5414po
Spectrometer: FLMS00987
Trigger mode: 0
Integration Time (sec): 1.000000E-1
Scans to average: 1
Electric dark correction enabled: true
Nonlinearity correction enabled: false
Boxcar width: 0
XAxis mode: Wavelengths
Number of Pixels in Spectrum: 2048
>>>>>Begin Spectral Data<<<<<
188.938	-64.36
189.409	-64.36
189.879	-64.36
190.349	-118.2
190.819	-64.36
191.29	-94.79
191.76	-172.03
192.23	-113.52
192.7	-125.22
193.17	-29.26
193.64	-99.47
194.109	-45.64
194.579	12.87
195.049	-31.6
195.519	83.09
195.988	80.75
196.458	45.64
196.927	94.79
197.397	160.33
197.866	111.18
198.336	122.88
198.805	181.39
199.274	223.52
199.744	195.43
200.213	223.52
200.682	157.99
201.151	216.5
201.62	190.75
202.089	256.29
202.558	321.82
203.027	251.61
203.495	242.25
203.964	310.12
204.433	272.67
204.902	235.22
205.37	312.46
205.839	237.56
206.307	265.65
206.776	289.06
207.244	293.74
207.712	244.59
208.181	258.63
208.649	277.35
209.117	307.78
209.585	239.9
210.053	303.1
210.521	272.67
210.989	211.82
211.457	284.38
211.925	319.48
212.393	272.67
212.861	260.97
213.328	291.4
213.796	225.86
214.264	354.59
214.731	237.56
215.199	293.74
215.666	298.42
216.133	298.42
216.601	298.42
217.068	244.59
217.535	314.8
218.003	289.06
218.47	251.61
218.937	246.93
219.404	265.65
219.871	221.18
220.338	284.38
220.805	284.38
221.271	249.27
221.738	258.63
222.205	239.9
222.671	225.86
223.138	263.31
223.605	314.8
224.071	296.08
224.538	333.53
225.004	307.78
225.47	279.69
225.937	258.63
226.403	272.67
226.869	291.4
227.335	321.82
227.801	232.88
228.267	277.35
228.733	303.1
229.199	321.82
229.665	300.76
230.131	270.33
230.597	277.35
231.062	211.82
231.528	258.63
231.994	265.65
232.459	303.1
232.925	272.67
233.39	253.95
233.856	286.72
234.321	263.31
234.786	263.31
235.252	223.52
235.717	270.33
236.182	286.72
236.647	293.74
237.112	256.29
237.577	303.1
238.042	349.91
238.507	263.31
238.972	324.16
239.436	263.31
239.901	319.48
240.366	225.86
240.83	303.1
241.295	244.59
241.76	307.78
242.224	284.38
242.688	321.82
243.153	319.48
243.617	279.69
244.081	331.19
244.545	361.61
245.01	267.99
245.474	270.33
245.938	303.1
246.402	244.59
246.866	272.67
247.33	310.12
247.793	275.01
248.257	267.99
248.721	260.97
249.185	284.38
249.648	279.69
250.112	380.34
250.575	253.95
251.039	260.97
251.502	324.16
251.965	246.93
252.429	277.35
252.892	307.78
253.355	321.82
253.818	291.4
254.281	277.35
254.744	319.48
255.207	307.78
255.67	300.76
256.133	293.74
256.596	328.85
257.059	321.82
257.522	270.33
257.984	260.97
258.447	244.59
258.909	293.74
259.372	211.82
259.834	251.61
260.297	298.42
260.759	345.23
261.221	286.72
261.684	258.63
262.146	307.78
262.608	317.14
263.07	289.06
263.532	305.44
263.994	291.4
264.456	270.33
264.918	335.87
265.38	368.63
265.842	291.4
266.303	289.06
266.765	284.38
267.227	223.52
267.688	272.67
268.15	256.29
268.611	317.14
269.072	347.57
269.534	298.42
269.995	237.56
270.456	300.76
270.918	354.59
271.379	298.42
271.84	335.87
272.301	305.44
272.762	326.5
273.223	298.42
273.684	335.87
274.144	321.82
274.605	305.44
275.066	260.97
275.527	279.69
275.987	331.19
276.448	230.54
276.908	370.97
277.369	312.46
277.829	246.93
278.289	249.27
278.75	352.25
279.21	333.53
279.67	328.85
280.13	310.12
280.59	230.54
281.05	314.8
281.51	319.48
281.97	284.38
282.43	354.59
282.89	267.99
283.35	267.99
283.809	279.69
284.269	300.76
284.729	270.33
285.188	286.72
285.648	272.67
286.107	312.46
286.567	326.5
287.026	289.06
287.485	399.06
287.944	321.82
288.404	286.72
288.863	312.46
289.322	256.29
289.781	328.85
290.24	225.86
290.699	267.99
291.158	300.76
291.616	305.44
292.075	284.38
292.534	326.5
292.992	319.48
293.451	284.38
293.91	305.44
294.368	319.48
294.827	307.78
295.285	279.69
295.743	324.16
296.202	272.67
296.66	363.95
297.118	368.63
297.576	256.29
298.034	291.4
298.492	251.61
298.95	331.19
299.408	267.99
299.866	282.03
300.324	223.52
300.781	284.38
301.239	286.72
301.697	310.12
302.154	312.46
302.612	275.01
303.069	291.4
303.527	305.44
303.984	289.06
304.441	286.72
304.899	347.57
305.356	260.97
305.813	319.48
306.27	321.82
306.727	249.27
307.184	265.65
307.641	317.14
308.098	312.46
308.555	319.48
309.012	333.53
309.468	263.31
309.925	340.55
310.382	319.48
310.838	246.93
311.295	282.03
311.751	340.55
312.208	305.44
312.664	303.1
313.12	286.72
313.577	359.27
314.033	310.12
314.489	319.48
314.945	291.4
315.401	277.35
315.857	338.21
316.313	317.14
316.769	363.95
317.225	345.23
317.681	366.29
318.136	303.1
318.592	289.06
319.048	279.69
319.503	307.78
319.959	363.95
320.414	338.21
320.869	270.33
321.325	289.06
321.78	335.87
322.235	303.1
322.691	289.06
323.146	303.1
323.601	246.93
324.056	270.33
324.511	338.21
324.966	298.42
325.421	291.4
325.875	277.35
326.33	275.01
326.785	307.78
327.24	284.38
327.694	256.29
328.149	253.95
328.603	296.08
329.058	284.38
329.512	291.4
329.966	296.08
330.421	303.1
330.875	314.8
331.329	267.99
331.783	368.63
332.237	282.03
332.691	296.08
333.145	300.76
333.599	314.8
334.053	352.25
334.507	335.87
334.96	263.31
335.414	293.74
335.868	328.85
336.321	328.85
336.775	340.55
337.228	293.74
337.682	314.8
338.135	331.19
338.588	340.55
339.042	352.25
339.495	342.89
339.948	342.89
340.401	314.8
340.854	263.31
341.307	361.61
341.76	314.8
342.213	356.93
342.666	286.72
343.119	289.06
343.571	347.57
344.024	324.16
344.477	303.1
344.929	319.48
345.382	303.1
345.834	312.46
346.287	333.53
346.739	324.16
347.191	307.78
347.644	338.21
348.096	286.72
348.548	333.53
349	314.8
349.452	321.82
349.904	349.91
350.356	286.72
350.808	263.31
351.26	286.72
351.711	361.61
352.163	370.97
352.615	361.61
353.066	335.87
353.518	305.44
353.969	370.97
354.421	319.48
354.872	324.16
355.324	284.38
355.775	342.89
356.226	375.66
356.677	331.19
357.128	319.48
357.579	366.29
358.03	342.89
358.481	373.32
358.932	300.76
359.383	321.82
359.834	387.36
360.285	277.35
360.735	232.88
361.186	303.1
361.637	380.34
362.087	282.03
362.538	286.72
362.988	345.23
363.438	277.35
363.889	352.25
364.339	340.55
364.789	286.72
365.239	368.63
365.689	272.67
366.139	366.29
366.589	314.8
367.039	403.74
367.489	352.25
367.939	368.63
368.389	303.1
368.839	361.61
369.288	359.27
369.738	291.4
370.187	263.31
370.637	356.93
371.086	324.16
371.536	314.8
371.985	340.55
372.434	284.38
372.884	345.23
373.333	253.95
373.782	296.08
374.231	300.76
374.68	305.44
375.129	359.27
375.578	373.32
376.027	347.57
376.475	293.74
376.924	324.16
377.373	300.76
377.822	321.82
378.27	298.42
378.719	305.44
379.167	324.16
379.616	270.33
380.064	282.03
380.512	307.78
380.961	366.29
381.409	300.76
381.857	307.78
382.305	303.1
382.753	242.25
383.201	326.5
383.649	284.38
384.097	293.74
384.545	338.21
384.992	349.91
385.44	368.63
385.888	310.12
386.335	305.44
386.783	317.14
387.231	314.8
387.678	333.53
388.125	335.87
388.573	310.12
389.02	368.63
389.467	370.97
389.914	347.57
390.362	317.14
390.809	256.29
391.256	333.53
391.703	324.16
392.15	326.5
392.596	312.46
393.043	380.34
393.49	333.53
393.937	310.12
394.383	284.38
394.83	352.25
395.276	296.08
395.723	333.53
396.169	340.55
396.616	282.03
397.062	310.12
397.508	324.16
397.954	267.99
398.401	328.85
398.847	256.29
399.293	307.78
399.739	399.06
400.185	347.57
400.631	303.1
401.076	310.12
401.522	326.5
401.968	366.29
402.414	387.36
402.859	249.27
403.305	326.5
403.75	289.06
404.196	359.27
404.641	286.72
405.086	375.66
405.532	293.74
405.977	293.74
406.422	300.76
406.867	300.76
407.312	349.91
407.757	356.93
408.202	380.34
408.647	275.01
409.092	345.23
409.537	328.85
409.982	345.23
410.426	338.21
410.871	300.76
411.316	340.55
411.76	326.5
412.205	317.14
412.649	298.42
413.093	340.55
413.538	347.57
413.982	378
414.426	317.14
414.87	331.19
415.314	342.89
415.758	340.55
416.202	333.53
416.646	326.5
417.09	361.61
417.534	324.16
417.978	328.85
418.421	314.8
418.865	349.91
419.309	338.21
419.752	403.74
420.196	321.82
420.639	352.25
421.083	319.48
421.526	284.38
421.969	265.65
422.412	310.12
422.856	356.93
423.299	340.55
423.742	338.21
424.185	282.03
424.628	279.69
425.071	359.27
425.513	356.93
425.956	359.27
426.399	345.23
426.842	331.19
427.284	342.89
427.727	284.38
428.169	324.16
428.612	284.38
429.054	361.61
429.497	291.4
429.939	305.44
430.381	282.03
430.823	361.61
431.265	314.8
431.707	265.65
432.149	342.89
432.591	298.42
433.033	267.99
433.475	277.35
433.917	389.7
434.359	253.95
434.8	326.5
435.242	277.35
435.684	282.03
436.125	328.85
436.567	317.14
437.008	303.1
437.449	282.03
437.891	321.82
438.332	312.46
438.773	321.82
439.214	328.85
439.656	246.93
440.097	272.67
440.538	385.02
440.978	314.8
441.419	307.78
441.86	314.8
442.301	270.33
442.742	378
443.182	314.8
443.623	326.5
444.063	347.57
444.504	289.06
444.944	342.89
445.385	324.16
445.825	321.82
446.265	307.78
446.706	279.69
447.146	324.16
447.586	338.21
448.026	324.16
448.466	307.78
448.906	345.23
449.346	324.16
449.786	354.59
450.225	314.8
450.665	331.19
451.105	303.1
451.544	347.57
451.984	289.06
452.424	328.85
452.863	352.25
453.302	324.16
453.742	326.5
454.181	373.32
454.62	307.78
455.059	300.76
455.499	338.21
455.938	326.5
456.377	326.5
456.816	275.01
457.254	331.19
457.693	345.23
458.132	279.69
458.571	331.19
459.01	267.99
459.448	296.08
459.887	345.23
460.325	349.91
460.764	328.85
461.202	291.4
461.641	356.93
462.079	289.06
462.517	347.57
462.955	260.97
463.393	321.82
463.832	326.5
464.27	326.5
464.708	331.19
465.145	275.01
465.583	286.72
466.021	312.46
466.459	354.59
466.897	338.21
467.334	296.08
467.772	300.76
468.209	324.16
468.647	289.06
469.084	326.5
469.522	291.4
469.959	246.93
470.396	291.4
470.833	331.19
471.271	345.23
471.708	275.01
472.145	333.53
472.582	331.19
473.019	272.67
473.456	349.91
473.892	258.63
474.329	286.72
474.766	310.12
475.202	279.69
475.639	352.25
476.076	347.57
476.512	282.03
476.949	331.19
477.385	321.82
477.821	338.21
478.258	307.78
478.694	368.63
479.13	300.76
479.566	282.03
480.002	303.1
480.438	354.59
480.874	300.76
481.31	270.33
481.746	293.74
482.181	356.93
482.617	335.87
483.053	359.27
483.488	275.01
483.924	319.48
484.36	345.23
484.795	307.78
485.23	314.8
485.666	352.25
486.101	321.82
486.536	359.27
486.971	298.42
487.407	389.7
487.842	310.12
488.277	361.61
488.712	370.97
489.146	349.91
489.581	314.8
490.016	331.19
490.451	342.89
490.885	319.48
491.32	319.48
491.755	314.8
492.189	342.89
492.624	342.89
493.058	335.87
493.492	303.1
493.927	347.57
494.361	366.29
494.795	291.4
495.229	317.14
495.663	319.48
496.097	321.82
496.531	298.42
496.965	312.46
497.399	242.25
497.833	307.78
498.266	399.06
498.7	270.33
499.134	342.89
499.567	312.46
500.001	359.27
500.434	319.48
500.868	242.25
501.301	380.34
501.734	272.67
502.168	310.12
502.601	289.06
503.034	312.46
503.467	319.48
503.9	256.29
504.333	317.14
504.766	265.65
505.199	370.97
505.632	307.78
506.064	342.89
506.497	279.69
506.93	328.85
507.362	314.8
507.795	331.19
508.227	314.8
508.66	345.23
509.092	340.55
509.524	263.31
509.956	300.76
510.389	272.67
510.821	368.63
511.253	361.61
511.685	312.46
512.117	279.69
512.549	307.78
512.981	258.63
513.412	328.85
513.844	319.48
514.276	270.33
514.707	331.19
515.139	277.35
515.571	340.55
516.002	354.59
516.433	368.63
516.865	324.16
517.296	328.85
517.727	347.57
518.159	289.06
518.59	389.7
519.021	272.67
519.452	303.1
519.883	326.5
520.314	317.14
520.744	366.29
521.175	345.23
521.606	291.4
522.037	298.42
522.467	293.74
522.898	321.82
523.328	321.82
523.759	392.04
524.189	363.95
524.62	300.76
525.05	319.48
525.48	338.21
525.91	396.72
526.341	331.19
526.771	265.65
527.201	392.04
527.631	354.59
528.061	356.93
528.49	296.08
528.92	338.21
529.35	373.32
529.78	284.38
530.209	317.14
530.639	370.97
531.068	275.01
531.498	378
531.927	300.76
532.357	317.14
532.786	356.93
533.215	300.76
533.644	319.48
534.074	298.42
534.503	312.46
534.932	293.74
535.361	317.14
535.79	335.87
536.218	335.87
536.647	422.47
537.076	319.48
537.505	354.59
537.933	317.14
538.362	275.01
538.79	284.38
539.219	340.55
539.647	312.46
540.076	317.14
540.504	305.44
540.932	394.38
541.36	263.31
541.788	300.76
542.217	363.95
542.645	314.8
543.073	331.19
543.5	293.74
543.928	317.14
544.356	354.59
544.784	267.99
545.211	356.93
545.639	347.57
546.067	303.1
546.494	378
546.922	314.8
547.349	378
547.776	326.5
548.204	310.12
548.631	375.66
549.058	370.97
549.485	310.12
549.912	340.55
550.339	373.32
550.766	275.01
551.193	310.12
551.62	284.38
552.047	300.76
552.474	345.23
552.9	338.21
553.327	345.23
553.754	272.67
554.18	293.74
554.607	284.38
555.033	312.46
555.459	349.91
555.886	270.33
556.312	319.48
556.738	286.72
557.164	291.4
557.59	263.31
558.016	270.33
558.442	307.78
558.868	296.08
559.294	354.59
559.72	298.42
560.145	307.78
560.571	279.69
560.997	272.67
561.422	270.33
561.848	293.74
562.273	326.5
562.699	284.38
563.124	312.46
563.549	363.95
563.974	338.21
564.4	317.14
564.825	305.44
565.25	385.02
565.675	307.78
566.1	331.19
566.525	396.72
566.95	324.16
567.374	251.61
567.799	331.19
568.224	366.29
568.648	380.34
569.073	380.34
569.497	270.33
569.922	324.16
570.346	359.27
570.771	258.63
571.195	338.21
571.619	321.82
572.043	310.12
572.467	342.89
572.891	314.8
573.315	289.06
573.739	338.21
574.163	298.42
574.587	370.97
575.011	305.44
575.435	321.82
575.858	317.14
576.282	317.14
576.705	272.67
577.129	305.44
577.552	291.4
577.976	326.5
578.399	293.74
578.822	246.93
579.245	314.8
579.669	265.65
580.092	335.87
580.515	310.12
580.938	286.72
581.361	300.76
581.784	300.76
582.206	303.1
582.629	331.19
583.052	291.4
583.474	279.69
583.897	289.06
584.32	319.48
584.742	319.48
585.165	298.42
585.587	317.14
586.009	335.87
586.431	326.5
586.854	331.19
587.276	312.46
587.698	321.82
588.12	345.23
588.542	363.95
588.964	296.08
589.386	291.4
589.807	347.57
590.229	312.46
590.651	349.91
591.073	361.61
591.494	303.1
591.916	354.59
592.337	324.16
592.759	328.85
593.18	272.67
593.601	342.89
594.022	349.91
594.444	305.44
594.865	284.38
595.286	321.82
595.707	324.16
596.128	328.85
596.549	263.31
596.97	338.21
597.39	338.21
597.811	328.85
598.232	321.82
598.652	359.27
599.073	321.82
599.494	331.19
599.914	279.69
600.334	413.1
600.755	333.53
601.175	282.03
601.595	286.72
602.015	289.06
602.436	349.91
602.856	389.7
603.276	326.5
603.696	338.21
604.115	293.74
604.535	305.44
604.955	352.25
605.375	307.78
605.794	298.42
606.214	347.57
606.634	324.16
607.053	342.89
607.473	298.42
607.892	307.78
608.311	317.14
608.731	399.06
609.15	282.03
609.569	307.78
609.988	303.1
610.407	331.19
610.826	319.48
611.245	317.14
611.664	373.32
612.083	333.53
612.501	342.89
612.92	251.61
613.339	331.19
613.757	326.5
614.176	272.67
614.594	310.12
615.013	279.69
615.431	356.93
615.85	345.23
616.268	289.06
616.686	321.82
617.104	270.33
617.522	307.78
617.94	307.78
618.358	321.82
618.776	342.89
619.194	312.46
619.612	279.69
620.03	275.01
620.447	282.03
620.865	375.66
621.282	282.03
621.7	354.59
622.117	352.25
622.535	293.74
622.952	326.5
623.369	284.38
623.787	260.97
624.204	370.97
624.621	277.35
625.038	349.91
625.455	370.97
625.872	326.5
626.289	296.08
626.706	352.25
627.123	310.12
627.539	300.76
627.956	335.87
628.373	338.21
628.789	338.21
629.206	312.46
629.622	307.78
630.038	331.19
630.455	317.14
630.871	303.1
631.287	338.21
631.703	354.59
632.12	324.16
632.536	331.19
632.952	310.12
633.368	326.5
633.783	349.91
634.199	347.57
634.615	342.89
635.031	307.78
635.446	321.82
635.862	399.06
636.277	293.74
636.693	253.95
637.108	298.42
637.524	389.7
637.939	305.44
638.354	300.76
638.77	340.55
639.185	354.59
639.6	366.29
640.015	272.67
640.43	345.23
640.845	352.25
641.259	284.38
641.674	345.23
642.089	321.82
642.504	326.5
642.918	314.8
643.333	258.63
643.747	317.14
644.162	385.02
644.576	289.06
644.991	324.16
645.405	338.21
645.819	354.59
646.233	317.14
646.647	265.65
647.061	319.48
647.475	368.63
647.889	321.82
648.303	345.23
648.717	296.08
649.131	298.42
649.545	361.61
649.958	338.21
650.372	345.23
650.785	324.16
651.199	303.1
651.612	282.03
652.026	298.42
652.439	378
652.852	333.53
653.266	300.76
653.679	354.59
654.092	354.59
654.505	333.53
654.918	277.35
655.331	354.59
655.744	289.06
656.156	321.82
656.569	300.76
656.982	305.44
657.394	293.74
657.807	378
658.22	310.12
658.632	363.95
659.044	347.57
659.457	333.53
659.869	342.89
660.281	335.87
660.693	284.38
661.106	260.97
661.518	267.99
661.93	366.29
662.342	387.36
662.754	328.85
663.165	326.5
663.577	282.03
663.989	317.14
664.401	314.8
664.812	289.06
665.224	303.1
665.635	312.46
666.047	345.23
666.458	305.44
666.869	326.5
667.281	328.85
667.692	347.57
668.103	354.59
668.514	282.03
668.925	326.5
669.336	368.63
669.747	293.74
670.158	307.78
670.569	335.87
670.979	251.61
671.39	338.21
671.801	347.57
672.211	275.01
672.622	354.59
673.032	378
673.443	298.42
673.853	293.74
674.263	310.12
674.674	368.63
675.084	305.44
675.494	359.27
675.904	310.12
676.314	321.82
676.724	338.21
677.134	296.08
677.544	342.89
677.953	359.27
678.363	300.76
678.773	382.68
679.182	342.89
679.592	291.4
680.001	291.4
680.411	349.91
680.82	349.91
681.23	328.85
681.639	312.46
682.048	298.42
682.457	282.03
682.866	319.48
683.275	335.87
683.684	375.66
684.093	378
684.502	270.33
684.911	298.42
685.32	312.46
685.728	335.87
686.137	356.93
686.546	331.19
686.954	289.06
687.363	328.85
687.771	335.87
688.179	312.46
688.588	277.35
688.996	321.82
689.404	293.74
689.812	307.78
690.22	239.9
690.628	352.25
691.036	338.21
691.444	296.08
691.852	317.14
692.26	352.25
692.667	436.51
693.075	307.78
693.483	342.89
693.89	303.1
694.298	305.44
694.705	361.61
695.112	340.55
695.52	286.72
695.927	305.44
696.334	333.53
696.741	291.4
697.148	403.74
697.555	347.57
697.962	300.76
698.369	286.72
698.776	326.5
699.183	340.55
699.59	321.82
699.996	265.65
700.403	352.25
700.81	354.59
701.216	319.48
701.623	277.35
702.029	296.08
702.435	333.53
702.842	321.82
703.248	279.69
703.654	286.72
704.06	305.44
704.466	286.72
704.872	324.16
705.278	312.46
705.684	207.14
706.09	300.76
706.496	375.66
706.901	342.89
707.307	263.31
707.712	331.19
708.118	317.14
708.523	293.74
708.929	328.85
709.334	340.55
709.74	282.03
710.145	270.33
710.55	342.89
710.955	289.06
711.36	403.74
711.765	284.38
712.17	345.23
712.575	286.72
712.98	836.74
713.385	410.76
713.789	333.53
714.194	275.01
714.599	291.4
715.003	328.85
715.408	354.59
715.812	319.48
716.217	314.8
716.621	307.78
717.025	354.59
717.429	345.23
717.833	289.06
718.238	328.85
718.642	401.4
719.046	312.46
719.449	340.55
719.853	321.82
720.257	349.91
720.661	312.46
721.065	305.44
721.468	291.4
721.872	296.08
722.275	314.8
722.679	333.53
723.082	333.53
723.485	340.55
723.889	319.48
724.292	272.67
724.695	277.35
725.098	300.76
725.501	314.8
725.904	349.91
726.307	317.14
726.71	286.72
727.113	312.46
727.516	296.08
727.918	347.57
728.321	335.87
728.724	328.85
729.126	333.53
729.529	342.89
729.931	312.46
730.333	335.87
730.736	303.1
731.138	296.08
731.54	319.48
731.942	333.53
732.344	265.65
732.746	282.03
733.148	235.22
733.55	340.55
733.952	342.89
734.354	319.48
734.756	331.19
735.157	378
735.559	296.08
735.96	324.16
736.362	260.97
736.763	300.76
737.165	300.76
737.566	394.38
737.967	347.57
738.368	298.42
738.77	354.59
739.171	298.42
739.572	284.38
739.973	265.65
740.374	293.74
740.774	303.1
741.175	237.56
741.576	314.8
741.977	375.66
742.377	380.34
742.778	319.48
743.178	352.25
743.579	314.8
743.979	284.38
744.379	328.85
744.78	275.01
745.18	291.4
745.58	328.85
745.98	310.12
746.38	265.65
746.78	305.44
747.18	368.63
747.58	303.1
747.98	321.82
748.38	366.29
748.779	310.12
749.179	272.67
749.578	333.53
749.978	286.72
750.377	340.55
750.777	345.23
751.176	275.01
751.575	300.76
751.975	319.48
752.374	296.08
752.773	382.68
753.172	319.48
753.571	293.74
753.97	279.69
754.369	277.35
754.768	354.59
755.166	298.42
755.565	347.57
755.964	307.78
756.362	267.99
756.761	349.91
757.159	289.06
757.558	326.5
757.956	392.04
758.354	328.85
758.753	300.76
759.151	279.69
759.549	270.33
759.947	321.82
760.345	298.42
760.743	284.38
761.141	303.1
761.539	359.27
761.936	286.72
762.334	284.38
762.732	296.08
763.129	300.76
763.527	263.31
763.924	267.99
764.322	356.93
764.719	314.8
765.117	335.87
765.514	317.14
765.911	305.44
