Data from Al_FLMS009871__1192__16-40-39-187.txt Node

Date: Fri Mar 08 16:40:39 CST 2024
User: pe5414po
Spectrometer: FLMS00987
Trigger mode: 0
Integration Time (sec): 1.000000E-1
Scans to average: 1
Electric dark correction enabled: true
Nonlinearity correction enabled: false
Boxcar width: 0
XAxis mode: Wavelengths
Number of Pixels in Spectrum: 2048
>>>>>Begin Spectral Data<<<<<
188.938	-178.32
189.409	-178.32
189.879	-178.32
190.349	-131.51
190.819	-115.13
191.29	-73
191.76	-94.06
192.23	-68.31
192.7	-68.31
193.17	-65.97
193.64	-54.27
194.109	-82.36
194.579	27.65
195.049	8.92
195.519	-7.46
195.988	53.39
196.458	-16.82
196.927	86.16
197.397	53.39
197.866	161.06
198.336	139.99
198.805	128.29
199.274	165.74
199.744	149.36
200.213	198.51
200.682	151.7
201.151	233.61
201.62	289.79
202.089	245.32
202.558	245.32
203.027	212.55
203.495	235.96
203.964	259.36
204.433	231.27
204.902	338.94
205.37	336.6
205.839	273.4
206.307	247.66
206.776	280.43
207.244	273.4
207.712	254.68
208.181	254.68
208.649	271.06
209.117	217.23
209.585	278.08
210.053	273.4
210.521	296.81
210.989	306.17
211.457	282.77
211.925	327.24
212.393	254.68
212.861	317.87
213.328	257.02
213.796	254.68
214.264	259.36
214.731	273.4
215.199	320.21
215.666	228.93
216.133	175.1
216.601	257.02
217.068	264.04
217.535	273.4
218.003	275.74
218.47	299.15
218.937	224.25
219.404	226.59
219.871	315.53
220.338	242.98
220.805	221.91
221.271	245.32
221.738	301.49
222.205	257.02
222.671	240.64
223.138	289.79
223.605	240.64
224.071	245.32
224.538	303.83
225.004	247.66
225.47	282.77
225.937	336.6
226.403	278.08
226.869	294.47
227.335	313.19
227.801	315.53
228.267	226.59
228.733	224.25
229.199	289.79
229.665	294.47
230.131	257.02
230.597	301.49
231.062	268.72
231.528	296.81
231.994	289.79
232.459	261.7
232.925	259.36
233.39	242.98
233.856	224.25
234.321	278.08
234.786	212.55
235.252	261.7
235.717	273.4
236.182	250
236.647	289.79
237.112	247.66
237.577	240.64
238.042	301.49
238.507	285.11
238.972	250
239.436	247.66
239.901	285.11
240.366	259.36
240.83	233.61
241.295	289.79
241.76	327.24
242.224	327.24
242.688	228.93
243.153	273.4
243.617	329.58
244.081	329.58
244.545	273.4
245.01	266.38
245.474	273.4
245.938	278.08
246.402	301.49
246.866	320.21
247.33	294.47
247.793	310.85
248.257	233.61
248.721	310.85
249.185	292.13
249.648	322.56
250.112	264.04
250.575	282.77
251.039	287.45
251.502	268.72
251.965	238.3
252.429	282.77
252.892	250
253.355	299.15
253.818	280.43
254.281	257.02
254.744	245.32
255.207	313.19
255.67	273.4
256.133	287.45
256.596	285.11
257.059	282.77
257.522	336.6
257.984	320.21
258.447	289.79
258.909	322.56
259.372	254.68
259.834	240.64
260.297	301.49
260.759	254.68
261.221	355.32
261.684	250
262.146	266.38
262.608	287.45
263.07	310.85
263.532	287.45
263.994	214.89
264.456	317.87
264.918	289.79
265.38	278.08
265.842	285.11
266.303	334.26
266.765	273.4
267.227	310.85
267.688	275.74
268.15	257.02
268.611	261.7
269.072	231.27
269.534	320.21
269.995	294.47
270.456	369.37
270.918	310.85
271.379	331.92
271.84	240.64
272.301	266.38
272.762	331.92
273.223	371.71
273.684	308.51
274.144	313.19
274.605	299.15
275.066	322.56
275.527	257.02
275.987	296.81
276.448	266.38
276.908	278.08
277.369	313.19
277.829	271.06
278.289	257.02
278.75	327.24
279.21	345.96
279.67	294.47
280.13	259.36
280.59	280.43
281.05	292.13
281.51	301.49
281.97	271.06
282.43	285.11
282.89	338.94
283.35	264.04
283.809	287.45
284.269	357.66
284.729	238.3
285.188	287.45
285.648	310.85
286.107	275.74
286.567	329.58
287.026	317.87
287.485	299.15
287.944	231.27
288.404	233.61
288.863	278.08
289.322	292.13
289.781	273.4
290.24	313.19
290.699	264.04
291.158	228.93
291.616	231.27
292.075	273.4
292.534	266.38
292.992	264.04
293.451	233.61
293.91	280.43
294.368	292.13
294.827	294.47
295.285	301.49
295.743	254.68
296.202	310.85
296.66	250
297.118	280.43
297.576	296.81
298.034	315.53
298.492	338.94
298.95	313.19
299.408	287.45
299.866	327.24
300.324	280.43
300.781	310.85
301.239	360
301.697	242.98
302.154	301.49
302.612	329.58
303.069	315.53
303.527	299.15
303.984	268.72
304.441	264.04
304.899	306.17
305.356	308.51
305.813	273.4
306.27	266.38
306.727	287.45
307.184	289.79
307.641	250
308.098	320.21
308.555	374.05
309.012	345.96
309.468	310.85
309.925	280.43
310.382	240.64
310.838	221.91
311.295	306.17
311.751	273.4
312.208	273.4
312.664	313.19
313.12	350.64
313.577	308.51
314.033	287.45
314.489	343.62
314.945	285.11
315.401	303.83
315.857	292.13
316.313	261.7
316.769	294.47
317.225	289.79
317.681	317.87
318.136	315.53
318.592	301.49
319.048	341.28
319.503	264.04
319.959	282.77
320.414	341.28
320.869	315.53
321.325	257.02
321.78	287.45
322.235	306.17
322.691	308.51
323.146	303.83
323.601	327.24
324.056	299.15
324.511	252.34
324.966	250
325.421	308.51
325.875	315.53
326.33	287.45
326.785	282.77
327.24	327.24
327.694	320.21
328.149	271.06
328.603	299.15
329.058	315.53
329.512	240.64
329.966	367.03
330.421	292.13
330.875	296.81
331.329	360
331.783	299.15
332.237	338.94
332.691	287.45
333.145	308.51
333.599	388.09
334.053	338.94
334.507	250
334.96	322.56
335.414	264.04
335.868	313.19
336.321	273.4
336.775	336.6
337.228	313.19
337.682	287.45
338.135	308.51
338.588	338.94
339.042	315.53
339.495	294.47
339.948	271.06
340.401	287.45
340.854	338.94
341.307	322.56
341.76	299.15
342.213	362.34
342.666	317.87
343.119	292.13
343.571	266.38
344.024	343.62
344.477	275.74
344.929	310.85
345.382	301.49
345.834	317.87
346.287	275.74
346.739	299.15
347.191	329.58
347.644	250
348.096	273.4
348.548	266.38
349	320.21
349.452	306.17
349.904	345.96
350.356	310.85
350.808	331.92
351.26	324.9
351.711	360
352.163	278.08
352.615	259.36
353.066	327.24
353.518	280.43
353.969	360
354.421	331.92
354.872	313.19
355.324	324.9
355.775	334.26
356.226	388.09
356.677	289.79
357.128	289.79
357.579	289.79
358.03	299.15
358.481	360
358.932	315.53
359.383	362.34
359.834	324.9
360.285	282.77
360.735	317.87
361.186	303.83
361.637	313.19
362.087	271.06
362.538	367.03
362.988	306.17
363.438	285.11
363.889	299.15
364.339	315.53
364.789	315.53
365.239	355.32
365.689	308.51
366.139	254.68
366.589	313.19
367.039	313.19
367.489	343.62
367.939	310.85
368.389	334.26
368.839	303.83
369.288	350.64
369.738	308.51
370.187	306.17
370.637	294.47
371.086	299.15
371.536	360
371.985	395.11
372.434	257.02
372.884	336.6
373.333	315.53
373.782	317.87
374.231	310.85
374.68	317.87
375.129	292.13
375.578	313.19
376.027	250
376.475	278.08
376.924	306.17
377.373	268.72
377.822	275.74
378.27	299.15
378.719	308.51
379.167	285.11
379.616	322.56
380.064	355.32
380.512	329.58
380.961	376.39
381.409	383.41
381.857	303.83
382.305	287.45
382.753	362.34
383.201	287.45
383.649	306.17
384.097	327.24
384.545	294.47
384.992	289.79
385.44	275.74
385.888	350.64
386.335	287.45
386.783	271.06
387.231	348.3
387.678	327.24
388.125	341.28
388.573	313.19
389.02	292.13
389.467	334.26
389.914	301.49
390.362	341.28
390.809	266.38
391.256	217.23
391.703	266.38
392.15	352.98
392.596	331.92
393.043	271.06
393.49	376.39
393.937	294.47
394.383	317.87
394.83	341.28
395.276	296.81
395.723	329.58
396.169	322.56
396.616	343.62
397.062	285.11
397.508	313.19
397.954	352.98
398.401	285.11
398.847	299.15
399.293	374.05
399.739	322.56
400.185	331.92
400.631	271.06
401.076	273.4
401.522	254.68
401.968	252.34
402.414	369.37
402.859	343.62
403.305	315.53
403.75	310.85
404.196	348.3
404.641	341.28
405.086	383.41
405.532	317.87
405.977	310.85
406.422	320.21
406.867	303.83
407.312	282.77
407.757	310.85
408.202	292.13
408.647	343.62
409.092	369.37
409.537	273.4
409.982	278.08
410.426	348.3
410.871	303.83
411.316	331.92
411.76	367.03
412.205	313.19
412.649	296.81
413.093	294.47
413.538	360
413.982	362.34
414.426	317.87
414.87	280.43
415.314	271.06
415.758	303.83
416.202	317.87
416.646	315.53
417.09	310.85
417.534	357.66
417.978	313.19
418.421	278.08
418.865	294.47
419.309	320.21
419.752	282.77
420.196	266.38
420.639	322.56
421.083	345.96
421.526	310.85
421.969	348.3
422.412	317.87
422.856	303.83
423.299	348.3
423.742	301.49
424.185	287.45
424.628	352.98
425.071	294.47
425.513	343.62
425.956	329.58
426.399	275.74
426.842	331.92
427.284	336.6
427.727	327.24
428.169	343.62
428.612	341.28
429.054	341.28
429.497	315.53
429.939	310.85
430.381	294.47
430.823	345.96
431.265	322.56
431.707	350.64
432.149	348.3
432.591	350.64
433.033	357.66
433.475	233.61
433.917	336.6
434.359	334.26
434.8	313.19
435.242	357.66
435.684	315.53
436.125	338.94
436.567	308.51
437.008	336.6
437.449	343.62
437.891	327.24
438.332	268.72
438.773	287.45
439.214	282.77
439.656	294.47
440.097	338.94
440.538	294.47
440.978	313.19
441.419	348.3
441.86	392.77
442.301	357.66
442.742	294.47
443.182	327.24
443.623	306.17
444.063	334.26
444.504	352.98
444.944	317.87
445.385	301.49
445.825	294.47
446.265	317.87
446.706	313.19
447.146	343.62
447.586	357.66
448.026	303.83
448.466	329.58
448.906	327.24
449.346	336.6
449.786	315.53
450.225	294.47
450.665	376.39
451.105	301.49
451.544	324.9
451.984	275.74
452.424	303.83
452.863	320.21
453.302	259.36
453.742	280.43
454.181	313.19
454.62	341.28
455.059	268.72
455.499	327.24
455.938	320.21
456.377	257.02
456.816	308.51
457.254	252.34
457.693	292.13
458.132	287.45
458.571	289.79
459.01	296.81
459.448	324.9
459.887	306.17
460.325	327.24
460.764	381.07
461.202	327.24
461.641	275.74
462.079	350.64
462.517	334.26
462.955	345.96
463.393	371.71
463.832	238.3
464.27	327.24
464.708	313.19
465.145	343.62
465.583	294.47
466.021	299.15
466.459	310.85
466.897	355.32
467.334	322.56
467.772	303.83
468.209	292.13
468.647	315.53
469.084	338.94
469.522	378.73
469.959	313.19
470.396	338.94
470.833	285.11
471.271	306.17
471.708	289.79
472.145	313.19
472.582	352.98
473.019	364.68
473.456	271.06
473.892	367.03
474.329	345.96
474.766	327.24
475.202	306.17
475.639	315.53
476.076	371.71
476.512	343.62
476.949	278.08
477.385	378.73
477.821	271.06
478.258	364.68
478.694	369.37
479.13	322.56
479.566	345.96
480.002	292.13
480.438	301.49
480.874	355.32
481.31	355.32
481.746	310.85
482.181	292.13
482.617	301.49
483.053	371.71
483.488	259.36
483.924	329.58
484.36	329.58
484.795	278.08
485.23	322.56
485.666	313.19
486.101	235.96
486.536	292.13
486.971	308.51
487.407	378.73
487.842	322.56
488.277	348.3
488.712	278.08
489.146	329.58
489.581	331.92
490.016	350.64
490.451	301.49
490.885	345.96
491.32	329.58
491.755	308.51
492.189	345.96
492.624	324.9
493.058	343.62
493.492	301.49
493.927	306.17
494.361	301.49
494.795	331.92
495.229	294.47
495.663	399.79
496.097	294.47
496.531	352.98
496.965	388.09
497.399	341.28
497.833	327.24
498.266	308.51
498.7	303.83
499.134	294.47
499.567	345.96
500.001	338.94
500.434	315.53
500.868	285.11
501.301	308.51
501.734	338.94
502.168	287.45
502.601	303.83
503.034	327.24
503.467	338.94
503.9	324.9
504.333	247.66
504.766	299.15
505.199	334.26
505.632	310.85
506.064	364.68
506.497	289.79
506.93	348.3
507.362	331.92
507.795	343.62
508.227	348.3
508.66	259.36
509.092	282.77
509.524	285.11
509.956	345.96
510.389	334.26
510.821	355.32
511.253	362.34
511.685	299.15
512.117	334.26
512.549	327.24
512.981	296.81
513.412	317.87
513.844	287.45
514.276	336.6
514.707	357.66
515.139	341.28
515.571	367.03
516.002	369.37
516.433	320.21
516.865	324.9
517.296	294.47
517.727	217.23
518.159	327.24
518.59	371.71
519.021	303.83
519.452	322.56
519.883	362.34
520.314	296.81
520.744	294.47
521.175	322.56
521.606	360
522.037	294.47
522.467	285.11
522.898	313.19
523.328	322.56
523.759	322.56
524.189	280.43
524.62	327.24
525.05	280.43
525.48	331.92
525.91	294.47
526.341	259.36
526.771	357.66
527.201	385.75
527.631	322.56
528.061	280.43
528.49	378.73
528.92	268.72
529.35	310.85
529.78	271.06
530.209	235.96
530.639	374.05
531.068	317.87
531.498	310.85
531.927	282.77
532.357	357.66
532.786	292.13
533.215	301.49
533.644	296.81
534.074	315.53
534.503	334.26
534.932	287.45
535.361	287.45
535.79	303.83
536.218	313.19
536.647	313.19
537.076	308.51
537.505	308.51
537.933	322.56
538.362	327.24
538.79	336.6
539.219	343.62
539.647	278.08
540.076	289.79
540.504	357.66
540.932	310.85
541.36	317.87
541.788	299.15
542.217	320.21
542.645	273.4
543.073	306.17
543.5	352.98
543.928	324.9
544.356	301.49
544.784	338.94
545.211	327.24
545.639	271.06
546.067	364.68
546.494	343.62
546.922	306.17
547.349	367.03
547.776	282.77
548.204	367.03
548.631	364.68
549.058	303.83
549.485	338.94
549.912	278.08
550.339	324.9
550.766	338.94
551.193	299.15
551.62	310.85
552.047	336.6
552.474	303.83
552.9	371.71
553.327	334.26
553.754	315.53
554.18	296.81
554.607	322.56
555.033	317.87
555.459	383.41
555.886	313.19
556.312	313.19
556.738	317.87
557.164	259.36
557.59	203.19
558.016	383.41
558.442	378.73
558.868	282.77
559.294	322.56
559.72	289.79
560.145	264.04
560.571	341.28
560.997	324.9
561.422	345.96
561.848	334.26
562.273	315.53
562.699	331.92
563.124	355.32
563.549	329.58
563.974	308.51
564.4	322.56
564.825	350.64
565.25	329.58
565.675	268.72
566.1	329.58
566.525	327.24
566.95	308.51
567.374	292.13
567.799	299.15
568.224	324.9
568.648	287.45
569.073	268.72
569.497	357.66
569.922	357.66
570.346	303.83
570.771	289.79
571.195	252.34
571.619	189.14
572.043	343.62
572.467	350.64
572.891	278.08
573.315	334.26
573.739	343.62
574.163	313.19
574.587	336.6
575.011	336.6
575.435	228.93
575.858	317.87
576.282	285.11
576.705	301.49
577.129	226.59
577.552	247.66
577.976	306.17
578.399	303.83
578.822	343.62
579.245	315.53
579.669	308.51
580.092	336.6
580.515	317.87
580.938	285.11
581.361	313.19
581.784	240.64
582.206	306.17
582.629	254.68
583.052	317.87
583.474	299.15
583.897	303.83
584.32	331.92
584.742	254.68
585.165	301.49
585.587	287.45
586.009	247.66
586.431	299.15
586.854	310.85
587.276	296.81
587.698	257.02
588.12	308.51
588.542	254.68
588.964	250
589.386	238.3
589.807	257.02
590.229	352.98
590.651	343.62
591.073	303.83
591.494	280.43
591.916	303.83
592.337	331.92
592.759	285.11
593.18	303.83
593.601	296.81
594.022	289.79
594.444	238.3
594.865	280.43
595.286	313.19
595.707	280.43
596.128	390.43
596.549	308.51
596.97	362.34
597.39	336.6
597.811	306.17
598.232	374.05
598.652	278.08
599.073	350.64
599.494	301.49
599.914	327.24
600.334	329.58
600.755	313.19
601.175	252.34
601.595	338.94
602.015	352.98
602.436	310.85
602.856	364.68
603.276	315.53
603.696	367.03
604.115	285.11
604.535	352.98
604.955	259.36
605.375	285.11
605.794	343.62
606.214	322.56
606.634	313.19
607.053	285.11
607.473	341.28
607.892	257.02
608.311	355.32
608.731	308.51
609.15	313.19
609.569	303.83
609.988	247.66
610.407	357.66
610.826	385.75
611.245	345.96
611.664	289.79
612.083	336.6
612.501	301.49
612.92	320.21
613.339	268.72
613.757	329.58
614.176	278.08
614.594	292.13
615.013	348.3
615.431	308.51
615.85	357.66
616.268	308.51
616.686	329.58
617.104	329.58
617.522	315.53
617.94	352.98
618.358	292.13
618.776	287.45
619.194	296.81
619.612	303.83
620.03	322.56
620.447	362.34
620.865	317.87
621.282	327.24
621.7	233.61
622.117	261.7
622.535	350.64
622.952	329.58
623.369	334.26
623.787	343.62
624.204	273.4
624.621	369.37
625.038	338.94
625.455	308.51
625.872	289.79
626.289	348.3
626.706	285.11
627.123	306.17
627.539	310.85
627.956	235.96
628.373	282.77
628.789	313.19
629.206	327.24
629.622	301.49
630.038	343.62
630.455	203.19
630.871	247.66
631.287	282.77
631.703	259.36
632.12	317.87
632.536	285.11
632.952	308.51
633.368	320.21
633.783	271.06
634.199	287.45
634.615	289.79
635.031	306.17
635.446	329.58
635.862	306.17
636.277	360
636.693	310.85
637.108	331.92
637.524	306.17
637.939	275.74
638.354	308.51
638.77	301.49
639.185	261.7
639.6	285.11
640.015	341.28
640.43	315.53
640.845	301.49
641.259	306.17
641.674	303.83
642.089	294.47
642.504	345.96
642.918	343.62
643.333	285.11
643.747	252.34
644.162	285.11
644.576	259.36
644.991	313.19
645.405	345.96
645.819	282.77
646.233	345.96
646.647	289.79
647.061	275.74
647.475	259.36
647.889	315.53
648.303	362.34
648.717	315.53
649.131	397.45
649.545	294.47
649.958	285.11
650.372	345.96
650.785	327.24
651.199	275.74
651.612	285.11
652.026	280.43
652.439	376.39
652.852	301.49
653.266	336.6
653.679	280.43
654.092	324.9
654.505	296.81
654.918	324.9
655.331	315.53
655.744	376.39
656.156	247.66
656.569	294.47
656.982	331.92
657.394	317.87
657.807	301.49
658.22	308.51
658.632	261.7
659.044	252.34
659.457	296.81
659.869	343.62
660.281	320.21
660.693	306.17
661.106	329.58
661.518	360
661.93	257.02
662.342	329.58
662.754	289.79
663.165	296.81
663.577	322.56
663.989	228.93
664.401	292.13
664.812	287.45
665.224	289.79
665.635	308.51
666.047	322.56
666.458	306.17
666.869	350.64
667.281	287.45
667.692	348.3
668.103	261.7
668.514	285.11
668.925	313.19
669.336	355.32
669.747	273.4
670.158	287.45
670.569	303.83
670.979	364.68
671.39	329.58
671.801	399.79
672.211	364.68
672.622	369.37
673.032	343.62
673.443	324.9
673.853	345.96
674.263	324.9
674.674	317.87
675.084	327.24
675.494	285.11
675.904	324.9
676.314	355.32
676.724	315.53
677.134	315.53
677.544	317.87
677.953	313.19
678.363	329.58
678.773	341.28
679.182	261.7
679.592	296.81
680.001	252.34
680.411	334.26
680.82	308.51
681.23	282.77
681.639	294.47
682.048	264.04
682.457	313.19
682.866	296.81
683.275	301.49
683.684	313.19
684.093	282.77
684.502	317.87
684.911	322.56
685.32	264.04
685.728	280.43
686.137	348.3
686.546	264.04
686.954	355.32
687.363	268.72
687.771	306.17
688.179	362.34
688.588	343.62
688.996	324.9
689.404	285.11
689.812	350.64
690.22	364.68
690.628	327.24
691.036	289.79
691.444	238.3
691.852	280.43
692.26	338.94
692.667	329.58
693.075	343.62
693.483	299.15
693.89	357.66
694.298	348.3
694.705	357.66
695.112	331.92
695.52	329.58
695.927	395.11
696.334	343.62
696.741	306.17
697.148	275.74
697.555	320.21
697.962	348.3
698.369	355.32
698.776	280.43
699.183	341.28
699.59	352.98
699.996	287.45
700.403	334.26
700.81	273.4
701.216	327.24
701.623	331.92
702.029	331.92
702.435	308.51
702.842	273.4
703.248	334.26
703.654	233.61
704.06	313.19
704.466	348.3
704.872	338.94
705.278	308.51
705.684	409.15
706.09	322.56
706.496	371.71
706.901	296.81
707.307	315.53
707.712	289.79
708.118	275.74
708.523	322.56
708.929	322.56
709.334	327.24
709.74	343.62
710.145	257.02
710.55	289.79
710.955	331.92
711.36	273.4
711.765	294.47
712.17	289.79
712.575	329.58
712.98	809.39
713.385	315.53
713.789	355.32
714.194	296.81
714.599	306.17
715.003	275.74
715.408	266.38
715.812	273.4
716.217	336.6
716.621	303.83
717.025	252.34
717.429	271.06
717.833	334.26
718.238	259.36
718.642	327.24
719.046	329.58
719.449	273.4
719.853	308.51
720.257	275.74
720.661	278.08
721.065	324.9
721.468	310.85
721.872	273.4
722.275	313.19
722.679	233.61
723.082	345.96
723.485	357.66
723.889	371.71
724.292	317.87
724.695	324.9
725.098	334.26
725.501	310.85
725.904	374.05
726.307	273.4
726.71	252.34
727.113	331.92
727.516	264.04
727.918	334.26
728.321	287.45
728.724	338.94
729.126	303.83
729.529	343.62
729.931	369.37
730.333	303.83
730.736	306.17
731.138	327.24
731.54	289.79
731.942	299.15
732.344	341.28
732.746	341.28
733.148	348.3
733.55	315.53
733.952	310.85
734.354	345.96
734.756	285.11
735.157	324.9
735.559	327.24
735.96	352.98
736.362	310.85
736.763	294.47
737.165	345.96
737.566	348.3
737.967	271.06
738.368	348.3
738.77	303.83
739.171	292.13
739.572	395.11
739.973	381.07
740.374	381.07
740.774	378.73
741.175	352.98
741.576	324.9
741.977	280.43
742.377	308.51
742.778	294.47
743.178	364.68
743.579	374.05
743.979	343.62
744.379	310.85
744.78	308.51
745.18	278.08
745.58	324.9
745.98	322.56
746.38	395.11
746.78	324.9
747.18	327.24
747.58	285.11
747.98	299.15
748.38	310.85
748.779	271.06
749.179	306.17
749.578	266.38
749.978	301.49
750.377	264.04
750.777	371.71
751.176	360
751.575	355.32
751.975	348.3
752.374	264.04
752.773	299.15
753.172	355.32
753.571	357.66
753.97	338.94
754.369	268.72
754.768	334.26
755.166	324.9
755.565	282.77
755.964	324.9
756.362	341.28
756.761	341.28
757.159	242.98
757.558	287.45
757.956	350.64
758.354	350.64
758.753	327.24
759.151	287.45
759.549	364.68
759.947	228.93
760.345	317.87
760.743	306.17
761.141	331.92
761.539	301.49
761.936	308.51
762.334	338.94
762.732	271.06
763.129	341.28
763.527	278.08
763.924	324.9
764.322	334.26
764.719	348.3
765.117	280.43
765.514	294.47
765.911	303.83
766.308	289.79
