Data from Al_FLMS009871__1195__16-40-39-482.txt Node

Date: Fri Mar 08 16:40:39 CST 2024
User: pe5414po
Spectrometer: FLMS00987
Trigger mode: 0
Integration Time (sec): 1.000000E-1
Scans to average: 1
Electric dark correction enabled: true
Nonlinearity correction enabled: false
Boxcar width: 0
XAxis mode: Wavelengths
Number of Pixels in Spectrum: 2048
>>>>>Begin Spectral Data<<<<<
188.938	-14.19
189.409	-14.19
189.879	-14.19
190.349	-140.58
190.819	-86.75
191.29	-96.11
191.76	-72.7
192.23	-56.32
192.7	-98.45
193.17	-49.3
193.64	-82.07
194.109	-37.59
194.579	51.35
195.049	2.19
195.519	39.64
195.988	27.94
196.458	23.26
196.927	39.64
197.397	98.16
197.866	93.48
198.336	116.88
198.805	123.9
199.274	168.37
199.744	292.42
200.213	233.91
200.682	208.16
201.151	247.95
201.62	261.99
202.089	219.86
202.558	224.55
203.027	257.31
203.495	254.97
203.964	360.3
204.433	283.06
204.902	322.85
205.37	259.65
205.839	341.57
206.307	264.33
206.776	336.89
207.244	343.91
207.712	367.32
208.181	320.51
208.649	252.63
209.117	318.17
209.585	334.55
210.053	280.72
210.521	294.76
210.989	304.12
211.457	280.72
211.925	325.19
212.393	187.1
212.861	264.33
213.328	264.33
213.796	261.99
214.264	311.14
214.731	374.34
215.199	261.99
215.666	294.76
216.133	280.72
216.601	290.08
217.068	280.72
217.535	238.59
218.003	306.46
218.47	285.4
218.937	327.53
219.404	304.12
219.871	311.14
220.338	278.38
220.805	292.42
221.271	276.04
221.738	297.1
222.205	257.31
222.671	273.7
223.138	313.49
223.605	273.7
224.071	240.93
224.538	231.57
225.004	276.04
225.47	259.65
225.937	224.55
226.403	269.02
226.869	269.02
227.335	245.61
227.801	283.06
228.267	261.99
228.733	264.33
229.199	292.42
229.665	257.31
230.131	252.63
230.597	224.55
231.062	261.99
231.528	271.36
231.994	334.55
232.459	280.72
232.925	233.91
233.39	304.12
233.856	252.63
234.321	264.33
234.786	294.76
235.252	290.08
235.717	287.74
236.182	252.63
236.647	313.49
237.112	269.02
237.577	285.4
238.042	292.42
238.507	243.27
238.972	297.1
239.436	297.1
239.901	264.33
240.366	322.85
240.83	238.59
241.295	236.25
241.76	287.74
242.224	355.62
242.688	297.1
243.153	343.91
243.617	266.67
244.081	278.38
244.545	285.4
245.01	325.19
245.474	315.83
245.938	357.96
246.402	367.32
246.866	236.25
247.33	287.74
247.793	273.7
248.257	299.44
248.721	355.62
249.185	313.49
249.648	311.14
250.112	285.4
250.575	276.04
251.039	341.57
251.502	334.55
251.965	313.49
252.429	329.87
252.892	208.16
253.355	297.1
253.818	283.06
254.281	269.02
254.744	350.93
255.207	341.57
255.67	278.38
256.133	280.72
256.596	339.23
257.059	367.32
257.522	283.06
257.984	306.46
258.447	266.67
258.909	224.55
259.372	290.08
259.834	322.85
260.297	254.97
260.759	306.46
261.221	364.98
261.684	304.12
262.146	334.55
262.608	346.25
263.07	320.51
263.532	238.59
263.994	222.2
264.456	264.33
264.918	304.12
265.38	224.55
265.842	240.93
266.303	273.7
266.765	318.17
267.227	376.68
267.688	313.49
268.15	236.25
268.611	177.73
269.072	294.76
269.534	290.08
269.995	343.91
270.456	350.93
270.918	280.72
271.379	226.89
271.84	271.36
272.301	297.1
272.762	259.65
273.223	243.27
273.684	247.95
274.144	308.8
274.605	297.1
275.066	259.65
275.527	327.53
275.987	311.14
276.448	346.25
276.908	353.27
277.369	236.25
277.829	308.8
278.289	322.85
278.75	332.21
279.21	269.02
279.67	369.66
280.13	271.36
280.59	278.38
281.05	306.46
281.51	273.7
281.97	367.32
282.43	355.62
282.89	329.87
283.35	297.1
283.809	313.49
284.269	290.08
284.729	308.8
285.188	304.12
285.648	325.19
286.107	236.25
286.567	308.8
287.026	346.25
287.485	315.83
287.944	287.74
288.404	276.04
288.863	336.89
289.322	280.72
289.781	306.46
290.24	311.14
290.699	250.29
291.158	313.49
291.616	313.49
292.075	348.59
292.534	290.08
292.992	287.74
293.451	264.33
293.91	311.14
294.368	304.12
294.827	355.62
295.285	250.29
295.743	261.99
296.202	322.85
296.66	264.33
297.118	299.44
297.576	283.06
298.034	327.53
298.492	311.14
298.95	318.17
299.408	261.99
299.866	294.76
300.324	332.21
300.781	261.99
301.239	294.76
301.697	252.63
302.154	320.51
302.612	357.96
303.069	341.57
303.527	334.55
303.984	379.02
304.441	332.21
304.899	304.12
305.356	339.23
305.813	292.42
306.27	329.87
306.727	254.97
307.184	381.36
307.641	271.36
308.098	360.3
308.555	379.02
309.012	313.49
309.468	353.27
309.925	346.25
310.382	357.96
310.838	306.46
311.295	269.02
311.751	339.23
312.208	369.66
312.664	261.99
313.12	292.42
313.577	283.06
314.033	336.89
314.489	297.1
314.945	266.67
315.401	318.17
315.857	318.17
316.313	290.08
316.769	334.55
317.225	329.87
317.681	341.57
318.136	308.8
318.592	276.04
319.048	292.42
319.503	276.04
319.959	254.97
320.414	318.17
320.869	315.83
321.325	290.08
321.78	278.38
322.235	313.49
322.691	318.17
323.146	287.74
323.601	280.72
324.056	315.83
324.511	283.06
324.966	327.53
325.421	353.27
325.875	308.8
326.33	367.32
326.785	355.62
327.24	294.76
327.694	329.87
328.149	308.8
328.603	299.44
329.058	299.44
329.512	283.06
329.966	336.89
330.421	350.93
330.875	397.74
331.329	313.49
331.783	318.17
332.237	285.4
332.691	306.46
333.145	315.83
333.599	386.04
334.053	271.36
334.507	301.78
334.96	250.29
335.414	334.55
335.868	276.04
336.321	332.21
336.775	336.89
337.228	320.51
337.682	353.27
338.135	315.83
338.588	348.59
339.042	322.85
339.495	341.57
339.948	315.83
340.401	339.23
340.854	308.8
341.307	311.14
341.76	367.32
342.213	306.46
342.666	341.57
343.119	327.53
343.571	290.08
344.024	290.08
344.477	329.87
344.929	301.78
345.382	280.72
345.834	374.34
346.287	304.12
346.739	318.17
347.191	280.72
347.644	313.49
348.096	290.08
348.548	297.1
349	313.49
349.452	332.21
349.904	311.14
350.356	364.98
350.808	245.61
351.26	329.87
351.711	297.1
352.163	290.08
352.615	402.43
353.066	322.85
353.518	355.62
353.969	320.51
354.421	379.02
354.872	322.85
355.324	306.46
355.775	276.04
356.226	327.53
356.677	343.91
357.128	287.74
357.579	409.45
358.03	306.46
358.481	271.36
358.932	306.46
359.383	348.59
359.834	301.78
360.285	367.32
360.735	374.34
361.186	325.19
361.637	327.53
362.087	276.04
362.538	322.85
362.988	294.76
363.438	334.55
363.889	341.57
364.339	297.1
364.789	273.7
365.239	283.06
365.689	343.91
366.139	357.96
366.589	362.64
367.039	322.85
367.489	383.7
367.939	297.1
368.389	336.89
368.839	325.19
369.288	414.13
369.738	341.57
370.187	367.32
370.637	304.12
371.086	357.96
371.536	304.12
371.985	311.14
372.434	322.85
372.884	339.23
373.333	397.74
373.782	297.1
374.231	313.49
374.68	395.4
375.129	364.98
375.578	381.36
376.027	353.27
376.475	329.87
376.924	322.85
377.373	294.76
377.822	334.55
378.27	395.4
378.719	336.89
379.167	348.59
379.616	339.23
380.064	329.87
380.512	299.44
380.961	318.17
381.409	346.25
381.857	299.44
382.305	355.62
382.753	355.62
383.201	364.98
383.649	350.93
384.097	261.99
384.545	243.27
384.992	336.89
385.44	257.31
385.888	320.51
386.335	313.49
386.783	322.85
387.231	341.57
387.678	357.96
388.125	374.34
388.573	311.14
389.02	311.14
389.467	278.38
389.914	332.21
390.362	322.85
390.809	313.49
391.256	285.4
391.703	334.55
392.15	306.46
392.596	287.74
393.043	315.83
393.49	376.68
393.937	334.55
394.383	362.64
394.83	339.23
395.276	311.14
395.723	313.49
396.169	386.04
396.616	334.55
397.062	336.89
397.508	327.53
397.954	329.87
398.401	299.44
398.847	372
399.293	336.89
399.739	393.06
400.185	346.25
400.631	332.21
401.076	306.46
401.522	350.93
401.968	341.57
402.414	285.4
402.859	287.74
403.305	320.51
403.75	372
404.196	390.72
404.641	325.19
405.086	283.06
405.532	257.31
405.977	297.1
406.422	367.32
406.867	329.87
407.312	341.57
407.757	329.87
408.202	343.91
408.647	280.72
409.092	304.12
409.537	353.27
409.982	318.17
410.426	311.14
410.871	290.08
411.316	348.59
411.76	306.46
412.205	341.57
412.649	350.93
413.093	271.36
413.538	332.21
413.982	287.74
414.426	311.14
414.87	348.59
415.314	407.11
415.758	278.38
416.202	297.1
416.646	290.08
417.09	304.12
417.534	334.55
417.978	357.96
418.421	386.04
418.865	290.08
419.309	334.55
419.752	259.65
420.196	252.63
420.639	355.62
421.083	266.67
421.526	329.87
421.969	329.87
422.412	308.8
422.856	355.62
423.299	306.46
423.742	416.47
424.185	276.04
424.628	364.98
425.071	332.21
425.513	292.42
425.956	301.78
426.399	292.42
426.842	304.12
427.284	334.55
427.727	304.12
428.169	336.89
428.612	346.25
429.054	339.23
429.497	339.23
429.939	381.36
430.381	374.34
430.823	332.21
431.265	229.23
431.707	313.49
432.149	339.23
432.591	332.21
433.033	348.59
433.475	273.7
433.917	367.32
434.359	318.17
434.8	306.46
435.242	336.89
435.684	350.93
436.125	318.17
436.567	336.89
437.008	348.59
437.449	327.53
437.891	320.51
438.332	336.89
438.773	336.89
439.214	257.31
439.656	383.7
440.097	322.85
440.538	327.53
440.978	332.21
441.419	329.87
441.86	336.89
442.301	362.64
442.742	327.53
443.182	297.1
443.623	355.62
444.063	332.21
444.504	357.96
444.944	304.12
445.385	329.87
445.825	280.72
446.265	315.83
446.706	355.62
447.146	409.45
447.586	294.76
448.026	369.66
448.466	381.36
448.906	374.34
449.346	353.27
449.786	367.32
450.225	283.06
450.665	357.96
451.105	327.53
451.544	334.55
451.984	350.93
452.424	379.02
452.863	336.89
453.302	355.62
453.742	367.32
454.181	348.59
454.62	273.7
455.059	308.8
455.499	276.04
455.938	397.74
456.377	360.3
456.816	336.89
457.254	332.21
457.693	329.87
458.132	334.55
458.571	301.78
459.01	304.12
459.448	329.87
459.887	266.67
460.325	254.97
460.764	350.93
461.202	283.06
461.641	383.7
462.079	311.14
462.517	346.25
462.955	236.25
463.393	327.53
463.832	369.66
464.27	407.11
464.708	285.4
465.145	364.98
465.583	308.8
466.021	367.32
466.459	254.97
466.897	353.27
467.334	318.17
467.772	336.89
468.209	336.89
468.647	318.17
469.084	329.87
469.522	308.8
469.959	299.44
470.396	280.72
470.833	355.62
471.271	341.57
471.708	393.06
472.145	360.3
472.582	313.49
473.019	341.57
473.456	283.06
473.892	299.44
474.329	329.87
474.766	320.51
475.202	395.4
475.639	308.8
476.076	322.85
476.512	299.44
476.949	332.21
477.385	304.12
477.821	271.36
478.258	278.38
478.694	369.66
479.13	315.83
479.566	325.19
480.002	360.3
480.438	278.38
480.874	245.61
481.31	325.19
481.746	264.33
482.181	315.83
482.617	301.78
483.053	355.62
483.488	311.14
483.924	318.17
484.36	306.46
484.795	397.74
485.23	276.04
485.666	318.17
486.101	313.49
486.536	311.14
486.971	306.46
487.407	353.27
487.842	247.95
488.277	287.74
488.712	346.25
489.146	278.38
489.581	334.55
490.016	297.1
490.451	320.51
490.885	360.3
491.32	264.33
491.755	273.7
492.189	311.14
492.624	238.59
493.058	348.59
493.492	360.3
493.927	308.8
494.361	336.89
494.795	329.87
495.229	327.53
495.663	372
496.097	280.72
496.531	308.8
496.965	332.21
497.399	355.62
497.833	343.91
498.266	383.7
498.7	304.12
499.134	325.19
499.567	336.89
500.001	329.87
500.434	332.21
500.868	311.14
501.301	334.55
501.734	346.25
502.168	327.53
502.601	362.64
503.034	327.53
503.467	311.14
503.9	416.47
504.333	308.8
504.766	315.83
505.199	318.17
505.632	313.49
506.064	343.91
506.497	341.57
506.93	325.19
507.362	318.17
507.795	357.96
508.227	320.51
508.66	297.1
509.092	362.64
509.524	383.7
509.956	332.21
510.389	313.49
510.821	329.87
511.253	283.06
511.685	247.95
512.117	334.55
512.549	306.46
512.981	313.49
513.412	285.4
513.844	334.55
514.276	367.32
514.707	301.78
515.139	301.78
515.571	315.83
516.002	301.78
516.433	294.76
516.865	355.62
517.296	280.72
517.727	367.32
518.159	290.08
518.59	254.97
519.021	369.66
519.452	350.93
519.883	313.49
520.314	294.76
520.744	233.91
521.175	297.1
521.606	357.96
522.037	339.23
522.467	287.74
522.898	247.95
523.328	325.19
523.759	290.08
524.189	393.06
524.62	311.14
525.05	320.51
525.48	343.91
525.91	308.8
526.341	308.8
526.771	332.21
527.201	374.34
527.631	343.91
528.061	369.66
528.49	299.44
528.92	311.14
529.35	318.17
529.78	306.46
530.209	273.7
530.639	304.12
531.068	299.44
531.498	304.12
531.927	353.27
532.357	299.44
532.786	329.87
533.215	383.7
533.644	348.59
534.074	301.78
534.503	360.3
534.932	336.89
535.361	350.93
535.79	350.93
536.218	266.67
536.647	325.19
537.076	252.63
537.505	287.74
537.933	353.27
538.362	367.32
538.79	292.42
539.219	374.34
539.647	362.64
540.076	301.78
540.504	336.89
540.932	280.72
541.36	304.12
541.788	343.91
542.217	336.89
542.645	393.06
543.073	294.76
543.5	343.91
543.928	283.06
544.356	332.21
544.784	327.53
545.211	362.64
545.639	292.42
546.067	360.3
546.494	404.77
546.922	285.4
547.349	372
547.776	341.57
548.204	320.51
548.631	336.89
549.058	329.87
549.485	315.83
549.912	315.83
550.339	261.99
550.766	374.34
551.193	318.17
551.62	306.46
552.047	320.51
552.474	322.85
552.9	308.8
553.327	360.3
553.754	325.19
554.18	318.17
554.607	348.59
555.033	364.98
555.459	273.7
555.886	329.87
556.312	318.17
556.738	341.57
557.164	308.8
557.59	243.27
558.016	299.44
558.442	290.08
558.868	357.96
559.294	336.89
559.72	304.12
560.145	336.89
560.571	364.98
560.997	336.89
561.422	313.49
561.848	339.23
562.273	261.99
562.699	318.17
563.124	350.93
563.549	297.1
563.974	308.8
564.4	318.17
564.825	322.85
565.25	306.46
565.675	306.46
566.1	336.89
566.525	360.3
566.95	362.64
567.374	357.96
567.799	306.46
568.224	360.3
568.648	306.46
569.073	348.59
569.497	257.31
569.922	400.09
570.346	283.06
570.771	320.51
571.195	304.12
571.619	334.55
572.043	311.14
572.467	271.36
572.891	318.17
573.315	343.91
573.739	283.06
574.163	350.93
574.587	327.53
575.011	336.89
575.435	386.04
575.858	407.11
576.282	362.64
576.705	332.21
577.129	379.02
577.552	369.66
577.976	292.42
578.399	339.23
578.822	325.19
579.245	343.91
579.669	334.55
580.092	346.25
580.515	341.57
580.938	283.06
581.361	306.46
581.784	329.87
582.206	327.53
582.629	348.59
583.052	285.4
583.474	348.59
583.897	336.89
584.32	257.31
584.742	280.72
585.165	348.59
585.587	290.08
586.009	355.62
586.431	297.1
586.854	229.23
587.276	299.44
587.698	308.8
588.12	341.57
588.542	367.32
588.964	404.77
589.386	318.17
589.807	341.57
590.229	292.42
590.651	290.08
591.073	336.89
591.494	341.57
591.916	376.68
592.337	318.17
592.759	369.66
593.18	341.57
593.601	343.91
594.022	276.04
594.444	360.3
594.865	339.23
595.286	306.46
595.707	339.23
596.128	283.06
596.549	240.93
596.97	402.43
597.39	306.46
597.811	332.21
598.232	397.74
598.652	264.33
599.073	402.43
599.494	325.19
599.914	315.83
600.334	329.87
600.755	327.53
601.175	350.93
601.595	250.29
602.015	278.38
602.436	318.17
602.856	430.51
603.276	325.19
603.696	362.64
604.115	226.89
604.535	350.93
604.955	318.17
605.375	334.55
605.794	353.27
606.214	332.21
606.634	311.14
607.053	388.38
607.473	283.06
607.892	311.14
608.311	348.59
608.731	425.83
609.15	357.96
609.569	313.49
609.988	290.08
610.407	276.04
610.826	292.42
611.245	364.98
611.664	283.06
612.083	364.98
612.501	334.55
612.92	318.17
613.339	294.76
613.757	304.12
614.176	308.8
614.594	357.96
615.013	369.66
615.431	339.23
615.85	301.78
616.268	304.12
616.686	355.62
617.104	362.64
617.522	374.34
617.94	327.53
618.358	287.74
618.776	280.72
619.194	311.14
619.612	327.53
620.03	327.53
620.447	297.1
620.865	280.72
621.282	379.02
621.7	327.53
622.117	332.21
622.535	329.87
622.952	341.57
623.369	353.27
623.787	299.44
624.204	325.19
624.621	313.49
625.038	306.46
625.455	315.83
625.872	332.21
626.289	320.51
626.706	367.32
627.123	362.64
627.539	297.1
627.956	306.46
628.373	313.49
628.789	355.62
629.206	343.91
629.622	301.78
630.038	353.27
630.455	292.42
630.871	374.34
631.287	348.59
631.703	299.44
632.12	339.23
632.536	341.57
632.952	322.85
633.368	397.74
633.783	322.85
634.199	346.25
634.615	278.38
635.031	372
635.446	339.23
635.862	292.42
636.277	313.49
636.693	301.78
637.108	311.14
637.524	360.3
637.939	308.8
638.354	297.1
638.77	318.17
639.185	346.25
639.6	339.23
640.015	332.21
640.43	320.51
640.845	341.57
641.259	350.93
641.674	299.44
642.089	320.51
642.504	383.7
642.918	353.27
643.333	311.14
643.747	276.04
644.162	276.04
644.576	332.21
644.991	254.97
645.405	369.66
645.819	334.55
646.233	334.55
646.647	240.93
647.061	313.49
647.475	339.23
647.889	329.87
648.303	325.19
648.717	273.7
649.131	311.14
649.545	322.85
649.958	271.36
650.372	315.83
650.785	304.12
651.199	299.44
651.612	376.68
652.026	393.06
652.439	343.91
652.852	339.23
653.266	294.76
653.679	327.53
654.092	346.25
654.505	334.55
654.918	313.49
655.331	348.59
655.744	407.11
656.156	360.3
656.569	311.14
656.982	311.14
657.394	276.04
657.807	315.83
658.22	315.83
658.632	257.31
659.044	379.02
659.457	348.59
659.869	315.83
660.281	325.19
660.693	301.78
661.106	339.23
661.518	290.08
661.93	362.64
662.342	414.13
662.754	355.62
663.165	416.47
663.577	276.04
663.989	329.87
664.401	350.93
664.812	313.49
665.224	334.55
665.635	372
666.047	318.17
666.458	278.38
666.869	339.23
667.281	320.51
667.692	343.91
668.103	341.57
668.514	348.59
668.925	276.04
669.336	313.49
669.747	353.27
670.158	357.96
670.569	327.53
670.979	376.68
671.39	325.19
671.801	390.72
672.211	322.85
672.622	280.72
673.032	313.49
673.443	362.64
673.853	315.83
674.263	357.96
674.674	350.93
675.084	311.14
675.494	343.91
675.904	329.87
676.314	294.76
676.724	297.1
677.134	308.8
677.544	353.27
677.953	294.76
678.363	297.1
678.773	442.21
679.182	261.99
679.592	414.13
680.001	386.04
680.411	311.14
680.82	327.53
681.23	318.17
681.639	336.89
682.048	341.57
682.457	285.4
682.866	271.36
683.275	318.17
683.684	294.76
684.093	311.14
684.502	348.59
684.911	318.17
685.32	280.72
685.728	287.74
686.137	313.49
686.546	416.47
686.954	341.57
687.363	364.98
687.771	367.32
688.179	339.23
688.588	348.59
688.996	287.74
689.404	332.21
689.812	360.3
690.22	369.66
690.628	304.12
691.036	311.14
691.444	367.32
691.852	297.1
692.26	320.51
692.667	353.27
693.075	266.67
693.483	294.76
693.89	292.42
694.298	388.38
694.705	301.78
695.112	311.14
695.52	339.23
695.927	332.21
696.334	339.23
696.741	299.44
697.148	318.17
697.555	341.57
697.962	320.51
698.369	318.17
698.776	299.44
699.183	322.85
699.59	343.91
699.996	261.99
700.403	308.8
700.81	304.12
701.216	278.38
701.623	339.23
702.029	332.21
702.435	290.08
702.842	245.61
703.248	334.55
703.654	336.89
704.06	315.83
704.466	261.99
704.872	290.08
705.278	334.55
705.684	322.85
706.09	292.42
706.496	355.62
706.901	341.57
707.307	315.83
707.712	301.78
708.118	336.89
708.523	327.53
708.929	353.27
709.334	339.23
709.74	332.21
710.145	308.8
710.55	313.49
710.955	297.1
711.36	299.44
711.765	278.38
712.17	219.86
712.575	362.64
712.98	816.7
713.385	374.34
713.789	269.02
714.194	250.29
714.599	301.78
715.003	313.49
715.408	308.8
715.812	372
716.217	292.42
716.621	304.12
717.025	376.68
717.429	355.62
717.833	367.32
718.238	257.31
718.642	376.68
719.046	280.72
719.449	318.17
719.853	332.21
720.257	315.83
720.661	332.21
721.065	369.66
721.468	327.53
721.872	320.51
722.275	301.78
722.679	353.27
723.082	348.59
723.485	294.76
723.889	322.85
724.292	271.36
724.695	311.14
725.098	336.89
725.501	301.78
725.904	329.87
726.307	322.85
726.71	299.44
727.113	261.99
727.516	369.66
727.918	257.31
728.321	348.59
728.724	364.98
729.126	299.44
729.529	357.96
729.931	297.1
730.333	299.44
730.736	318.17
731.138	336.89
731.54	383.7
731.942	278.38
732.344	318.17
732.746	304.12
733.148	350.93
733.55	318.17
733.952	320.51
734.354	350.93
734.756	381.36
735.157	311.14
735.559	322.85
735.96	322.85
736.362	362.64
736.763	357.96
737.165	313.49
737.566	320.51
737.967	348.59
738.368	297.1
738.77	318.17
739.171	297.1
739.572	360.3
739.973	308.8
740.374	353.27
740.774	336.89
741.175	325.19
741.576	376.68
741.977	341.57
742.377	297.1
742.778	364.98
743.178	325.19
743.579	336.89
743.979	297.1
744.379	306.46
744.78	322.85
745.18	292.42
745.58	346.25
745.98	334.55
746.38	357.96
746.78	381.36
747.18	369.66
747.58	276.04
747.98	311.14
748.38	369.66
748.779	362.64
749.179	287.74
749.578	320.51
749.978	290.08
750.377	292.42
750.777	320.51
751.176	325.19
751.575	294.76
751.975	304.12
752.374	318.17
752.773	299.44
753.172	269.02
753.571	311.14
753.97	395.4
754.369	308.8
754.768	369.66
755.166	278.38
755.565	318.17
755.964	304.12
756.362	411.79
756.761	348.59
757.159	325.19
757.558	388.38
757.956	367.32
758.354	327.53
758.753	299.44
759.151	320.51
759.549	334.55
759.947	327.53
760.345	308.8
760.743	299.44
761.141	308.8
761.539	264.33
761.936	304.12
762.334	266.67
762.732	369.66
763.129	355.62
763.527	346.25
763.924	320.51
764.322	297.1
764.719	343.91
765.117	374.34
765.514	313.49
