Data from Al_FLMS009871__1185__16-40-38-482.txt Node

Date: Fri Mar 08 16:40:38 CST 2024
User: pe5414po
Spectrometer: FLMS00987
Trigger mode: 0
Integration Time (sec): 1.000000E-1
Scans to average: 1
Electric dark correction enabled: true
Nonlinearity correction enabled: false
Boxcar width: 0
XAxis mode: Wavelengths
Number of Pixels in Spectrum: 2048
>>>>>Begin Spectral Data<<<<<
188.938	-81.92
189.409	-81.92
189.879	-81.92
190.349	-81.92
190.819	-77.24
191.29	-126.39
191.76	-98.3
192.23	-91.28
192.7	-79.58
193.17	-39.79
193.64	-35.11
194.109	-53.83
194.579	-14.04
195.049	124.05
195.519	-7.02
195.988	42.13
196.458	18.72
196.927	35.11
197.397	84.26
197.866	112.35
198.336	128.73
198.805	102.98
199.274	236.39
199.744	177.88
200.213	163.84
200.682	241.08
201.151	215.33
201.62	201.29
202.089	234.05
202.558	273.84
203.027	231.71
203.495	276.18
203.964	212.99
204.433	252.78
204.902	266.82
205.37	287.89
205.839	353.42
206.307	315.97
206.776	322.99
207.244	367.46
207.712	395.55
208.181	315.97
208.649	287.89
209.117	269.16
209.585	304.27
210.053	346.4
210.521	301.93
210.989	273.84
211.457	315.97
211.925	306.61
212.393	271.5
212.861	220.01
213.328	248.1
213.796	245.76
214.264	292.57
214.731	327.68
215.199	297.25
215.666	231.71
216.133	262.14
216.601	313.63
217.068	238.73
217.535	236.39
218.003	227.03
218.47	238.73
218.937	236.39
219.404	273.84
219.871	238.73
220.338	215.33
220.805	283.2
221.271	308.95
221.738	234.05
222.205	273.84
222.671	313.63
223.138	285.55
223.605	266.82
224.071	182.56
224.538	262.14
225.004	245.76
225.47	198.95
225.937	236.39
226.403	269.16
226.869	266.82
227.335	266.82
227.801	248.1
228.267	187.24
228.733	325.33
229.199	222.35
229.665	287.89
230.131	241.08
230.597	304.27
231.062	334.7
231.528	255.12
231.994	278.52
232.459	297.25
232.925	339.38
233.39	245.76
233.856	290.23
234.321	297.25
234.786	283.2
235.252	205.97
235.717	308.95
236.182	304.27
236.647	273.84
237.112	280.86
237.577	262.14
238.042	276.18
238.507	283.2
238.972	257.46
239.436	304.27
239.901	280.86
240.366	306.61
240.83	238.73
241.295	241.08
241.76	255.12
242.224	191.92
242.688	325.33
243.153	344.06
243.617	283.2
244.081	308.95
244.545	330.02
245.01	241.08
245.474	269.16
245.938	271.5
246.402	271.5
246.866	322.99
247.33	212.99
247.793	283.2
248.257	280.86
248.721	304.27
249.185	283.2
249.648	306.61
250.112	285.55
250.575	266.82
251.039	278.52
251.502	262.14
251.965	273.84
252.429	297.25
252.892	231.71
253.355	330.02
253.818	346.4
254.281	318.31
254.744	301.93
255.207	367.46
255.67	290.23
256.133	238.73
256.596	234.05
257.059	266.82
257.522	299.59
257.984	257.46
258.447	292.57
258.909	304.27
259.372	259.8
259.834	280.86
260.297	334.7
260.759	205.97
261.221	269.16
261.684	245.76
262.146	290.23
262.608	231.71
263.07	299.59
263.532	259.8
263.994	299.59
264.456	271.5
264.918	278.52
265.38	360.44
265.842	287.89
266.303	243.42
266.765	285.55
267.227	264.48
267.688	292.57
268.15	273.84
268.611	243.42
269.072	255.12
269.534	220.01
269.995	304.27
270.456	351.08
270.918	252.78
271.379	271.5
271.84	320.65
272.301	194.26
272.762	306.61
273.223	360.44
273.684	280.86
274.144	290.23
274.605	278.52
275.066	334.7
275.527	283.2
275.987	271.5
276.448	280.86
276.908	297.25
277.369	273.84
277.829	285.55
278.289	327.68
278.75	360.44
279.21	362.78
279.67	308.95
280.13	273.84
280.59	327.68
281.05	311.29
281.51	320.65
281.97	290.23
282.43	280.86
282.89	290.23
283.35	346.4
283.809	327.68
284.269	290.23
284.729	285.55
285.188	337.04
285.648	285.55
286.107	308.95
286.567	290.23
287.026	264.48
287.485	294.91
287.944	283.2
288.404	243.42
288.863	234.05
289.322	276.18
289.781	269.16
290.24	280.86
290.699	327.68
291.158	285.55
291.616	306.61
292.075	278.52
292.534	276.18
292.992	248.1
293.451	306.61
293.91	269.16
294.368	306.61
294.827	255.12
295.285	325.33
295.743	264.48
296.202	301.93
296.66	297.25
297.118	271.5
297.576	311.29
298.034	285.55
298.492	266.82
298.95	264.48
299.408	271.5
299.866	280.86
300.324	334.7
300.781	301.93
301.239	304.27
301.697	290.23
302.154	271.5
302.612	278.52
303.069	276.18
303.527	269.16
303.984	332.36
304.441	360.44
304.899	292.57
305.356	306.61
305.813	348.74
306.27	278.52
306.727	287.89
307.184	304.27
307.641	287.89
308.098	276.18
308.555	301.93
309.012	334.7
309.468	348.74
309.925	311.29
310.382	292.57
310.838	304.27
311.295	367.46
311.751	224.69
312.208	248.1
312.664	388.53
313.12	301.93
313.577	290.23
314.033	276.18
314.489	325.33
314.945	376.83
315.401	304.27
315.857	318.31
316.313	255.12
316.769	297.25
317.225	327.68
317.681	287.89
318.136	304.27
318.592	318.31
319.048	306.61
319.503	327.68
319.959	334.7
320.414	301.93
320.869	318.31
321.325	287.89
321.78	294.91
322.235	287.89
322.691	252.78
323.146	322.99
323.601	292.57
324.056	334.7
324.511	283.2
324.966	341.72
325.421	241.08
325.875	280.86
326.33	325.33
326.785	388.53
327.24	315.97
327.694	339.38
328.149	332.36
328.603	334.7
329.058	315.97
329.512	301.93
329.966	299.59
330.421	339.38
330.875	287.89
331.329	297.25
331.783	290.23
332.237	337.04
332.691	327.68
333.145	287.89
333.599	301.93
334.053	337.04
334.507	299.59
334.96	318.31
335.414	259.8
335.868	313.63
336.321	304.27
336.775	379.17
337.228	280.86
337.682	292.57
338.135	306.61
338.588	269.16
339.042	339.38
339.495	280.86
339.948	290.23
340.401	311.29
340.854	320.65
341.307	308.95
341.76	322.99
342.213	327.68
342.666	337.04
343.119	365.12
343.571	425.98
344.024	297.25
344.477	308.95
344.929	332.36
345.382	299.59
345.834	301.93
346.287	301.93
346.739	360.44
347.191	264.48
347.644	262.14
348.096	304.27
348.548	252.78
349	306.61
349.452	280.86
349.904	318.31
350.356	297.25
350.808	313.63
351.26	325.33
351.711	346.4
352.163	257.46
352.615	269.16
353.066	376.83
353.518	367.46
353.969	290.23
354.421	297.25
354.872	269.16
355.324	318.31
355.775	313.63
356.226	280.86
356.677	283.2
357.128	259.8
357.579	304.27
358.03	306.61
358.481	322.99
358.932	262.14
359.383	255.12
359.834	297.25
360.285	390.87
360.735	376.83
361.186	252.78
361.637	299.59
362.087	325.33
362.538	297.25
362.988	322.99
363.438	318.31
363.889	308.95
364.339	301.93
364.789	311.29
365.239	297.25
365.689	304.27
366.139	280.86
366.589	397.89
367.039	313.63
367.489	358.1
367.939	320.65
368.389	322.99
368.839	339.38
369.288	301.93
369.738	285.55
370.187	318.31
370.637	325.33
371.086	318.31
371.536	308.95
371.985	301.93
372.434	355.76
372.884	339.38
373.333	290.23
373.782	374.49
374.231	290.23
374.68	332.36
375.129	262.14
375.578	243.42
376.027	313.63
376.475	369.8
376.924	353.42
377.373	351.08
377.822	374.49
378.27	287.89
378.719	306.61
379.167	315.97
379.616	372.15
380.064	341.72
380.512	330.02
380.961	339.38
381.409	306.61
381.857	255.12
382.305	306.61
382.753	285.55
383.201	313.63
383.649	287.89
384.097	285.55
384.545	339.38
384.992	325.33
385.44	381.51
385.888	353.42
386.335	358.1
386.783	308.95
387.231	362.78
387.678	301.93
388.125	334.7
388.573	332.36
389.02	365.12
389.467	297.25
389.914	304.27
390.362	311.29
390.809	292.57
391.256	294.91
391.703	306.61
392.15	311.29
392.596	360.44
393.043	346.4
393.49	278.52
393.937	287.89
394.383	290.23
394.83	372.15
395.276	332.36
395.723	311.29
396.169	264.48
396.616	299.59
397.062	325.33
397.508	297.25
397.954	280.86
398.401	285.55
398.847	322.99
399.293	297.25
399.739	269.16
400.185	294.91
400.631	273.84
401.076	315.97
401.522	348.74
401.968	334.7
402.414	306.61
402.859	318.31
403.305	320.65
403.75	332.36
404.196	344.06
404.641	315.97
405.086	248.1
405.532	313.63
405.977	283.2
406.422	311.29
406.867	311.29
407.312	320.65
407.757	325.33
408.202	341.72
408.647	341.72
409.092	318.31
409.537	285.55
409.982	372.15
410.426	348.74
410.871	362.78
411.316	318.31
411.76	367.46
412.205	344.06
412.649	332.36
413.093	386.19
413.538	322.99
413.982	308.95
414.426	292.57
414.87	278.52
415.314	360.44
415.758	273.84
416.202	318.31
416.646	308.95
417.09	334.7
417.534	301.93
417.978	327.68
418.421	252.78
418.865	346.4
419.309	287.89
419.752	332.36
420.196	313.63
420.639	332.36
421.083	290.23
421.526	278.52
421.969	362.78
422.412	348.74
422.856	287.89
423.299	313.63
423.742	348.74
424.185	250.44
424.628	266.82
425.071	348.74
425.513	259.8
425.956	262.14
426.399	301.93
426.842	292.57
427.284	276.18
427.727	334.7
428.169	308.95
428.612	285.55
429.054	299.59
429.497	320.65
429.939	311.29
430.381	322.99
430.823	301.93
431.265	313.63
431.707	238.73
432.149	369.8
432.591	287.89
433.033	313.63
433.475	259.8
433.917	334.7
434.359	287.89
434.8	278.52
435.242	297.25
435.684	404.91
436.125	334.7
436.567	283.2
437.008	367.46
437.449	283.2
437.891	313.63
438.332	269.16
438.773	308.95
439.214	276.18
439.656	318.31
440.097	292.57
440.538	287.89
440.978	365.12
441.419	353.42
441.86	346.4
442.301	285.55
442.742	334.7
443.182	304.27
443.623	269.16
444.063	322.99
444.504	334.7
444.944	315.97
445.385	395.55
445.825	325.33
446.265	358.1
446.706	353.42
447.146	330.02
447.586	290.23
448.026	292.57
448.466	304.27
448.906	315.97
449.346	299.59
449.786	285.55
450.225	304.27
450.665	325.33
451.105	330.02
451.544	383.85
451.984	301.93
452.424	362.78
452.863	292.57
453.302	313.63
453.742	388.53
454.181	360.44
454.62	325.33
455.059	252.78
455.499	297.25
455.938	292.57
456.377	339.38
456.816	311.29
457.254	285.55
457.693	348.74
458.132	327.68
458.571	318.31
459.01	351.08
459.448	287.89
459.887	313.63
460.325	327.68
460.764	327.68
461.202	311.29
461.641	395.55
462.079	348.74
462.517	351.08
462.955	374.49
463.393	351.08
463.832	299.59
464.27	313.63
464.708	367.46
465.145	313.63
465.583	292.57
466.021	266.82
466.459	264.48
466.897	299.59
467.334	344.06
467.772	351.08
468.209	330.02
468.647	346.4
469.084	308.95
469.522	301.93
469.959	301.93
470.396	271.5
470.833	355.76
471.271	351.08
471.708	266.82
472.145	327.68
472.582	304.27
473.019	299.59
473.456	339.38
473.892	339.38
474.329	280.86
474.766	330.02
475.202	346.4
475.639	308.95
476.076	299.59
476.512	304.27
476.949	294.91
477.385	290.23
477.821	360.44
478.258	365.12
478.694	311.29
479.13	287.89
479.566	322.99
480.002	287.89
480.438	322.99
480.874	290.23
481.31	311.29
481.746	297.25
482.181	297.25
482.617	339.38
483.053	360.44
483.488	299.59
483.924	334.7
484.36	278.52
484.795	313.63
485.23	297.25
485.666	285.55
486.101	301.93
486.536	273.84
486.971	287.89
487.407	334.7
487.842	348.74
488.277	332.36
488.712	341.72
489.146	367.46
489.581	283.2
490.016	379.17
490.451	301.93
490.885	301.93
491.32	322.99
491.755	346.4
492.189	390.87
492.624	332.36
493.058	355.76
493.492	283.2
493.927	322.99
494.361	320.65
494.795	372.15
495.229	313.63
495.663	355.76
496.097	311.29
496.531	285.55
496.965	358.1
497.399	287.89
497.833	322.99
498.266	332.36
498.7	315.97
499.134	280.86
499.567	353.42
500.001	287.89
500.434	306.61
500.868	381.51
501.301	276.18
501.734	320.65
502.168	306.61
502.601	325.33
503.034	348.74
503.467	250.44
503.9	313.63
504.333	301.93
504.766	306.61
505.199	360.44
505.632	320.65
506.064	297.25
506.497	285.55
506.93	339.38
507.362	315.97
507.795	327.68
508.227	334.7
508.66	330.02
509.092	322.99
509.524	353.42
509.956	280.86
510.389	278.52
510.821	341.72
511.253	311.29
511.685	325.33
512.117	341.72
512.549	315.97
512.981	306.61
513.412	351.08
513.844	306.61
514.276	306.61
514.707	297.25
515.139	344.06
515.571	334.7
516.002	278.52
516.433	334.7
516.865	325.33
517.296	255.12
517.727	311.29
518.159	320.65
518.59	283.2
519.021	362.78
519.452	322.99
519.883	332.36
520.314	341.72
520.744	304.27
521.175	344.06
521.606	278.52
522.037	311.29
522.467	269.16
522.898	400.23
523.328	344.06
523.759	409.59
524.189	332.36
524.62	325.33
525.05	344.06
525.48	325.33
525.91	344.06
526.341	287.89
526.771	404.91
527.201	311.29
527.631	301.93
528.061	315.97
528.49	311.29
528.92	271.5
529.35	355.76
529.78	266.82
530.209	334.7
530.639	266.82
531.068	332.36
531.498	337.04
531.927	269.16
532.357	362.78
532.786	358.1
533.215	315.97
533.644	322.99
534.074	325.33
534.503	353.42
534.932	294.91
535.361	344.06
535.79	362.78
536.218	292.57
536.647	339.38
537.076	330.02
537.505	320.65
537.933	381.51
538.362	322.99
538.79	299.59
539.219	299.59
539.647	327.68
540.076	339.38
540.504	353.42
540.932	280.86
541.36	351.08
541.788	313.63
542.217	332.36
542.645	325.33
543.073	351.08
543.5	311.29
543.928	306.61
544.356	400.23
544.784	306.61
545.211	344.06
545.639	346.4
546.067	386.19
546.494	292.57
546.922	400.23
547.349	330.02
547.776	374.49
548.204	313.63
548.631	337.04
549.058	264.48
549.485	285.55
549.912	337.04
550.339	353.42
550.766	271.5
551.193	332.36
551.62	339.38
552.047	351.08
552.474	325.33
552.9	271.5
553.327	381.51
553.754	294.91
554.18	348.74
554.607	325.33
555.033	337.04
555.459	273.84
555.886	292.57
556.312	308.95
556.738	325.33
557.164	304.27
557.59	285.55
558.016	285.55
558.442	294.91
558.868	344.06
559.294	325.33
559.72	292.57
560.145	330.02
560.571	320.65
560.997	320.65
561.422	348.74
561.848	276.18
562.273	332.36
562.699	294.91
563.124	294.91
563.549	351.08
563.974	334.7
564.4	320.65
564.825	372.15
565.25	330.02
565.675	353.42
566.1	301.93
566.525	290.23
566.95	301.93
567.374	304.27
567.799	315.97
568.224	369.8
568.648	341.72
569.073	318.31
569.497	301.93
569.922	358.1
570.346	250.44
570.771	334.7
571.195	337.04
571.619	337.04
572.043	327.68
572.467	353.42
572.891	315.97
573.315	313.63
573.739	280.86
574.163	313.63
574.587	339.38
575.011	283.2
575.435	348.74
575.858	294.91
576.282	358.1
576.705	337.04
577.129	271.5
577.552	308.95
577.976	353.42
578.399	374.49
578.822	308.95
579.245	337.04
579.669	383.85
580.092	348.74
580.515	425.98
580.938	327.68
581.361	337.04
581.784	318.31
582.206	327.68
582.629	330.02
583.052	355.76
583.474	294.91
583.897	337.04
584.32	313.63
584.742	290.23
585.165	337.04
585.587	297.25
586.009	332.36
586.431	311.29
586.854	294.91
587.276	327.68
587.698	315.97
588.12	297.25
588.542	308.95
588.964	222.35
589.386	341.72
589.807	283.2
590.229	287.89
590.651	322.99
591.073	292.57
591.494	353.42
591.916	322.99
592.337	390.87
592.759	255.12
593.18	360.44
593.601	348.74
594.022	273.84
594.444	306.61
594.865	285.55
595.286	348.74
595.707	266.82
596.128	341.72
596.549	283.2
596.97	292.57
597.39	304.27
597.811	269.16
598.232	297.25
598.652	266.82
599.073	397.89
599.494	315.97
599.914	287.89
600.334	306.61
600.755	344.06
601.175	250.44
601.595	292.57
602.015	330.02
602.436	315.97
602.856	461.09
603.276	297.25
603.696	313.63
604.115	327.68
604.535	297.25
604.955	369.8
605.375	306.61
605.794	372.15
606.214	308.95
606.634	259.8
607.053	283.2
607.473	264.48
607.892	306.61
608.311	304.27
608.731	334.7
609.15	322.99
609.569	322.99
609.988	353.42
610.407	353.42
610.826	339.38
611.245	301.93
611.664	297.25
612.083	353.42
612.501	339.38
612.92	238.73
613.339	304.27
613.757	315.97
614.176	315.97
614.594	308.95
615.013	297.25
615.431	292.57
615.85	269.16
616.268	264.48
616.686	257.46
617.104	315.97
617.522	290.23
617.94	339.38
618.358	304.27
618.776	306.61
619.194	297.25
619.612	322.99
620.03	308.95
620.447	367.46
620.865	297.25
621.282	311.29
621.7	353.42
622.117	322.99
622.535	294.91
622.952	320.65
623.369	304.27
623.787	339.38
624.204	287.89
624.621	283.2
625.038	299.59
625.455	283.2
625.872	299.59
626.289	203.63
626.706	388.53
627.123	308.95
627.539	304.27
627.956	318.31
628.373	320.65
628.789	315.97
629.206	337.04
629.622	376.83
630.038	322.99
630.455	285.55
630.871	273.84
631.287	360.44
631.703	337.04
632.12	311.29
632.536	381.51
632.952	299.59
633.368	358.1
633.783	299.59
634.199	313.63
634.615	348.74
635.031	341.72
635.446	383.85
635.862	318.31
636.277	353.42
636.693	341.72
637.108	301.93
637.524	285.55
637.939	322.99
638.354	259.8
638.77	344.06
639.185	332.36
639.6	367.46
640.015	315.97
640.43	278.52
640.845	273.84
641.259	306.61
641.674	341.72
642.089	334.7
642.504	400.23
642.918	327.68
643.333	264.48
643.747	259.8
644.162	320.65
644.576	273.84
644.991	341.72
645.405	322.99
645.819	358.1
646.233	332.36
646.647	313.63
647.061	372.15
647.475	348.74
647.889	435.34
648.303	306.61
648.717	255.12
649.131	325.33
649.545	294.91
649.958	325.33
650.372	362.78
650.785	276.18
651.199	358.1
651.612	241.08
652.026	292.57
652.439	292.57
652.852	372.15
653.266	341.72
653.679	372.15
654.092	276.18
654.505	337.04
654.918	315.97
655.331	334.7
655.744	362.78
656.156	376.83
656.569	337.04
656.982	418.96
657.394	259.8
657.807	297.25
658.22	257.46
658.632	388.53
659.044	395.55
659.457	297.25
659.869	315.97
660.281	367.46
660.693	269.16
661.106	308.95
661.518	353.42
661.93	334.7
662.342	290.23
662.754	311.29
663.165	304.27
663.577	320.65
663.989	259.8
664.401	341.72
664.812	299.59
665.224	320.65
665.635	262.14
666.047	287.89
666.458	292.57
666.869	280.86
667.281	313.63
667.692	285.55
668.103	273.84
668.514	322.99
668.925	276.18
669.336	334.7
669.747	287.89
670.158	365.12
670.569	283.2
670.979	315.97
671.39	315.97
671.801	292.57
672.211	332.36
672.622	285.55
673.032	339.38
673.443	250.44
673.853	332.36
674.263	339.38
674.674	264.48
675.084	318.31
675.494	344.06
675.904	344.06
676.314	369.8
676.724	280.86
677.134	341.72
677.544	372.15
677.953	250.44
678.363	348.74
678.773	360.44
679.182	330.02
679.592	283.2
680.001	334.7
680.411	308.95
680.82	362.78
681.23	341.72
681.639	304.27
682.048	306.61
682.457	313.63
682.866	306.61
683.275	306.61
683.684	311.29
684.093	320.65
684.502	292.57
684.911	255.12
685.32	320.65
685.728	299.59
686.137	285.55
686.546	322.99
686.954	337.04
687.363	299.59
687.771	332.36
688.179	301.93
688.588	278.52
688.996	304.27
689.404	341.72
689.812	292.57
690.22	285.55
690.628	358.1
691.036	306.61
691.444	390.87
691.852	285.55
692.26	362.78
692.667	299.59
693.075	320.65
693.483	330.02
693.89	315.97
694.298	315.97
694.705	332.36
695.112	308.95
695.52	355.76
695.927	362.78
696.334	283.2
696.741	287.89
697.148	332.36
697.555	337.04
697.962	306.61
698.369	299.59
698.776	320.65
699.183	381.51
699.59	327.68
699.996	311.29
700.403	388.53
700.81	318.31
701.216	297.25
701.623	346.4
702.029	299.59
702.435	358.1
702.842	383.85
703.248	320.65
703.654	308.95
704.06	318.31
704.466	355.76
704.872	369.8
705.278	313.63
705.684	308.95
706.09	304.27
706.496	276.18
706.901	390.87
707.307	283.2
707.712	332.36
708.118	287.89
708.523	344.06
708.929	325.33
709.334	266.82
709.74	315.97
710.145	358.1
710.55	320.65
710.955	325.33
711.36	273.84
711.765	269.16
712.17	304.27
712.575	341.72
712.98	784.08
713.385	304.27
713.789	330.02
714.194	330.02
714.599	334.7
715.003	344.06
715.408	278.52
715.812	393.21
716.217	355.76
716.621	334.7
717.025	325.33
717.429	320.65
717.833	351.08
718.238	285.55
718.642	259.8
719.046	320.65
719.449	224.69
719.853	325.33
720.257	297.25
720.661	217.67
721.065	285.55
721.468	290.23
721.872	315.97
722.275	390.87
722.679	327.68
723.082	311.29
723.485	285.55
723.889	292.57
724.292	367.46
724.695	327.68
725.098	327.68
725.501	353.42
725.904	280.86
726.307	322.99
726.71	322.99
727.113	351.08
727.516	339.38
727.918	337.04
728.321	273.84
728.724	325.33
729.126	273.84
729.529	285.55
729.931	294.91
730.333	280.86
730.736	311.29
731.138	379.17
731.54	297.25
731.942	348.74
732.344	276.18
732.746	369.8
733.148	315.97
733.55	273.84
733.952	351.08
734.354	292.57
734.756	334.7
735.157	358.1
735.559	257.46
735.96	320.65
736.362	337.04
736.763	330.02
737.165	280.86
737.566	358.1
737.967	322.99
738.368	280.86
738.77	304.27
739.171	276.18
739.572	308.95
739.973	278.52
740.374	337.04
740.774	325.33
741.175	381.51
741.576	332.36
741.977	283.2
742.377	365.12
742.778	334.7
743.178	348.74
743.579	358.1
743.979	327.68
744.379	365.12
744.78	311.29
745.18	304.27
745.58	290.23
745.98	313.63
746.38	341.72
746.78	355.76
747.18	344.06
747.58	318.31
747.98	362.78
748.38	306.61
748.779	304.27
749.179	348.74
749.578	337.04
749.978	269.16
750.377	292.57
750.777	320.65
751.176	299.59
751.575	322.99
751.975	306.61
752.374	294.91
752.773	262.14
753.172	294.91
753.571	325.33
753.97	301.93
754.369	269.16
754.768	280.86
755.166	325.33
755.565	334.7
755.964	304.27
756.362	283.2
756.761	280.86
757.159	325.33
757.558	348.74
757.956	320.65
758.354	327.68
758.753	322.99
759.151	344.06
759.549	229.37
759.947	355.76
760.345	280.86
760.743	292.57
761.141	301.93
761.539	348.74
761.936	294.91
762.334	341.72
762.732	322.99
763.129	351.08
763.527	290.23
763.924	376.83
764.322	278.52
764.719	376.83
765.117	339.38
