Data from Al_FLMS009871__1182__16-40-38-182.txt Node

Date: Fri Mar 08 16:40:38 CST 2024
User: pe5414po
Spectrometer: FLMS00987
Trigger mode: 0
Integration Time (sec): 1.000000E-1
Scans to average: 1
Electric dark correction enabled: true
Nonlinearity correction enabled: false
Boxcar width: 0
XAxis mode: Wavelengths
Number of Pixels in Spectrum: 2048
>>>>>Begin Spectral Data<<<<<
188.938	-89.38
189.409	-89.38
189.879	-89.38
190.349	-87.04
190.819	-91.72
191.29	-147.89
191.76	-126.83
192.23	-94.06
192.7	15.94
193.17	-70.65
193.64	-98.74
194.109	-105.76
194.579	27.65
195.049	-26.18
195.519	34.67
195.988	25.31
196.458	81.48
196.927	102.54
197.397	107.23
197.866	86.16
198.336	189.14
198.805	109.57
199.274	182.12
199.744	179.78
200.213	271.06
200.682	210.21
201.151	231.27
201.62	240.64
202.089	247.66
202.558	313.19
203.027	226.59
203.495	259.36
203.964	264.04
204.433	306.17
204.902	329.58
205.37	271.06
205.839	306.17
206.307	252.34
206.776	329.58
207.244	327.24
207.712	247.66
208.181	357.66
208.649	257.02
209.117	285.11
209.585	299.15
210.053	278.08
210.521	289.79
210.989	268.72
211.457	282.77
211.925	289.79
212.393	259.36
212.861	322.56
213.328	273.4
213.796	313.19
214.264	289.79
214.731	226.59
215.199	226.59
215.666	266.38
216.133	250
216.601	285.11
217.068	210.21
217.535	242.98
218.003	292.13
218.47	268.72
218.937	282.77
219.404	231.27
219.871	238.3
220.338	238.3
220.805	301.49
221.271	280.43
221.738	264.04
222.205	296.81
222.671	193.83
223.138	280.43
223.605	303.83
224.071	294.47
224.538	245.32
225.004	221.91
225.47	233.61
225.937	292.13
226.403	217.23
226.869	280.43
227.335	240.64
227.801	280.43
228.267	224.25
228.733	238.3
229.199	247.66
229.665	357.66
230.131	266.38
230.597	252.34
231.062	179.78
231.528	217.23
231.994	289.79
232.459	310.85
232.925	289.79
233.39	285.11
233.856	294.47
234.321	294.47
234.786	247.66
235.252	303.83
235.717	301.49
236.182	278.08
236.647	282.77
237.112	278.08
237.577	320.21
238.042	331.92
238.507	259.36
238.972	285.11
239.436	254.68
239.901	322.56
240.366	221.91
240.83	282.77
241.295	240.64
241.76	299.15
242.224	278.08
242.688	221.91
243.153	303.83
243.617	245.32
244.081	327.24
244.545	254.68
245.01	287.45
245.474	250
245.938	308.51
246.402	369.37
246.866	280.43
247.33	310.85
247.793	301.49
248.257	289.79
248.721	287.45
249.185	327.24
249.648	299.15
250.112	257.02
250.575	294.47
251.039	296.81
251.502	313.19
251.965	299.15
252.429	245.32
252.892	296.81
253.355	338.94
253.818	310.85
254.281	261.7
254.744	308.51
255.207	273.4
255.67	261.7
256.133	228.93
256.596	247.66
257.059	308.51
257.522	341.28
257.984	345.96
258.447	334.26
258.909	273.4
259.372	294.47
259.834	287.45
260.297	322.56
260.759	264.04
261.221	299.15
261.684	315.53
262.146	292.13
262.608	329.58
263.07	313.19
263.532	331.92
263.994	296.81
264.456	383.41
264.918	294.47
265.38	334.26
265.842	324.9
266.303	264.04
266.765	317.87
267.227	287.45
267.688	296.81
268.15	338.94
268.611	336.6
269.072	308.51
269.534	338.94
269.995	287.45
270.456	308.51
270.918	289.79
271.379	299.15
271.84	294.47
272.301	324.9
272.762	275.74
273.223	228.93
273.684	261.7
274.144	282.77
274.605	264.04
275.066	212.55
275.527	324.9
275.987	317.87
276.448	299.15
276.908	308.51
277.369	306.17
277.829	310.85
278.289	313.19
278.75	271.06
279.21	345.96
279.67	306.17
280.13	299.15
280.59	287.45
281.05	322.56
281.51	214.89
281.97	235.96
282.43	345.96
282.89	320.21
283.35	343.62
283.809	317.87
284.269	336.6
284.729	280.43
285.188	383.41
285.648	310.85
286.107	238.3
286.567	261.7
287.026	317.87
287.485	308.51
287.944	303.83
288.404	254.68
288.863	317.87
289.322	341.28
289.781	266.38
290.24	296.81
290.699	345.96
291.158	322.56
291.616	362.34
292.075	292.13
292.534	273.4
292.992	294.47
293.451	320.21
293.91	287.45
294.368	350.64
294.827	336.6
295.285	334.26
295.743	303.83
296.202	273.4
296.66	343.62
297.118	341.28
297.576	329.58
298.034	301.49
298.492	303.83
298.95	334.26
299.408	324.9
299.866	233.61
300.324	327.24
300.781	301.49
301.239	352.98
301.697	287.45
302.154	350.64
302.612	308.51
303.069	238.3
303.527	287.45
303.984	329.58
304.441	259.36
304.899	303.83
305.356	287.45
305.813	315.53
306.27	247.66
306.727	306.17
307.184	306.17
307.641	306.17
308.098	357.66
308.555	306.17
309.012	310.85
309.468	292.13
309.925	310.85
310.382	374.05
310.838	301.49
311.295	327.24
311.751	355.32
312.208	299.15
312.664	299.15
313.12	322.56
313.577	331.92
314.033	266.38
314.489	350.64
314.945	275.74
315.401	310.85
315.857	362.34
316.313	296.81
316.769	231.27
317.225	324.9
317.681	313.19
318.136	348.3
318.592	343.62
319.048	235.96
319.503	306.17
319.959	338.94
320.414	303.83
320.869	362.34
321.325	294.47
321.78	287.45
322.235	341.28
322.691	315.53
323.146	329.58
323.601	338.94
324.056	264.04
324.511	306.17
324.966	315.53
325.421	280.43
325.875	275.74
326.33	331.92
326.785	367.03
327.24	343.62
327.694	285.11
328.149	320.21
328.603	343.62
329.058	242.98
329.512	292.13
329.966	310.85
330.421	252.34
330.875	362.34
331.329	336.6
331.783	388.09
332.237	313.19
332.691	360
333.145	320.21
333.599	308.51
334.053	310.85
334.507	357.66
334.96	310.85
335.414	341.28
335.868	313.19
336.321	275.74
336.775	322.56
337.228	331.92
337.682	324.9
338.135	334.26
338.588	287.45
339.042	292.13
339.495	315.53
339.948	367.03
340.401	352.98
340.854	292.13
341.307	294.47
341.76	301.49
342.213	341.28
342.666	301.49
343.119	327.24
343.571	301.49
344.024	336.6
344.477	381.07
344.929	303.83
345.382	308.51
345.834	327.24
346.287	308.51
346.739	296.81
347.191	268.72
347.644	303.83
348.096	294.47
348.548	360
349	320.21
349.452	352.98
349.904	367.03
350.356	348.3
350.808	282.77
351.26	308.51
351.711	320.21
352.163	317.87
352.615	327.24
353.066	275.74
353.518	336.6
353.969	303.83
354.421	317.87
354.872	280.43
355.324	334.26
355.775	336.6
356.226	292.13
356.677	336.6
357.128	308.51
357.579	310.85
358.03	313.19
358.481	257.02
358.932	355.32
359.383	266.38
359.834	271.06
360.285	315.53
360.735	385.75
361.186	331.92
361.637	324.9
362.087	303.83
362.538	296.81
362.988	317.87
363.438	315.53
363.889	348.3
364.339	310.85
364.789	287.45
365.239	341.28
365.689	390.43
366.139	294.47
366.589	327.24
367.039	324.9
367.489	306.17
367.939	338.94
368.389	348.3
368.839	388.09
369.288	324.9
369.738	320.21
370.187	308.51
370.637	289.79
371.086	338.94
371.536	324.9
371.985	364.68
372.434	322.56
372.884	355.32
373.333	294.47
373.782	301.49
374.231	360
374.68	324.9
375.129	289.79
375.578	301.49
376.027	285.11
376.475	292.13
376.924	381.07
377.373	378.73
377.822	313.19
378.27	329.58
378.719	331.92
379.167	292.13
379.616	278.08
380.064	310.85
380.512	289.79
380.961	352.98
381.409	308.51
381.857	315.53
382.305	317.87
382.753	327.24
383.201	320.21
383.649	336.6
384.097	273.4
384.545	322.56
384.992	266.38
385.44	317.87
385.888	322.56
386.335	303.83
386.783	338.94
387.231	334.26
387.678	271.06
388.125	301.49
388.573	343.62
389.02	336.6
389.467	320.21
389.914	345.96
390.362	247.66
390.809	371.71
391.256	369.37
391.703	374.05
392.15	233.61
392.596	250
393.043	301.49
393.49	324.9
393.937	322.56
394.383	317.87
394.83	254.68
395.276	313.19
395.723	306.17
396.169	343.62
396.616	313.19
397.062	303.83
397.508	320.21
397.954	371.71
398.401	306.17
398.847	362.34
399.293	324.9
399.739	355.32
400.185	282.77
400.631	292.13
401.076	357.66
401.522	254.68
401.968	327.24
402.414	360
402.859	285.11
403.305	308.51
403.75	341.28
404.196	350.64
404.641	329.58
405.086	334.26
405.532	242.98
405.977	235.96
406.422	306.17
406.867	369.37
407.312	376.39
407.757	369.37
408.202	378.73
408.647	329.58
409.092	334.26
409.537	317.87
409.982	338.94
410.426	320.21
410.871	322.56
411.316	278.08
411.76	303.83
412.205	317.87
412.649	364.68
413.093	334.26
413.538	259.36
413.982	315.53
414.426	313.19
414.87	360
415.314	310.85
415.758	390.43
416.202	334.26
416.646	357.66
417.09	278.08
417.534	285.11
417.978	306.17
418.421	306.17
418.865	247.66
419.309	264.04
419.752	296.81
420.196	367.03
420.639	413.84
421.083	329.58
421.526	364.68
421.969	301.49
422.412	308.51
422.856	331.92
423.299	383.41
423.742	327.24
424.185	303.83
424.628	350.64
425.071	348.3
425.513	285.11
425.956	303.83
426.399	287.45
426.842	334.26
427.284	313.19
427.727	292.13
428.169	306.17
428.612	324.9
429.054	348.3
429.497	287.45
429.939	299.15
430.381	287.45
430.823	301.49
431.265	331.92
431.707	306.17
432.149	238.3
432.591	292.13
433.033	331.92
433.475	306.17
433.917	306.17
434.359	301.49
434.8	313.19
435.242	306.17
435.684	409.15
436.125	292.13
436.567	285.11
437.008	278.08
437.449	320.21
437.891	352.98
438.332	341.28
438.773	278.08
439.214	324.9
439.656	308.51
440.097	310.85
440.538	329.58
440.978	301.49
441.419	352.98
441.86	289.79
442.301	308.51
442.742	285.11
443.182	266.38
443.623	301.49
444.063	299.15
444.504	331.92
444.944	343.62
445.385	357.66
445.825	355.32
446.265	388.09
446.706	296.81
447.146	324.9
447.586	322.56
448.026	313.19
448.466	357.66
448.906	324.9
449.346	310.85
449.786	245.32
450.225	310.85
450.665	388.09
451.105	301.49
451.544	369.37
451.984	285.11
452.424	360
452.863	413.84
453.302	322.56
453.742	320.21
454.181	315.53
454.62	338.94
455.059	360
455.499	301.49
455.938	294.47
456.377	329.58
456.816	308.51
457.254	324.9
457.693	350.64
458.132	338.94
458.571	266.38
459.01	345.96
459.448	362.34
459.887	301.49
460.325	327.24
460.764	371.71
461.202	317.87
461.641	381.07
462.079	355.32
462.517	289.79
462.955	371.71
463.393	345.96
463.832	310.85
464.27	383.41
464.708	345.96
465.145	310.85
465.583	317.87
466.021	271.06
466.459	294.47
466.897	313.19
467.334	317.87
467.772	331.92
468.209	360
468.647	301.49
469.084	329.58
469.522	317.87
469.959	315.53
470.396	278.08
470.833	303.83
471.271	383.41
471.708	355.32
472.145	352.98
472.582	343.62
473.019	296.81
473.456	350.64
473.892	299.15
474.329	315.53
474.766	334.26
475.202	390.43
475.639	231.27
476.076	327.24
476.512	301.49
476.949	334.26
477.385	287.45
477.821	306.17
478.258	341.28
478.694	317.87
479.13	282.77
479.566	329.58
480.002	395.11
480.438	310.85
480.874	261.7
481.31	336.6
481.746	313.19
482.181	364.68
482.617	336.6
483.053	350.64
483.488	336.6
483.924	371.71
484.36	294.47
484.795	383.41
485.23	315.53
485.666	317.87
486.101	329.58
486.536	324.9
486.971	252.34
487.407	376.39
487.842	294.47
488.277	364.68
488.712	282.77
489.146	280.43
489.581	285.11
490.016	296.81
490.451	341.28
490.885	331.92
491.32	271.06
491.755	315.53
492.189	278.08
492.624	306.17
493.058	287.45
493.492	299.15
493.927	343.62
494.361	334.26
494.795	221.91
495.229	320.21
495.663	360
496.097	296.81
496.531	315.53
496.965	324.9
497.399	313.19
497.833	352.98
498.266	287.45
498.7	301.49
499.134	310.85
499.567	338.94
500.001	357.66
500.434	334.26
500.868	280.43
501.301	350.64
501.734	285.11
502.168	289.79
502.601	334.26
503.034	289.79
503.467	362.34
503.9	418.52
504.333	317.87
504.766	301.49
505.199	266.38
505.632	334.26
506.064	367.03
506.497	275.74
506.93	275.74
507.362	343.62
507.795	315.53
508.227	317.87
508.66	310.85
509.092	320.21
509.524	343.62
509.956	329.58
510.389	350.64
510.821	252.34
511.253	275.74
511.685	268.72
512.117	266.38
512.549	310.85
512.981	280.43
513.412	343.62
513.844	324.9
514.276	338.94
514.707	322.56
515.139	374.05
515.571	306.17
516.002	343.62
516.433	294.47
516.865	338.94
517.296	200.85
517.727	338.94
518.159	357.66
518.59	338.94
519.021	317.87
519.452	240.64
519.883	327.24
520.314	327.24
520.744	289.79
521.175	322.56
521.606	301.49
522.037	261.7
522.467	317.87
522.898	294.47
523.328	292.13
523.759	350.64
524.189	294.47
524.62	299.15
525.05	357.66
525.48	303.83
525.91	273.4
526.341	320.21
526.771	313.19
527.201	308.51
527.631	352.98
528.061	271.06
528.49	360
528.92	357.66
529.35	303.83
529.78	324.9
530.209	289.79
530.639	320.21
531.068	350.64
531.498	352.98
531.927	301.49
532.357	299.15
532.786	369.37
533.215	404.47
533.644	268.72
534.074	294.47
534.503	289.79
534.932	343.62
535.361	341.28
535.79	278.08
536.218	287.45
536.647	341.28
537.076	348.3
537.505	376.39
537.933	254.68
538.362	385.75
538.79	357.66
539.219	285.11
539.647	322.56
540.076	289.79
540.504	266.38
540.932	317.87
541.36	250
541.788	320.21
542.217	257.02
542.645	362.34
543.073	308.51
543.5	352.98
543.928	360
544.356	278.08
544.784	296.81
545.211	233.61
545.639	343.62
546.067	343.62
546.494	348.3
546.922	338.94
547.349	355.32
547.776	306.17
548.204	296.81
548.631	336.6
549.058	308.51
549.485	322.56
549.912	296.81
550.339	310.85
550.766	308.51
551.193	271.06
551.62	320.21
552.047	296.81
552.474	266.38
552.9	303.83
553.327	313.19
553.754	317.87
554.18	315.53
554.607	310.85
555.033	306.17
555.459	268.72
555.886	313.19
556.312	357.66
556.738	299.15
557.164	310.85
557.59	301.49
558.016	362.34
558.442	345.96
558.868	285.11
559.294	336.6
559.72	257.02
560.145	329.58
560.571	289.79
560.997	296.81
561.422	289.79
561.848	338.94
562.273	261.7
562.699	425.54
563.124	357.66
563.549	275.74
563.974	308.51
564.4	261.7
564.825	352.98
565.25	345.96
565.675	329.58
566.1	327.24
566.525	327.24
566.95	315.53
567.374	364.68
567.799	322.56
568.224	252.34
568.648	355.32
569.073	338.94
569.497	280.43
569.922	287.45
570.346	360
570.771	360
571.195	341.28
571.619	355.32
572.043	273.4
572.467	278.08
572.891	310.85
573.315	320.21
573.739	331.92
574.163	285.11
574.587	334.26
575.011	331.92
575.435	299.15
575.858	334.26
576.282	338.94
576.705	306.17
577.129	329.58
577.552	289.79
577.976	324.9
578.399	345.96
578.822	296.81
579.245	355.32
579.669	336.6
580.092	282.77
580.515	331.92
580.938	273.4
581.361	355.32
581.784	303.83
582.206	313.19
582.629	278.08
583.052	303.83
583.474	327.24
583.897	301.49
584.32	315.53
584.742	273.4
585.165	306.17
585.587	289.79
586.009	299.15
586.431	282.77
586.854	360
587.276	306.17
587.698	294.47
588.12	392.77
588.542	355.32
588.964	306.17
589.386	367.03
589.807	338.94
590.229	303.83
590.651	303.83
591.073	278.08
591.494	271.06
591.916	336.6
592.337	296.81
592.759	367.03
593.18	348.3
593.601	360
594.022	322.56
594.444	273.4
594.865	345.96
595.286	294.47
595.707	329.58
596.128	310.85
596.549	271.06
596.97	308.51
597.39	292.13
597.811	336.6
598.232	322.56
598.652	285.11
599.073	378.73
599.494	341.28
599.914	317.87
600.334	348.3
600.755	376.39
601.175	338.94
601.595	409.15
602.015	294.47
602.436	275.74
602.856	444.26
603.276	355.32
603.696	315.53
604.115	329.58
604.535	259.36
604.955	315.53
605.375	266.38
605.794	310.85
606.214	331.92
606.634	381.07
607.053	362.34
607.473	357.66
607.892	299.15
608.311	348.3
608.731	306.17
609.15	329.58
609.569	299.15
609.988	355.32
610.407	360
610.826	348.3
611.245	327.24
611.664	345.96
612.083	341.28
612.501	329.58
612.92	313.19
613.339	308.51
613.757	271.06
614.176	390.43
614.594	271.06
615.013	329.58
615.431	369.37
615.85	331.92
616.268	338.94
616.686	355.32
617.104	327.24
617.522	310.85
617.94	348.3
618.358	294.47
618.776	350.64
619.194	308.51
619.612	327.24
620.03	275.74
620.447	343.62
620.865	282.77
621.282	345.96
621.7	313.19
622.117	292.13
622.535	320.21
622.952	275.74
623.369	331.92
623.787	296.81
624.204	313.19
624.621	341.28
625.038	338.94
625.455	315.53
625.872	348.3
626.289	320.21
626.706	343.62
627.123	313.19
627.539	376.39
627.956	308.51
628.373	303.83
628.789	264.04
629.206	296.81
629.622	345.96
630.038	322.56
630.455	348.3
630.871	266.38
631.287	352.98
631.703	322.56
632.12	352.98
632.536	345.96
632.952	301.49
633.368	278.08
633.783	324.9
634.199	338.94
634.615	294.47
635.031	317.87
635.446	306.17
635.862	324.9
636.277	327.24
636.693	324.9
637.108	345.96
637.524	315.53
637.939	381.07
638.354	224.25
638.77	385.75
639.185	289.79
639.6	292.13
640.015	348.3
640.43	322.56
640.845	402.13
641.259	275.74
641.674	317.87
642.089	336.6
642.504	343.62
642.918	345.96
643.333	362.34
643.747	266.38
644.162	355.32
644.576	254.68
644.991	285.11
645.405	352.98
645.819	268.72
646.233	374.05
646.647	289.79
647.061	315.53
647.475	334.26
647.889	273.4
648.303	271.06
648.717	360
649.131	324.9
649.545	357.66
649.958	331.92
650.372	364.68
650.785	264.04
651.199	399.79
651.612	360
652.026	306.17
652.439	271.06
652.852	275.74
653.266	278.08
653.679	310.85
654.092	296.81
654.505	280.43
654.918	320.21
655.331	301.49
655.744	299.15
656.156	334.26
656.569	327.24
656.982	285.11
657.394	345.96
657.807	322.56
658.22	338.94
658.632	266.38
659.044	296.81
659.457	299.15
659.869	324.9
660.281	313.19
660.693	338.94
661.106	320.21
661.518	299.15
661.93	352.98
662.342	371.71
662.754	313.19
663.165	322.56
663.577	271.06
663.989	343.62
664.401	310.85
664.812	343.62
665.224	329.58
665.635	313.19
666.047	357.66
666.458	317.87
666.869	310.85
667.281	355.32
667.692	338.94
668.103	275.74
668.514	313.19
668.925	247.66
669.336	285.11
669.747	313.19
670.158	329.58
670.569	301.49
670.979	264.04
671.39	310.85
671.801	282.77
672.211	275.74
672.622	336.6
673.032	294.47
673.443	308.51
673.853	336.6
674.263	357.66
674.674	336.6
675.084	329.58
675.494	303.83
675.904	383.41
676.314	350.64
676.724	275.74
677.134	261.7
677.544	348.3
677.953	327.24
678.363	381.07
678.773	343.62
679.182	299.15
679.592	308.51
680.001	308.51
680.411	296.81
680.82	268.72
681.23	317.87
681.639	350.64
682.048	345.96
682.457	348.3
682.866	362.34
683.275	317.87
683.684	324.9
684.093	360
684.502	355.32
684.911	334.26
685.32	336.6
685.728	324.9
686.137	324.9
686.546	317.87
686.954	310.85
687.363	317.87
687.771	338.94
688.179	324.9
688.588	327.24
688.996	242.98
689.404	327.24
689.812	317.87
690.22	343.62
690.628	331.92
691.036	327.24
691.444	303.83
691.852	313.19
692.26	296.81
692.667	282.77
693.075	275.74
693.483	427.88
693.89	306.17
694.298	338.94
694.705	308.51
695.112	352.98
695.52	334.26
695.927	320.21
696.334	355.32
696.741	350.64
697.148	292.13
697.555	268.72
697.962	313.19
698.369	336.6
698.776	352.98
699.183	383.41
699.59	301.49
699.996	324.9
700.403	285.11
700.81	287.45
701.216	317.87
701.623	327.24
702.029	334.26
702.435	296.81
702.842	301.49
703.248	280.43
703.654	317.87
704.06	306.17
704.466	367.03
704.872	313.19
705.278	345.96
705.684	313.19
706.09	315.53
706.496	308.51
706.901	334.26
707.307	331.92
707.712	371.71
708.118	310.85
708.523	303.83
708.929	306.17
709.334	348.3
709.74	329.58
710.145	336.6
710.55	310.85
710.955	334.26
711.36	271.06
711.765	294.47
712.17	252.34
712.575	345.96
712.98	835.13
713.385	360
713.789	357.66
714.194	327.24
714.599	289.79
715.003	303.83
715.408	334.26
715.812	331.92
716.217	322.56
716.621	299.15
717.025	301.49
717.429	315.53
717.833	315.53
718.238	324.9
718.642	280.43
719.046	345.96
719.449	287.45
719.853	338.94
720.257	343.62
720.661	345.96
721.065	289.79
721.468	343.62
721.872	280.43
722.275	329.58
722.679	303.83
723.082	257.02
723.485	301.49
723.889	289.79
724.292	336.6
724.695	310.85
725.098	343.62
725.501	261.7
725.904	308.51
726.307	275.74
726.71	374.05
727.113	292.13
727.516	308.51
727.918	336.6
728.321	315.53
728.724	294.47
729.126	280.43
729.529	364.68
729.931	331.92
730.333	343.62
730.736	306.17
731.138	247.66
731.54	313.19
731.942	310.85
732.344	343.62
732.746	273.4
733.148	273.4
733.55	296.81
733.952	299.15
734.354	343.62
734.756	350.64
735.157	360
735.559	343.62
735.96	360
736.362	432.56
736.763	324.9
737.165	395.11
737.566	320.21
737.967	315.53
738.368	355.32
738.77	306.17
739.171	383.41
739.572	308.51
739.973	381.07
740.374	360
740.774	338.94
741.175	266.38
741.576	289.79
741.977	334.26
742.377	343.62
742.778	294.47
743.178	376.39
743.579	303.83
743.979	357.66
744.379	287.45
744.78	296.81
745.18	308.51
745.58	296.81
745.98	299.15
746.38	306.17
746.78	324.9
747.18	360
747.58	348.3
747.98	280.43
748.38	362.34
748.779	315.53
749.179	245.32
749.578	360
749.978	294.47
750.377	348.3
750.777	320.21
751.176	378.73
751.575	264.04
751.975	376.39
752.374	360
752.773	308.51
753.172	310.85
753.571	313.19
753.97	360
754.369	315.53
754.768	280.43
755.166	364.68
755.565	287.45
755.964	282.77
756.362	292.13
756.761	345.96
757.159	238.3
757.558	264.04
757.956	341.28
758.354	360
758.753	313.19
759.151	324.9
759.549	327.24
759.947	324.9
760.345	287.45
760.743	306.17
761.141	240.64
761.539	275.74
761.936	381.07
762.334	324.9
762.732	385.75
763.129	338.94
763.527	385.75
763.924	367.03
764.322	324.9
764.719	313.19
765.117	285.11
765.514	280.43
765.911	317.87
766.308	343.62
766.705	273.4
767.102	334.26
