Data from Al_FLMS009871__1181__16-40-38-082.txt Node

Date: Fri Mar 08 16:40:38 CST 2024
User: pe5414po
Spectrometer: FLMS00987
Trigger mode: 0
Integration Time (sec): 1.000000E-1
Scans to average: 1
Electric dark correction enabled: true
Nonlinearity correction enabled: false
Boxcar width: 0
XAxis mode: Wavelengths
Number of Pixels in Spectrum: 2048
>>>>>Begin Spectral Data<<<<<
188.938	-112.64
189.409	-112.64
189.879	-112.64
190.349	-68.17
190.819	-105.62
191.29	-63.49
191.76	-96.25
192.23	-114.98
192.7	-51.78
193.17	-0.29
193.64	-40.08
194.109	-84.55
194.579	-47.1
195.049	13.75
195.519	44.18
195.988	65.24
196.458	105.03
196.927	6.73
197.397	69.92
197.866	102.69
198.336	90.99
198.805	175.25
199.274	168.23
199.744	158.86
200.213	133.12
200.682	210.36
201.151	191.63
201.62	189.29
202.089	236.1
202.558	245.46
203.027	219.72
203.495	257.17
203.964	264.19
204.433	250.14
204.902	254.83
205.37	243.12
205.839	303.98
206.307	320.36
206.776	313.34
207.244	357.81
207.712	268.87
208.181	289.93
208.649	273.55
209.117	271.21
209.585	311
210.053	266.53
210.521	240.78
210.989	240.78
211.457	287.59
211.925	357.81
212.393	322.7
212.861	266.53
213.328	275.89
213.796	275.89
214.264	301.64
214.731	252.49
215.199	294.61
215.666	243.12
216.133	299.3
216.601	273.55
217.068	250.14
217.535	229.08
218.003	250.14
218.47	240.78
218.937	282.91
219.404	219.72
219.871	299.3
220.338	229.08
220.805	247.8
221.271	203.33
221.738	205.67
222.205	278.23
222.671	224.4
223.138	233.76
223.605	275.89
224.071	301.64
224.538	257.17
225.004	268.87
225.47	273.55
225.937	261.85
226.403	236.1
226.869	285.25
227.335	210.36
227.801	287.59
228.267	325.04
228.733	217.38
229.199	238.44
229.665	243.12
230.131	200.99
230.597	238.44
231.062	217.38
231.528	266.53
231.994	165.89
232.459	233.76
232.925	229.08
233.39	282.91
233.856	252.49
234.321	233.76
234.786	250.14
235.252	271.21
235.717	273.55
236.182	334.4
236.647	278.23
237.112	219.72
237.577	250.14
238.042	287.59
238.507	252.49
238.972	229.08
239.436	280.57
239.901	257.17
240.366	266.53
240.83	292.27
241.295	289.93
241.76	348.45
242.224	271.21
242.688	233.76
243.153	339.09
243.617	259.51
244.081	264.19
244.545	259.51
245.01	287.59
245.474	226.74
245.938	308.66
246.402	217.38
246.866	257.17
247.33	210.36
247.793	254.83
248.257	311
248.721	353.13
249.185	233.76
249.648	322.7
250.112	259.51
250.575	311
251.039	243.12
251.502	240.78
251.965	294.61
252.429	205.67
252.892	254.83
253.355	236.1
253.818	257.17
254.281	336.74
254.744	278.23
255.207	282.91
255.67	254.83
256.133	285.25
256.596	240.78
257.059	294.61
257.522	287.59
257.984	245.46
258.447	332.06
258.909	318.02
259.372	252.49
259.834	238.44
260.297	245.46
260.759	308.66
261.221	296.96
261.684	273.55
262.146	332.06
262.608	292.27
263.07	287.59
263.532	303.98
263.994	268.87
264.456	289.93
264.918	240.78
265.38	266.53
265.842	261.85
266.303	280.57
266.765	250.14
267.227	285.25
267.688	318.02
268.15	315.68
268.611	282.91
269.072	285.25
269.534	271.21
269.995	264.19
270.456	299.3
270.918	273.55
271.379	364.83
271.84	311
272.301	315.68
272.762	212.7
273.223	296.96
273.684	245.46
274.144	353.13
274.605	350.79
275.066	280.57
275.527	318.02
275.987	264.19
276.448	313.34
276.908	346.11
277.369	222.06
277.829	226.74
278.289	348.45
278.75	294.61
279.21	287.59
279.67	332.06
280.13	282.91
280.59	250.14
281.05	299.3
281.51	280.57
281.97	215.04
282.43	325.04
282.89	275.89
283.35	306.32
283.809	278.23
284.269	273.55
284.729	327.38
285.188	318.02
285.648	275.89
286.107	275.89
286.567	268.87
287.026	367.17
287.485	278.23
287.944	294.61
288.404	205.67
288.863	280.57
289.322	268.87
289.781	266.53
290.24	332.06
290.699	301.64
291.158	259.51
291.616	271.21
292.075	332.06
292.534	285.25
292.992	268.87
293.451	238.44
293.91	320.36
294.368	294.61
294.827	322.7
295.285	229.08
295.743	350.79
296.202	231.42
296.66	303.98
297.118	332.06
297.576	299.3
298.034	308.66
298.492	252.49
298.95	322.7
299.408	280.57
299.866	343.77
300.324	315.68
300.781	268.87
301.239	346.11
301.697	325.04
302.154	229.08
302.612	308.66
303.069	238.44
303.527	282.91
303.984	313.34
304.441	261.85
304.899	339.09
305.356	238.44
305.813	311
306.27	308.66
306.727	301.64
307.184	329.72
307.641	303.98
308.098	296.96
308.555	259.51
309.012	306.32
309.468	282.91
309.925	303.98
310.382	271.21
310.838	285.25
311.295	294.61
311.751	301.64
312.208	355.47
312.664	282.91
313.12	308.66
313.577	285.25
314.033	325.04
314.489	306.32
314.945	245.46
315.401	264.19
315.857	308.66
316.313	299.3
316.769	313.34
317.225	292.27
317.681	325.04
318.136	353.13
318.592	325.04
319.048	261.85
319.503	343.77
319.959	243.12
320.414	313.34
320.869	275.89
321.325	292.27
321.78	327.38
322.235	343.77
322.691	285.25
323.146	308.66
323.601	287.59
324.056	334.4
324.511	303.98
324.966	266.53
325.421	203.33
325.875	341.43
326.33	289.93
326.785	313.34
327.24	318.02
327.694	257.17
328.149	289.93
328.603	334.4
329.058	303.98
329.512	301.64
329.966	275.89
330.421	325.04
330.875	346.11
331.329	327.38
331.783	240.78
332.237	364.83
332.691	313.34
333.145	311
333.599	320.36
334.053	336.74
334.507	278.23
334.96	308.66
335.414	320.36
335.868	311
336.321	250.14
336.775	289.93
337.228	268.87
337.682	296.96
338.135	325.04
338.588	219.72
339.042	292.27
339.495	318.02
339.948	261.85
340.401	280.57
340.854	318.02
341.307	222.06
341.76	329.72
342.213	273.55
342.666	250.14
343.119	353.13
343.571	336.74
344.024	343.77
344.477	315.68
344.929	280.57
345.382	299.3
345.834	334.4
346.287	341.43
346.739	252.49
347.191	278.23
347.644	282.91
348.096	257.17
348.548	327.38
349	325.04
349.452	275.89
349.904	306.32
350.356	308.66
350.808	348.45
351.26	285.25
351.711	289.93
352.163	261.85
352.615	348.45
353.066	325.04
353.518	299.3
353.969	282.91
354.421	292.27
354.872	311
355.324	285.25
355.775	376.53
356.226	250.14
356.677	264.19
357.128	301.64
357.579	303.98
358.03	268.87
358.481	313.34
358.932	334.4
359.383	292.27
359.834	322.7
360.285	247.8
360.735	294.61
361.186	327.38
361.637	339.09
362.087	280.57
362.538	285.25
362.988	313.34
363.438	348.45
363.889	254.83
364.339	287.59
364.789	289.93
365.239	313.34
365.689	320.36
366.139	315.68
366.589	275.89
367.039	339.09
367.489	327.38
367.939	315.68
368.389	322.7
368.839	252.49
369.288	296.96
369.738	254.83
370.187	318.02
370.637	285.25
371.086	315.68
371.536	332.06
371.985	325.04
372.434	325.04
372.884	275.89
373.333	308.66
373.782	266.53
374.231	336.74
374.68	243.12
375.129	285.25
375.578	259.51
376.027	303.98
376.475	301.64
376.924	292.27
377.373	332.06
377.822	233.76
378.27	275.89
378.719	311
379.167	329.72
379.616	332.06
380.064	273.55
380.512	355.47
380.961	278.23
381.409	259.51
381.857	327.38
382.305	339.09
382.753	245.46
383.201	257.17
383.649	299.3
384.097	296.96
384.545	329.72
384.992	357.81
385.44	303.98
385.888	278.23
386.335	303.98
386.783	287.59
387.231	367.17
387.678	271.21
388.125	341.43
388.573	341.43
389.02	308.66
389.467	367.17
389.914	348.45
390.362	271.21
390.809	355.47
391.256	334.4
391.703	292.27
392.15	362.49
392.596	343.77
393.043	231.42
393.49	392.92
393.937	362.49
394.383	294.61
394.83	243.12
395.276	327.38
395.723	296.96
396.169	332.06
396.616	364.83
397.062	240.78
397.508	315.68
397.954	336.74
398.401	322.7
398.847	339.09
399.293	294.61
399.739	313.34
400.185	311
400.631	327.38
401.076	325.04
401.522	346.11
401.968	294.61
402.414	292.27
402.859	315.68
403.305	285.25
403.75	320.36
404.196	196.31
404.641	311
405.086	332.06
405.532	280.57
405.977	343.77
406.422	236.1
406.867	311
407.312	374.19
407.757	273.55
408.202	280.57
408.647	240.78
409.092	250.14
409.537	236.1
409.982	292.27
410.426	325.04
410.871	364.83
411.316	289.93
411.76	296.96
412.205	287.59
412.649	294.61
413.093	282.91
413.538	329.72
413.982	247.8
414.426	341.43
414.87	303.98
415.314	245.46
415.758	315.68
416.202	313.34
416.646	318.02
417.09	350.79
417.534	273.55
417.978	299.3
418.421	332.06
418.865	287.59
419.309	318.02
419.752	325.04
420.196	301.64
420.639	261.85
421.083	289.93
421.526	376.53
421.969	275.89
422.412	315.68
422.856	306.32
423.299	371.85
423.742	301.64
424.185	313.34
424.628	322.7
425.071	303.98
425.513	271.21
425.956	245.46
426.399	336.74
426.842	308.66
427.284	360.15
427.727	254.83
428.169	301.64
428.612	334.4
429.054	245.46
429.497	280.57
429.939	334.4
430.381	320.36
430.823	294.61
431.265	254.83
431.707	296.96
432.149	341.43
432.591	296.96
433.033	289.93
433.475	278.23
433.917	346.11
434.359	318.02
434.8	313.34
435.242	371.85
435.684	322.7
436.125	268.87
436.567	367.17
437.008	275.89
437.449	336.74
437.891	299.3
438.332	299.3
438.773	311
439.214	308.66
439.656	254.83
440.097	292.27
440.538	259.51
440.978	353.13
441.419	306.32
441.86	339.09
442.301	306.32
442.742	285.25
443.182	308.66
443.623	322.7
444.063	357.81
444.504	289.93
444.944	285.25
445.385	306.32
445.825	289.93
446.265	362.49
446.706	282.91
447.146	303.98
447.586	289.93
448.026	287.59
448.466	336.74
448.906	264.19
449.346	289.93
449.786	282.91
450.225	266.53
450.665	315.68
451.105	325.04
451.544	250.14
451.984	329.72
452.424	346.11
452.863	289.93
453.302	318.02
453.742	294.61
454.181	273.55
454.62	311
455.059	259.51
455.499	301.64
455.938	364.83
456.377	287.59
456.816	371.85
457.254	285.25
457.693	259.51
458.132	278.23
458.571	318.02
459.01	275.89
459.448	308.66
459.887	303.98
460.325	322.7
460.764	296.96
461.202	271.21
461.641	315.68
462.079	313.34
462.517	332.06
462.955	308.66
463.393	250.14
463.832	261.85
464.27	327.38
464.708	318.02
465.145	395.26
465.583	308.66
466.021	320.36
466.459	296.96
466.897	287.59
467.334	348.45
467.772	301.64
468.209	306.32
468.647	411.64
469.084	303.98
469.522	306.32
469.959	357.81
470.396	341.43
470.833	268.87
471.271	327.38
471.708	327.38
472.145	334.4
472.582	322.7
473.019	308.66
473.456	343.77
473.892	311
474.329	303.98
474.766	318.02
475.202	236.1
475.639	299.3
476.076	325.04
476.512	266.53
476.949	301.64
477.385	268.87
477.821	282.91
478.258	327.38
478.694	360.15
479.13	282.91
479.566	280.57
480.002	339.09
480.438	264.19
480.874	233.76
481.31	296.96
481.746	301.64
482.181	278.23
482.617	329.72
483.053	282.91
483.488	313.34
483.924	278.23
484.36	247.8
484.795	301.64
485.23	268.87
485.666	350.79
486.101	313.34
486.536	299.3
486.971	292.27
487.407	313.34
487.842	318.02
488.277	308.66
488.712	339.09
489.146	357.81
489.581	275.89
490.016	301.64
490.451	292.27
490.885	306.32
491.32	311
491.755	332.06
492.189	259.51
492.624	311
493.058	364.83
493.492	343.77
493.927	266.53
494.361	303.98
494.795	320.36
495.229	301.64
495.663	322.7
496.097	322.7
496.531	303.98
496.965	292.27
497.399	367.17
497.833	364.83
498.266	332.06
498.7	299.3
499.134	240.78
499.567	404.62
500.001	301.64
500.434	299.3
500.868	282.91
501.301	313.34
501.734	329.72
502.168	282.91
502.601	278.23
503.034	282.91
503.467	294.61
503.9	296.96
504.333	334.4
504.766	322.7
505.199	367.17
505.632	341.43
506.064	257.17
506.497	350.79
506.93	275.89
507.362	250.14
507.795	294.61
508.227	280.57
508.66	350.79
509.092	341.43
509.524	271.21
509.956	294.61
510.389	329.72
510.821	313.34
511.253	252.49
511.685	273.55
512.117	336.74
512.549	320.36
512.981	275.89
513.412	264.19
513.844	268.87
514.276	329.72
514.707	353.13
515.139	346.11
515.571	264.19
516.002	303.98
516.433	236.1
516.865	327.38
517.296	273.55
517.727	306.32
518.159	318.02
518.59	329.72
519.021	357.81
519.452	320.36
519.883	303.98
520.314	325.04
520.744	325.04
521.175	273.55
521.606	259.51
522.037	327.38
522.467	322.7
522.898	308.66
523.328	334.4
523.759	303.98
524.189	325.04
524.62	322.7
525.05	282.91
525.48	336.74
525.91	364.83
526.341	289.93
526.771	303.98
527.201	315.68
527.631	282.91
528.061	339.09
528.49	287.59
528.92	271.21
529.35	341.43
529.78	268.87
530.209	306.32
530.639	313.34
531.068	329.72
531.498	322.7
531.927	266.53
532.357	247.8
532.786	294.61
533.215	273.55
533.644	257.17
534.074	299.3
534.503	294.61
534.932	275.89
535.361	353.13
535.79	318.02
536.218	343.77
536.647	275.89
537.076	299.3
537.505	332.06
537.933	320.36
538.362	327.38
538.79	303.98
539.219	357.81
539.647	303.98
540.076	301.64
540.504	306.32
540.932	318.02
541.36	311
541.788	285.25
542.217	245.46
542.645	285.25
543.073	254.83
543.5	315.68
543.928	397.6
544.356	311
544.784	313.34
545.211	334.4
545.639	346.11
546.067	289.93
546.494	348.45
546.922	289.93
547.349	332.06
547.776	292.27
548.204	292.27
548.631	357.81
549.058	343.77
549.485	303.98
549.912	325.04
550.339	250.14
550.766	320.36
551.193	308.66
551.62	364.83
552.047	341.43
552.474	275.89
552.9	240.78
553.327	329.72
553.754	339.09
554.18	318.02
554.607	289.93
555.033	252.49
555.459	325.04
555.886	371.85
556.312	282.91
556.738	343.77
557.164	264.19
557.59	327.38
558.016	285.25
558.442	268.87
558.868	322.7
559.294	334.4
559.72	264.19
560.145	313.34
560.571	313.34
560.997	275.89
561.422	350.79
561.848	278.23
562.273	266.53
562.699	341.43
563.124	294.61
563.549	313.34
563.974	336.74
564.4	299.3
564.825	341.43
565.25	303.98
565.675	271.21
566.1	329.72
566.525	296.96
566.95	280.57
567.374	336.74
567.799	353.13
568.224	343.77
568.648	318.02
569.073	296.96
569.497	311
569.922	318.02
570.346	285.25
570.771	273.55
571.195	336.74
571.619	273.55
572.043	254.83
572.467	346.11
572.891	301.64
573.315	315.68
573.739	343.77
574.163	367.17
574.587	353.13
575.011	226.74
575.435	303.98
575.858	392.92
576.282	376.53
576.705	327.38
577.129	273.55
577.552	350.79
577.976	292.27
578.399	320.36
578.822	287.59
579.245	273.55
579.669	289.93
580.092	320.36
580.515	264.19
580.938	275.89
581.361	292.27
581.784	329.72
582.206	348.45
582.629	315.68
583.052	378.87
583.474	301.64
583.897	301.64
584.32	278.23
584.742	313.34
585.165	266.53
585.587	236.1
586.009	296.96
586.431	299.3
586.854	275.89
587.276	299.3
587.698	273.55
588.12	318.02
588.542	329.72
588.964	261.85
589.386	268.87
589.807	301.64
590.229	296.96
590.651	264.19
591.073	264.19
591.494	285.25
591.916	278.23
592.337	341.43
592.759	357.81
593.18	315.68
593.601	346.11
594.022	294.61
594.444	294.61
594.865	334.4
595.286	318.02
595.707	278.23
596.128	332.06
596.549	360.15
596.97	289.93
597.39	268.87
597.811	327.38
598.232	336.74
598.652	322.7
599.073	329.72
599.494	275.89
599.914	296.96
600.334	254.83
600.755	308.66
601.175	353.13
601.595	275.89
602.015	341.43
602.436	367.17
602.856	399.94
603.276	266.53
603.696	299.3
604.115	294.61
604.535	306.32
604.955	299.3
605.375	346.11
605.794	259.51
606.214	350.79
606.634	308.66
607.053	287.59
607.473	339.09
607.892	261.85
608.311	299.3
608.731	334.4
609.15	318.02
609.569	311
609.988	250.14
610.407	339.09
610.826	257.17
611.245	296.96
611.664	296.96
612.083	280.57
612.501	311
612.92	299.3
613.339	271.21
613.757	318.02
614.176	292.27
614.594	315.68
615.013	357.81
615.431	353.13
615.85	301.64
616.268	282.91
616.686	275.89
617.104	292.27
617.522	322.7
617.94	306.32
618.358	320.36
618.776	299.3
619.194	357.81
619.612	308.66
620.03	369.51
620.447	292.27
620.865	306.32
621.282	296.96
621.7	287.59
622.117	322.7
622.535	311
622.952	280.57
623.369	280.57
623.787	322.7
624.204	299.3
624.621	306.32
625.038	306.32
625.455	329.72
625.872	261.85
626.289	320.36
626.706	332.06
627.123	299.3
627.539	311
627.956	250.14
628.373	296.96
628.789	205.67
629.206	287.59
629.622	236.1
630.038	294.61
630.455	280.57
630.871	287.59
631.287	280.57
631.703	296.96
632.12	369.51
632.536	343.77
632.952	350.79
633.368	273.55
633.783	294.61
634.199	299.3
634.615	336.74
635.031	322.7
635.446	334.4
635.862	322.7
636.277	282.91
636.693	264.19
637.108	299.3
637.524	341.43
637.939	289.93
638.354	301.64
638.77	296.96
639.185	343.77
639.6	322.7
640.015	334.4
640.43	334.4
640.845	303.98
641.259	271.21
641.674	294.61
642.089	289.93
642.504	350.79
642.918	299.3
643.333	268.87
643.747	346.11
644.162	311
644.576	294.61
644.991	371.85
645.405	238.44
645.819	268.87
646.233	250.14
646.647	332.06
647.061	327.38
647.475	336.74
647.889	336.74
648.303	322.7
648.717	229.08
649.131	320.36
649.545	357.81
649.958	264.19
650.372	285.25
650.785	280.57
651.199	306.32
651.612	315.68
652.026	343.77
652.439	257.17
652.852	250.14
653.266	271.21
653.679	327.38
654.092	341.43
654.505	350.79
654.918	271.21
655.331	264.19
655.744	311
656.156	313.34
656.569	247.8
656.982	250.14
657.394	259.51
657.807	353.13
658.22	271.21
658.632	369.51
659.044	275.89
659.457	350.79
659.869	364.83
660.281	306.32
660.693	289.93
661.106	322.7
661.518	346.11
661.93	320.36
662.342	247.8
662.754	325.04
663.165	308.66
663.577	259.51
663.989	376.53
664.401	303.98
664.812	275.89
665.224	353.13
665.635	285.25
666.047	278.23
666.458	280.57
666.869	280.57
667.281	406.96
667.692	289.93
668.103	271.21
668.514	315.68
668.925	306.32
669.336	271.21
669.747	268.87
670.158	268.87
670.569	322.7
670.979	289.93
671.39	245.46
671.801	303.98
672.211	280.57
672.622	327.38
673.032	287.59
673.443	334.4
673.853	327.38
674.263	343.77
674.674	320.36
675.084	327.38
675.494	322.7
675.904	306.32
676.314	308.66
676.724	292.27
677.134	292.27
677.544	355.47
677.953	369.51
678.363	348.45
678.773	329.72
679.182	311
679.592	325.04
680.001	247.8
680.411	296.96
680.82	320.36
681.23	311
681.639	336.74
682.048	327.38
682.457	285.25
682.866	301.64
683.275	320.36
683.684	296.96
684.093	329.72
684.502	280.57
684.911	287.59
685.32	339.09
685.728	341.43
686.137	268.87
686.546	329.72
686.954	285.25
687.363	226.74
687.771	289.93
688.179	332.06
688.588	315.68
688.996	275.89
689.404	278.23
689.812	278.23
690.22	294.61
690.628	294.61
691.036	308.66
691.444	350.79
691.852	271.21
692.26	280.57
692.667	308.66
693.075	236.1
693.483	299.3
693.89	301.64
694.298	311
694.705	325.04
695.112	264.19
695.52	282.91
695.927	329.72
696.334	334.4
696.741	327.38
697.148	376.53
697.555	278.23
697.962	362.49
698.369	364.83
698.776	245.46
699.183	329.72
699.59	318.02
699.996	332.06
700.403	329.72
700.81	371.85
701.216	320.36
701.623	353.13
702.029	318.02
702.435	245.46
702.842	271.21
703.248	301.64
703.654	285.25
704.06	301.64
704.466	329.72
704.872	325.04
705.278	315.68
705.684	205.67
706.09	273.55
706.496	301.64
706.901	332.06
707.307	383.56
707.712	259.51
708.118	334.4
708.523	348.45
708.929	266.53
709.334	357.81
709.74	322.7
710.145	266.53
710.55	296.96
710.955	275.89
711.36	264.19
711.765	247.8
712.17	327.38
712.575	322.7
712.98	823.58
713.385	339.09
713.789	289.93
714.194	334.4
714.599	346.11
715.003	250.14
715.408	362.49
715.812	250.14
716.217	355.47
716.621	287.59
717.025	327.38
717.429	336.74
717.833	327.38
718.238	287.59
718.642	322.7
719.046	320.36
719.449	306.32
719.853	273.55
720.257	313.34
720.661	318.02
721.065	306.32
721.468	322.7
721.872	278.23
722.275	327.38
722.679	343.77
723.082	294.61
723.485	261.85
723.889	285.25
724.292	357.81
724.695	285.25
725.098	294.61
725.501	273.55
725.904	313.34
726.307	348.45
726.71	378.87
727.113	332.06
727.516	306.32
727.918	308.66
728.321	320.36
728.724	275.89
729.126	341.43
729.529	350.79
729.931	287.59
730.333	301.64
730.736	322.7
731.138	341.43
731.54	280.57
731.942	318.02
732.344	254.83
732.746	252.49
733.148	275.89
733.55	334.4
733.952	254.83
734.354	254.83
734.756	311
735.157	257.17
735.559	266.53
735.96	292.27
736.362	287.59
736.763	315.68
737.165	303.98
737.566	318.02
737.967	343.77
738.368	303.98
738.77	299.3
739.171	294.61
739.572	282.91
739.973	289.93
740.374	346.11
740.774	315.68
741.175	247.8
741.576	376.53
741.977	343.77
742.377	278.23
742.778	318.02
743.178	332.06
743.579	343.77
743.979	285.25
744.379	341.43
744.78	311
745.18	299.3
745.58	280.57
745.98	322.7
746.38	257.17
746.78	292.27
747.18	301.64
747.58	301.64
747.98	261.85
748.38	294.61
748.779	282.91
749.179	306.32
749.578	287.59
749.978	296.96
750.377	261.85
750.777	348.45
751.176	280.57
751.575	289.93
751.975	364.83
752.374	329.72
752.773	278.23
753.172	311
753.571	278.23
753.97	250.14
754.369	250.14
754.768	303.98
755.166	296.96
755.565	299.3
755.964	313.34
756.362	350.79
756.761	252.49
757.159	285.25
757.558	329.72
757.956	266.53
758.354	289.93
758.753	334.4
759.151	275.89
759.549	250.14
759.947	266.53
760.345	301.64
760.743	280.57
761.141	374.19
761.539	303.98
761.936	327.38
762.334	296.96
762.732	329.72
763.129	306.32
763.527	289.93
763.924	329.72
764.322	341.43
764.719	348.45
765.117	289.93
765.514	245.46
765.911	254.83
766.308	313.34
766.705	278.23
767.102	353.13
