Data from Al_FLMS009871__983__16-21-59-117.txt Node

Date: Fri Mar 08 16:21:59 CST 2024
User: pe5414po
Spectrometer: FLMS00987
Trigger mode: 0
Integration Time (sec): 1.000000E-1
Scans to average: 1
Electric dark correction enabled: true
Nonlinearity correction enabled: false
Boxcar width: 0
XAxis mode: Wavelengths
Number of Pixels in Spectrum: 2048
>>>>>Begin Spectral Data<<<<<
188.938	-59.39
189.409	-59.39
189.879	-59.39
190.349	-106.2
190.819	-94.5
191.29	-115.56
191.76	-108.54
192.23	-99.18
192.7	-82.8
193.17	-59.39
193.64	-21.94
194.109	-33.65
194.579	-24.28
195.049	-10.24
195.519	43.59
195.988	57.64
196.458	83.38
196.927	92.74
197.397	95.08
197.866	113.81
198.336	69.34
198.805	109.13
199.274	169.98
199.744	177
200.213	228.49
200.682	162.96
201.151	174.66
201.62	214.45
202.089	193.39
202.558	186.37
203.027	270.62
203.495	277.65
203.964	258.92
204.433	263.6
204.902	268.28
205.37	282.33
205.839	268.28
206.307	291.69
206.776	312.75
207.244	301.05
207.712	294.03
208.181	296.37
208.649	289.35
209.117	270.62
209.585	265.94
210.053	364.25
210.521	287.01
210.989	272.96
211.457	291.69
211.925	261.26
212.393	324.46
212.861	357.22
213.328	303.39
213.796	247.22
214.264	329.14
214.731	221.47
215.199	275.31
215.666	279.99
216.133	233.18
216.601	308.07
217.068	263.6
217.535	279.99
218.003	207.43
218.47	287.01
218.937	240.2
219.404	223.81
219.871	277.65
220.338	294.03
220.805	291.69
221.271	254.24
221.738	174.66
222.205	310.41
222.671	298.71
223.138	303.39
223.605	308.07
224.071	287.01
224.538	228.49
225.004	268.28
225.47	219.13
225.937	240.2
226.403	291.69
226.869	205.09
227.335	212.11
227.801	294.03
228.267	324.46
228.733	233.18
229.199	272.96
229.665	296.37
230.131	247.22
230.597	221.47
231.062	240.2
231.528	251.9
231.994	240.2
232.459	275.31
232.925	305.73
233.39	305.73
233.856	221.47
234.321	254.24
234.786	312.75
235.252	282.33
235.717	315.09
236.182	305.73
236.647	261.26
237.112	251.9
237.577	237.86
238.042	235.52
238.507	291.69
238.972	226.15
239.436	319.78
239.901	237.86
240.366	214.45
240.83	261.26
241.295	294.03
241.76	279.99
242.224	256.58
242.688	277.65
243.153	291.69
243.617	294.03
244.081	268.28
244.545	289.35
245.01	268.28
245.474	251.9
245.938	308.07
246.402	296.37
246.866	249.56
247.33	347.86
247.793	287.01
248.257	305.73
248.721	258.92
249.185	254.24
249.648	219.13
250.112	272.96
250.575	240.2
251.039	230.84
251.502	275.31
251.965	284.67
252.429	270.62
252.892	249.56
253.355	333.82
253.818	228.49
254.281	228.49
254.744	277.65
255.207	277.65
255.67	263.6
256.133	247.22
256.596	256.58
257.059	244.88
257.522	268.28
257.984	200.41
258.447	294.03
258.909	279.99
259.372	251.9
259.834	277.65
260.297	270.62
260.759	345.52
261.221	315.09
261.684	226.15
262.146	287.01
262.608	254.24
263.07	268.28
263.532	315.09
263.994	261.26
264.456	296.37
264.918	191.05
265.38	268.28
265.842	244.88
266.303	258.92
266.765	305.73
267.227	256.58
267.688	305.73
268.15	247.22
268.611	282.33
269.072	272.96
269.534	317.44
269.995	352.54
270.456	284.67
270.918	340.84
271.379	265.94
271.84	240.2
272.301	216.79
272.762	251.9
273.223	326.8
273.684	284.67
274.144	343.18
274.605	284.67
275.066	343.18
275.527	301.05
275.987	270.62
276.448	315.09
276.908	322.12
277.369	282.33
277.829	265.94
278.289	296.37
278.75	272.96
279.21	336.16
279.67	298.71
280.13	242.54
280.59	207.43
281.05	270.62
281.51	315.09
281.97	240.2
282.43	319.78
282.89	289.35
283.35	329.14
283.809	272.96
284.269	263.6
284.729	326.8
285.188	258.92
285.648	242.54
286.107	279.99
286.567	303.39
287.026	291.69
287.485	221.47
287.944	333.82
288.404	268.28
288.863	275.31
289.322	354.88
289.781	216.79
290.24	315.09
290.699	315.09
291.158	322.12
291.616	291.69
292.075	298.71
292.534	258.92
292.992	282.33
293.451	373.61
293.91	303.39
294.368	380.63
294.827	258.92
295.285	279.99
295.743	305.73
296.202	340.84
296.66	305.73
297.118	315.09
297.576	291.69
298.034	305.73
298.492	270.62
298.95	287.01
299.408	272.96
299.866	364.25
300.324	333.82
300.781	301.05
301.239	244.88
301.697	317.44
302.154	357.22
302.612	240.2
303.069	275.31
303.527	294.03
303.984	249.56
304.441	298.71
304.899	235.52
305.356	279.99
305.813	303.39
306.27	333.82
306.727	272.96
307.184	275.31
307.641	301.05
308.098	312.75
308.555	235.52
309.012	270.62
309.468	298.71
309.925	247.22
310.382	312.75
310.838	331.48
311.295	361.91
311.751	338.5
312.208	294.03
312.664	317.44
313.12	261.26
313.577	226.15
314.033	275.31
314.489	223.81
314.945	329.14
315.401	319.78
315.857	298.71
316.313	289.35
316.769	296.37
317.225	275.31
317.681	298.71
318.136	347.86
318.592	282.33
319.048	287.01
319.503	326.8
319.959	329.14
320.414	298.71
320.869	298.71
321.325	343.18
321.78	291.69
322.235	340.84
322.691	263.6
323.146	268.28
323.601	263.6
324.056	289.35
324.511	256.58
324.966	294.03
325.421	291.69
325.875	340.84
326.33	371.27
326.785	298.71
327.24	336.16
327.694	247.22
328.149	298.71
328.603	301.05
329.058	310.41
329.512	296.37
329.966	303.39
330.421	207.43
330.875	303.39
331.329	326.8
331.783	333.82
332.237	289.35
332.691	326.8
333.145	308.07
333.599	347.86
334.053	315.09
334.507	315.09
334.96	301.05
335.414	324.46
335.868	294.03
336.321	324.46
336.775	305.73
337.228	233.18
337.682	240.2
338.135	275.31
338.588	258.92
339.042	338.5
339.495	291.69
339.948	338.5
340.401	340.84
340.854	305.73
341.307	336.16
341.76	270.62
342.213	345.52
342.666	312.75
343.119	301.05
343.571	287.01
344.024	282.33
344.477	282.33
344.929	275.31
345.382	312.75
345.834	333.82
346.287	317.44
346.739	340.84
347.191	354.88
347.644	284.67
348.096	343.18
348.548	272.96
349	345.52
349.452	301.05
349.904	298.71
350.356	207.43
350.808	261.26
351.26	324.46
351.711	336.16
352.163	291.69
352.615	317.44
353.066	333.82
353.518	301.05
353.969	310.41
354.421	350.2
354.872	333.82
355.324	301.05
355.775	345.52
356.226	308.07
356.677	378.29
357.128	282.33
357.579	317.44
358.03	296.37
358.481	296.37
358.932	354.88
359.383	308.07
359.834	324.46
360.285	343.18
360.735	371.27
361.186	272.96
361.637	324.46
362.087	333.82
362.538	272.96
362.988	263.6
363.438	275.31
363.889	305.73
364.339	296.37
364.789	345.52
365.239	397.01
365.689	354.88
366.139	244.88
366.589	282.33
367.039	277.65
367.489	275.31
367.939	212.11
368.389	270.62
368.839	294.03
369.288	301.05
369.738	265.94
370.187	282.33
370.637	310.41
371.086	317.44
371.536	331.48
371.985	303.39
372.434	331.48
372.884	279.99
373.333	315.09
373.782	336.16
374.231	261.26
374.68	279.99
375.129	258.92
375.578	263.6
376.027	343.18
376.475	310.41
376.924	319.78
377.373	263.6
377.822	326.8
378.27	282.33
378.719	284.67
379.167	336.16
379.616	345.52
380.064	301.05
380.512	284.67
380.961	345.52
381.409	272.96
381.857	319.78
382.305	308.07
382.753	317.44
383.201	324.46
383.649	308.07
384.097	397.01
384.545	338.5
384.992	301.05
385.44	305.73
385.888	338.5
386.335	298.71
386.783	322.12
387.231	364.25
387.678	287.01
388.125	359.56
388.573	291.69
389.02	294.03
389.467	333.82
389.914	347.86
390.362	308.07
390.809	294.03
391.256	284.67
391.703	404.03
392.15	265.94
392.596	324.46
393.043	279.99
393.49	284.67
393.937	317.44
394.383	279.99
394.83	296.37
395.276	277.65
395.723	387.65
396.169	305.73
396.616	343.18
397.062	305.73
397.508	319.78
397.954	331.48
398.401	352.54
398.847	380.63
399.293	380.63
399.739	331.48
400.185	308.07
400.631	315.09
401.076	291.69
401.522	305.73
401.968	294.03
402.414	333.82
402.859	277.65
403.305	275.31
403.75	310.41
404.196	340.84
404.641	315.09
405.086	347.86
405.532	289.35
405.977	303.39
406.422	350.2
406.867	352.54
407.312	336.16
407.757	324.46
408.202	331.48
408.647	308.07
409.092	343.18
409.537	305.73
409.982	329.14
410.426	303.39
410.871	319.78
411.316	301.05
411.76	305.73
412.205	354.88
412.649	312.75
413.093	284.67
413.538	317.44
413.982	305.73
414.426	277.65
414.87	340.84
415.314	308.07
415.758	315.09
416.202	329.14
416.646	319.78
417.09	336.16
417.534	371.27
417.978	315.09
418.421	340.84
418.865	322.12
419.309	333.82
419.752	305.73
420.196	277.65
420.639	261.26
421.083	322.12
421.526	315.09
421.969	371.27
422.412	301.05
422.856	343.18
423.299	359.56
423.742	315.09
424.185	333.82
424.628	308.07
425.071	244.88
425.513	359.56
425.956	282.33
426.399	343.18
426.842	291.69
427.284	298.71
427.727	298.71
428.169	289.35
428.612	268.28
429.054	331.48
429.497	361.91
429.939	315.09
430.381	310.41
430.823	333.82
431.265	275.31
431.707	301.05
432.149	291.69
432.591	331.48
433.033	305.73
433.475	233.18
433.917	265.94
434.359	298.71
434.8	345.52
435.242	380.63
435.684	343.18
436.125	336.16
436.567	301.05
437.008	343.18
437.449	282.33
437.891	352.54
438.332	347.86
438.773	298.71
439.214	282.33
439.656	312.75
440.097	338.5
440.538	303.39
440.978	352.54
441.419	322.12
441.86	373.61
442.301	322.12
442.742	279.99
443.182	305.73
443.623	303.39
444.063	301.05
444.504	303.39
444.944	287.01
445.385	338.5
445.825	294.03
446.265	354.88
446.706	275.31
447.146	371.27
447.586	289.35
448.026	308.07
448.466	277.65
448.906	279.99
449.346	310.41
449.786	380.63
450.225	319.78
450.665	287.01
451.105	263.6
451.544	345.52
451.984	315.09
452.424	298.71
452.863	301.05
453.302	340.84
453.742	343.18
454.181	333.82
454.62	343.18
455.059	265.94
455.499	368.93
455.938	329.14
456.377	272.96
456.816	333.82
457.254	331.48
457.693	289.35
458.132	284.67
458.571	265.94
459.01	296.37
459.448	284.67
459.887	343.18
460.325	326.8
460.764	345.52
461.202	324.46
461.641	322.12
462.079	305.73
462.517	371.27
462.955	324.46
463.393	310.41
463.832	364.25
464.27	277.65
464.708	315.09
465.145	268.28
465.583	364.25
466.021	319.78
466.459	230.84
466.897	254.24
467.334	296.37
467.772	287.01
468.209	322.12
468.647	301.05
469.084	294.03
469.522	343.18
469.959	301.05
470.396	336.16
470.833	322.12
471.271	336.16
471.708	291.69
472.145	331.48
472.582	287.01
473.019	336.16
473.456	282.33
473.892	359.56
474.329	354.88
474.766	310.41
475.202	263.6
475.639	289.35
476.076	340.84
476.512	324.46
476.949	401.69
477.385	331.48
477.821	272.96
478.258	354.88
478.694	305.73
479.13	277.65
479.566	331.48
480.002	326.8
480.438	352.54
480.874	343.18
481.31	343.18
481.746	322.12
482.181	319.78
482.617	380.63
483.053	301.05
483.488	277.65
483.924	387.65
484.36	247.22
484.795	319.78
485.23	303.39
485.666	301.05
486.101	392.33
486.536	350.2
486.971	322.12
487.407	401.69
487.842	322.12
488.277	371.27
488.712	326.8
489.146	317.44
489.581	329.14
490.016	294.03
490.451	315.09
490.885	338.5
491.32	371.27
491.755	336.16
492.189	294.03
492.624	272.96
493.058	251.9
493.492	305.73
493.927	291.69
494.361	373.61
494.795	331.48
495.229	301.05
495.663	268.28
496.097	378.29
496.531	319.78
496.965	312.75
497.399	312.75
497.833	324.46
498.266	322.12
498.7	317.44
499.134	308.07
499.567	298.71
500.001	329.14
500.434	368.93
500.868	333.82
501.301	291.69
501.734	319.78
502.168	345.52
502.601	331.48
503.034	277.65
503.467	237.86
503.9	294.03
504.333	324.46
504.766	331.48
505.199	319.78
505.632	247.22
506.064	340.84
506.497	315.09
506.93	303.39
507.362	279.99
507.795	312.75
508.227	326.8
508.66	329.14
509.092	354.88
509.524	352.54
509.956	373.61
510.389	338.5
510.821	294.03
511.253	282.33
511.685	319.78
512.117	216.79
512.549	345.52
512.981	373.61
513.412	322.12
513.844	312.75
514.276	275.31
514.707	310.41
515.139	333.82
515.571	340.84
516.002	336.16
516.433	247.22
516.865	242.54
517.296	268.28
517.727	382.97
518.159	287.01
518.59	336.16
519.021	366.59
519.452	352.54
519.883	305.73
520.314	315.09
520.744	296.37
521.175	331.48
521.606	291.69
522.037	352.54
522.467	343.18
522.898	366.59
523.328	308.07
523.759	317.44
524.189	366.59
524.62	315.09
525.05	275.31
525.48	333.82
525.91	287.01
526.341	364.25
526.771	319.78
527.201	298.71
527.631	301.05
528.061	301.05
528.49	324.46
528.92	368.93
529.35	329.14
529.78	336.16
530.209	284.67
530.639	333.82
531.068	223.81
531.498	331.48
531.927	333.82
532.357	322.12
532.786	329.14
533.215	282.33
533.644	294.03
534.074	244.88
534.503	326.8
534.932	364.25
535.361	322.12
535.79	382.97
536.218	345.52
536.647	338.5
537.076	277.65
537.505	303.39
537.933	347.86
538.362	226.15
538.79	294.03
539.219	272.96
539.647	312.75
540.076	382.97
540.504	265.94
540.932	322.12
541.36	303.39
541.788	279.99
542.217	263.6
542.645	242.54
543.073	322.12
543.5	331.48
543.928	315.09
544.356	326.8
544.784	338.5
545.211	284.67
545.639	378.29
546.067	347.86
546.494	319.78
546.922	270.62
547.349	322.12
547.776	317.44
548.204	303.39
548.631	256.58
549.058	310.41
549.485	373.61
549.912	338.5
550.339	387.65
550.766	392.33
551.193	317.44
551.62	310.41
552.047	308.07
552.474	270.62
552.9	357.22
553.327	347.86
553.754	289.35
554.18	329.14
554.607	277.65
555.033	242.54
555.459	350.2
555.886	310.41
556.312	308.07
556.738	338.5
557.164	324.46
557.59	251.9
558.016	256.58
558.442	324.46
558.868	354.88
559.294	347.86
559.72	282.33
560.145	350.2
560.571	296.37
560.997	347.86
561.422	331.48
561.848	331.48
562.273	294.03
562.699	305.73
563.124	340.84
563.549	350.2
563.974	354.88
564.4	312.75
564.825	291.69
565.25	345.52
565.675	275.31
566.1	319.78
566.525	261.26
566.95	340.84
567.374	329.14
567.799	368.93
568.224	312.75
568.648	226.15
569.073	270.62
569.497	289.35
569.922	279.99
570.346	312.75
570.771	359.56
571.195	352.54
571.619	282.33
572.043	296.37
572.467	228.49
572.891	340.84
573.315	385.31
573.739	303.39
574.163	338.5
574.587	312.75
575.011	265.94
575.435	359.56
575.858	256.58
576.282	265.94
576.705	312.75
577.129	289.35
577.552	322.12
577.976	275.31
578.399	298.71
578.822	317.44
579.245	324.46
579.669	373.61
580.092	382.97
580.515	357.22
580.938	319.78
581.361	315.09
581.784	333.82
582.206	329.14
582.629	336.16
583.052	331.48
583.474	291.69
583.897	310.41
584.32	331.48
584.742	291.69
585.165	331.48
585.587	275.31
586.009	303.39
586.431	354.88
586.854	322.12
587.276	350.2
587.698	331.48
588.12	336.16
588.542	343.18
588.964	368.93
589.386	265.94
589.807	317.44
590.229	333.82
590.651	301.05
591.073	270.62
591.494	350.2
591.916	301.05
592.337	333.82
592.759	312.75
593.18	249.56
593.601	322.12
594.022	303.39
594.444	357.22
594.865	237.86
595.286	301.05
595.707	308.07
596.128	340.84
596.549	303.39
596.97	279.99
597.39	251.9
597.811	305.73
598.232	284.67
598.652	308.07
599.073	282.33
599.494	380.63
599.914	301.05
600.334	331.48
600.755	305.73
601.175	284.67
601.595	282.33
602.015	265.94
602.436	308.07
602.856	427.44
603.276	340.84
603.696	298.71
604.115	331.48
604.535	301.05
604.955	343.18
605.375	331.48
605.794	319.78
606.214	359.56
606.634	251.9
607.053	296.37
607.473	279.99
607.892	312.75
608.311	298.71
608.731	361.91
609.15	333.82
609.569	357.22
609.988	359.56
610.407	272.96
610.826	338.5
611.245	333.82
611.664	317.44
612.083	392.33
612.501	350.2
612.92	331.48
613.339	333.82
613.757	319.78
614.176	357.22
614.594	294.03
615.013	359.56
615.431	361.91
615.85	279.99
616.268	317.44
616.686	308.07
617.104	308.07
617.522	291.69
617.94	310.41
618.358	333.82
618.776	333.82
619.194	361.91
619.612	298.71
620.03	331.48
620.447	305.73
620.865	324.46
621.282	268.28
621.7	305.73
622.117	298.71
622.535	338.5
622.952	357.22
623.369	301.05
623.787	258.92
624.204	347.86
624.621	298.71
625.038	298.71
625.455	336.16
625.872	366.59
626.289	378.29
626.706	343.18
627.123	305.73
627.539	254.24
627.956	289.35
628.373	317.44
628.789	272.96
629.206	305.73
629.622	368.93
630.038	263.6
630.455	324.46
630.871	303.39
631.287	272.96
631.703	308.07
632.12	336.16
632.536	277.65
632.952	382.97
633.368	303.39
633.783	315.09
634.199	310.41
634.615	268.28
635.031	277.65
635.446	336.16
635.862	310.41
636.277	382.97
636.693	291.69
637.108	319.78
637.524	375.95
637.939	359.56
638.354	357.22
638.77	279.99
639.185	284.67
639.6	331.48
640.015	340.84
640.43	322.12
640.845	272.96
641.259	317.44
641.674	336.16
642.089	265.94
642.504	270.62
642.918	228.49
643.333	277.65
643.747	343.18
644.162	350.2
644.576	305.73
644.991	336.16
645.405	319.78
645.819	268.28
646.233	322.12
646.647	287.01
647.061	310.41
647.475	312.75
647.889	258.92
648.303	340.84
648.717	338.5
649.131	308.07
649.545	294.03
649.958	301.05
650.372	364.25
650.785	308.07
651.199	263.6
651.612	359.56
652.026	326.8
652.439	343.18
652.852	329.14
653.266	350.2
653.679	312.75
654.092	319.78
654.505	338.5
654.918	275.31
655.331	326.8
655.744	317.44
656.156	326.8
656.569	331.48
656.982	303.39
657.394	319.78
657.807	347.86
658.22	357.22
658.632	340.84
659.044	340.84
659.457	275.31
659.869	223.81
660.281	294.03
660.693	251.9
661.106	294.03
661.518	336.16
661.93	291.69
662.342	270.62
662.754	305.73
663.165	322.12
663.577	310.41
663.989	284.67
664.401	240.2
664.812	333.82
665.224	270.62
665.635	289.35
666.047	326.8
666.458	277.65
666.869	347.86
667.281	338.5
667.692	310.41
668.103	310.41
668.514	282.33
668.925	289.35
669.336	256.58
669.747	279.99
670.158	336.16
670.569	345.52
670.979	315.09
671.39	289.35
671.801	282.33
672.211	319.78
672.622	268.28
673.032	333.82
673.443	240.2
673.853	308.07
674.263	336.16
674.674	338.5
675.084	347.86
675.494	310.41
675.904	343.18
676.314	315.09
676.724	354.88
677.134	284.67
677.544	265.94
677.953	287.01
678.363	319.78
678.773	277.65
679.182	368.93
679.592	289.35
680.001	254.24
680.411	294.03
680.82	333.82
681.23	345.52
681.639	310.41
682.048	298.71
682.457	317.44
682.866	329.14
683.275	375.95
683.684	373.61
684.093	343.18
684.502	287.01
684.911	345.52
685.32	345.52
685.728	277.65
686.137	361.91
686.546	371.27
686.954	319.78
687.363	263.6
687.771	371.27
688.179	287.01
688.588	258.92
688.996	336.16
689.404	275.31
689.812	310.41
690.22	296.37
690.628	310.41
691.036	347.86
691.444	340.84
691.852	322.12
692.26	361.91
692.667	312.75
693.075	336.16
693.483	298.71
693.89	284.67
694.298	338.5
694.705	303.39
695.112	319.78
695.52	291.69
695.927	336.16
696.334	336.16
696.741	331.48
697.148	336.16
697.555	186.37
697.962	301.05
698.369	287.01
698.776	298.71
699.183	282.33
699.59	310.41
699.996	331.48
700.403	361.91
700.81	319.78
701.216	354.88
701.623	331.48
702.029	401.69
702.435	301.05
702.842	247.22
703.248	361.91
703.654	354.88
704.06	310.41
704.466	247.22
704.872	326.8
705.278	296.37
705.684	385.31
706.09	331.48
706.496	312.75
706.901	347.86
707.307	301.05
707.712	275.31
708.118	331.48
708.523	317.44
708.929	354.88
709.334	251.9
709.74	312.75
710.145	289.35
710.55	277.65
710.955	249.56
711.36	324.46
711.765	284.67
712.17	319.78
712.575	324.46
712.98	759.8
713.385	287.01
713.789	294.03
714.194	298.71
714.599	319.78
715.003	270.62
715.408	315.09
715.812	350.2
716.217	329.14
716.621	368.93
717.025	310.41
717.429	333.82
717.833	345.52
718.238	279.99
718.642	289.35
719.046	294.03
719.449	263.6
719.853	333.82
720.257	282.33
720.661	315.09
721.065	336.16
721.468	275.31
721.872	310.41
722.275	326.8
722.679	287.01
723.082	361.91
723.485	289.35
723.889	326.8
724.292	291.69
724.695	366.59
725.098	315.09
725.501	268.28
725.904	291.69
726.307	270.62
726.71	354.88
727.113	315.09
727.516	291.69
727.918	279.99
728.321	258.92
728.724	301.05
729.126	254.24
729.529	298.71
729.931	272.96
730.333	329.14
730.736	289.35
731.138	237.86
731.54	343.18
731.942	326.8
732.344	303.39
732.746	338.5
733.148	308.07
733.55	380.63
733.952	301.05
734.354	298.71
734.756	284.67
735.157	301.05
735.559	291.69
735.96	251.9
736.362	296.37
736.763	312.75
737.165	340.84
737.566	378.29
737.967	296.37
738.368	357.22
738.77	284.67
739.171	331.48
739.572	284.67
739.973	272.96
740.374	289.35
740.774	312.75
741.175	303.39
741.576	298.71
741.977	265.94
742.377	389.99
742.778	359.56
743.178	331.48
743.579	249.56
743.979	322.12
744.379	315.09
744.78	289.35
745.18	317.44
745.58	301.05
745.98	270.62
746.38	258.92
746.78	296.37
747.18	244.88
747.58	331.48
747.98	305.73
748.38	347.86
748.779	263.6
749.179	308.07
749.578	331.48
749.978	282.33
750.377	284.67
750.777	378.29
751.176	315.09
751.575	336.16
751.975	265.94
752.374	303.39
752.773	265.94
753.172	343.18
753.571	319.78
753.97	345.52
754.369	298.71
754.768	312.75
755.166	329.14
755.565	326.8
755.964	305.73
756.362	268.28
756.761	275.31
757.159	312.75
757.558	347.86
757.956	338.5
758.354	301.05
758.753	322.12
759.151	336.16
759.549	303.39
759.947	326.8
760.345	308.07
760.743	275.31
761.141	258.92
761.539	317.44
761.936	296.37
762.334	347.86
762.732	317.44
763.129	394.67
763.527	338.5
763.924	287.01
764.322	294.03
