Data from Al_FLMS009871__988__16-21-59-618.txt Node

Date: Fri Mar 08 16:21:59 CST 2024
User: pe5414po
Spectrometer: FLMS00987
Trigger mode: 0
Integration Time (sec): 1.000000E-1
Scans to average: 1
Electric dark correction enabled: true
Nonlinearity correction enabled: false
Boxcar width: 0
XAxis mode: Wavelengths
Number of Pixels in Spectrum: 2048
>>>>>Begin Spectral Data<<<<<
188.938	-74.9
189.409	-74.9
189.879	-74.9
190.349	-72.56
190.819	-95.96
191.29	-159.16
191.76	-110.01
192.23	-91.28
192.7	-74.9
193.17	-35.11
193.64	-18.72
194.109	-32.77
194.579	-28.09
195.049	28.09
195.519	46.81
195.988	18.72
196.458	133.41
196.927	79.58
197.397	88.94
197.866	70.22
198.336	84.26
198.805	257.46
199.274	180.22
199.744	184.9
200.213	194.26
200.682	238.73
201.151	250.44
201.62	224.69
202.089	250.44
202.558	273.84
203.027	241.08
203.495	231.71
203.964	322.99
204.433	273.84
204.902	266.82
205.37	278.52
205.839	320.65
206.307	259.8
206.776	313.63
207.244	273.84
207.712	311.29
208.181	318.31
208.649	264.48
209.117	278.52
209.585	262.14
210.053	299.59
210.521	294.91
210.989	280.86
211.457	250.44
211.925	299.59
212.393	276.18
212.861	311.29
213.328	290.23
213.796	306.61
214.264	271.5
214.731	217.67
215.199	257.46
215.666	322.99
216.133	278.52
216.601	266.82
217.068	266.82
217.535	287.89
218.003	283.2
218.47	273.84
218.937	259.8
219.404	236.39
219.871	334.7
220.338	285.55
220.805	332.36
221.271	222.35
221.738	308.95
222.205	217.67
222.671	292.57
223.138	227.03
223.605	231.71
224.071	257.46
224.538	220.01
225.004	266.82
225.47	220.01
225.937	273.84
226.403	217.67
226.869	269.16
227.335	278.52
227.801	250.44
228.267	290.23
228.733	290.23
229.199	250.44
229.665	287.89
230.131	245.76
230.597	191.92
231.062	280.86
231.528	250.44
231.994	245.76
232.459	299.59
232.925	283.2
233.39	322.99
233.856	283.2
234.321	243.42
234.786	262.14
235.252	304.27
235.717	278.52
236.182	318.31
236.647	262.14
237.112	266.82
237.577	283.2
238.042	311.29
238.507	290.23
238.972	280.86
239.436	315.97
239.901	224.69
240.366	332.36
240.83	248.1
241.295	280.86
241.76	255.12
242.224	262.14
242.688	362.78
243.153	301.93
243.617	308.95
244.081	304.27
244.545	304.27
245.01	236.39
245.474	271.5
245.938	327.67
246.402	231.71
246.866	273.84
247.33	294.91
247.793	341.72
248.257	294.91
248.721	301.93
249.185	276.18
249.648	255.12
250.112	241.08
250.575	236.39
251.039	220.01
251.502	297.25
251.965	234.05
252.429	273.84
252.892	262.14
253.355	278.52
253.818	287.89
254.281	220.01
254.744	262.14
255.207	294.91
255.67	283.2
256.133	273.84
256.596	358.1
257.059	285.55
257.522	283.2
257.984	351.08
258.447	252.78
258.909	224.69
259.372	269.16
259.834	262.14
260.297	255.12
260.759	308.95
261.221	308.95
261.684	278.52
262.146	341.72
262.608	224.69
263.07	327.67
263.532	252.78
263.994	255.12
264.456	292.57
264.918	243.42
265.38	257.46
265.842	318.31
266.303	266.82
266.765	299.59
267.227	337.04
267.688	325.33
268.15	290.23
268.611	208.31
269.072	266.82
269.534	285.55
269.995	306.61
270.456	276.18
270.918	290.23
271.379	297.25
271.84	320.65
272.301	255.12
272.762	287.89
273.223	280.86
273.684	311.29
274.144	266.82
274.605	322.99
275.066	241.08
275.527	280.86
275.987	294.91
276.448	348.74
276.908	311.29
277.369	315.97
277.829	304.27
278.289	259.8
278.75	266.82
279.21	248.1
279.67	283.2
280.13	283.2
280.59	334.7
281.05	301.93
281.51	325.33
281.97	308.95
282.43	332.36
282.89	344.06
283.35	257.46
283.809	278.52
284.269	360.44
284.729	292.57
285.188	311.29
285.648	330.02
286.107	269.16
286.567	283.2
287.026	266.82
287.485	313.63
287.944	308.95
288.404	255.12
288.863	332.36
289.322	250.44
289.781	283.2
290.24	308.95
290.699	257.46
291.158	334.7
291.616	264.48
292.075	280.86
292.534	337.04
292.992	278.52
293.451	320.65
293.91	294.91
294.368	313.63
294.827	327.67
295.285	320.65
295.743	346.4
296.202	348.74
296.66	297.25
297.118	262.14
297.576	266.82
298.034	313.63
298.492	299.59
298.95	381.51
299.408	365.12
299.866	344.06
300.324	311.29
300.781	304.27
301.239	292.57
301.697	313.63
302.154	283.2
302.612	337.04
303.069	330.02
303.527	313.63
303.984	320.65
304.441	294.91
304.899	294.91
305.356	308.95
305.813	273.84
306.27	294.91
306.727	367.46
307.184	287.89
307.641	327.67
308.098	276.18
308.555	269.16
309.012	276.18
309.468	292.57
309.925	308.95
310.382	273.84
310.838	283.2
311.295	292.57
311.751	299.59
312.208	280.86
312.664	266.82
313.12	290.23
313.577	299.59
314.033	351.08
314.489	337.04
314.945	334.7
315.401	313.63
315.857	355.76
316.313	306.61
316.769	341.72
317.225	283.2
317.681	273.84
318.136	318.31
318.592	287.89
319.048	320.65
319.503	374.49
319.959	318.31
320.414	290.23
320.869	306.61
321.325	276.18
321.78	332.36
322.235	276.18
322.691	365.12
323.146	278.52
323.601	278.52
324.056	362.78
324.511	297.25
324.966	327.67
325.421	306.61
325.875	287.89
326.33	278.52
326.785	315.97
327.24	257.46
327.694	301.93
328.149	292.57
328.603	330.02
329.058	287.89
329.512	315.97
329.966	308.95
330.421	220.01
330.875	280.86
331.329	264.48
331.783	273.84
332.237	313.63
332.691	301.93
333.145	313.63
333.599	313.63
334.053	365.12
334.507	278.52
334.96	346.4
335.414	278.52
335.868	353.42
336.321	327.67
336.775	297.25
337.228	332.36
337.682	330.02
338.135	301.93
338.588	308.95
339.042	292.57
339.495	301.93
339.948	341.72
340.401	294.91
340.854	299.59
341.307	322.99
341.76	271.5
342.213	339.38
342.666	344.06
343.119	365.12
343.571	344.06
344.024	304.27
344.477	341.72
344.929	264.48
345.382	262.14
345.834	344.06
346.287	306.61
346.739	344.06
347.191	369.8
347.644	341.72
348.096	311.29
348.548	273.84
349	325.33
349.452	259.8
349.904	255.12
350.356	355.76
350.808	332.36
351.26	390.87
351.711	404.91
352.163	351.08
352.615	276.18
353.066	344.06
353.518	320.65
353.969	257.46
354.421	311.29
354.872	330.02
355.324	339.38
355.775	341.72
356.226	292.57
356.677	290.23
357.128	294.91
357.579	304.27
358.03	404.91
358.481	346.4
358.932	304.27
359.383	330.02
359.834	334.7
360.285	318.31
360.735	294.91
361.186	283.2
361.637	304.27
362.087	325.33
362.538	332.36
362.988	330.02
363.438	262.14
363.889	362.78
364.339	292.57
364.789	231.71
365.239	243.42
365.689	402.57
366.139	306.61
366.589	332.36
367.039	297.25
367.489	337.04
367.939	276.18
368.389	301.93
368.839	344.06
369.288	306.61
369.738	299.59
370.187	348.74
370.637	271.5
371.086	367.46
371.536	320.65
371.985	304.27
372.434	271.5
372.884	308.95
373.333	346.4
373.782	257.46
374.231	353.42
374.68	308.95
375.129	308.95
375.578	313.63
376.027	325.33
376.475	311.29
376.924	355.76
377.373	355.76
377.822	259.8
378.27	339.38
378.719	280.86
379.167	341.72
379.616	294.91
380.064	217.67
380.512	327.67
380.961	332.36
381.409	325.33
381.857	311.29
382.305	285.55
382.753	294.91
383.201	301.93
383.649	320.65
384.097	365.12
384.545	325.33
384.992	301.93
385.44	294.91
385.888	318.31
386.335	369.8
386.783	386.19
387.231	346.4
387.678	367.46
388.125	304.27
388.573	372.15
389.02	332.36
389.467	280.86
389.914	285.55
390.362	320.65
390.809	287.89
391.256	404.91
391.703	360.44
392.15	315.97
392.596	266.82
393.043	362.78
393.49	346.4
393.937	245.76
394.383	311.29
394.83	259.8
395.276	330.02
395.723	365.12
396.169	327.67
396.616	383.85
397.062	306.61
397.508	308.95
397.954	308.95
398.401	337.04
398.847	337.04
399.293	330.02
399.739	304.27
400.185	299.59
400.631	280.86
401.076	262.14
401.522	337.04
401.968	315.97
402.414	271.5
402.859	332.36
403.305	271.5
403.75	346.4
404.196	292.57
404.641	327.67
405.086	334.7
405.532	304.27
405.977	271.5
406.422	313.63
406.867	243.42
407.312	306.61
407.757	334.7
408.202	327.67
408.647	353.42
409.092	397.89
409.537	264.48
409.982	306.61
410.426	285.55
410.871	358.1
411.316	344.06
411.76	346.4
412.205	287.89
412.649	311.29
413.093	337.04
413.538	334.7
413.982	215.33
414.426	287.89
414.87	318.31
415.314	337.04
415.758	362.78
416.202	322.99
416.646	292.57
417.09	280.86
417.534	360.44
417.978	287.89
418.421	315.97
418.865	285.55
419.309	341.72
419.752	325.33
420.196	344.06
420.639	287.89
421.083	315.97
421.526	301.93
421.969	301.93
422.412	292.57
422.856	325.33
423.299	334.7
423.742	341.72
424.185	318.31
424.628	365.12
425.071	306.61
425.513	353.42
425.956	358.1
426.399	322.99
426.842	308.95
427.284	381.51
427.727	301.93
428.169	299.59
428.612	325.33
429.054	332.36
429.497	315.97
429.939	322.99
430.381	276.18
430.823	297.25
431.265	330.02
431.707	292.57
432.149	330.02
432.591	358.1
433.033	339.38
433.475	280.86
433.917	327.67
434.359	337.04
434.8	341.72
435.242	280.86
435.684	332.36
436.125	341.72
436.567	327.67
437.008	320.65
437.449	346.4
437.891	306.61
438.332	287.89
438.773	299.59
439.214	383.85
439.656	360.44
440.097	315.97
440.538	344.06
440.978	346.4
441.419	337.04
441.86	292.57
442.301	278.52
442.742	344.06
443.182	360.44
443.623	257.46
444.063	351.08
444.504	301.93
444.944	325.33
445.385	301.93
445.825	334.7
446.265	344.06
446.706	327.67
447.146	255.12
447.586	271.5
448.026	273.84
448.466	278.52
448.906	374.49
449.346	304.27
449.786	327.67
450.225	280.86
450.665	376.83
451.105	346.4
451.544	273.84
451.984	383.85
452.424	308.95
452.863	383.85
453.302	351.08
453.742	360.44
454.181	262.14
454.62	332.36
455.059	327.67
455.499	348.74
455.938	297.25
456.377	322.99
456.816	330.02
457.254	346.4
457.693	304.27
458.132	292.57
458.571	297.25
459.01	355.76
459.448	346.4
459.887	306.61
460.325	271.5
460.764	287.89
461.202	313.63
461.641	322.99
462.079	362.78
462.517	322.99
462.955	301.93
463.393	292.57
463.832	325.33
464.27	344.06
464.708	367.46
465.145	304.27
465.583	257.46
466.021	330.02
466.459	315.97
466.897	402.57
467.334	297.25
467.772	297.25
468.209	262.14
468.647	348.74
469.084	304.27
469.522	287.89
469.959	344.06
470.396	299.59
470.833	332.36
471.271	376.83
471.708	325.33
472.145	325.33
472.582	355.76
473.019	348.74
473.456	332.36
473.892	376.83
474.329	306.61
474.766	294.91
475.202	285.55
475.639	297.25
476.076	313.63
476.512	376.83
476.949	348.74
477.385	334.7
477.821	353.42
478.258	367.46
478.694	332.36
479.13	355.76
479.566	339.38
480.002	367.46
480.438	285.55
480.874	283.2
481.31	290.23
481.746	351.08
482.181	332.36
482.617	320.65
483.053	341.72
483.488	407.25
483.924	311.29
484.36	381.51
484.795	280.86
485.23	315.97
485.666	315.97
486.101	365.12
486.536	311.29
486.971	360.44
487.407	292.57
487.842	306.61
488.277	276.18
488.712	318.31
489.146	325.33
489.581	337.04
490.016	301.93
490.451	315.97
490.885	294.91
491.32	297.25
491.755	308.95
492.189	276.18
492.624	259.8
493.058	259.8
493.492	278.52
493.927	313.63
494.361	311.29
494.795	320.65
495.229	315.97
495.663	325.33
496.097	358.1
496.531	294.91
496.965	322.99
497.399	330.02
497.833	353.42
498.266	341.72
498.7	306.61
499.134	301.93
499.567	322.99
500.001	315.97
500.434	273.84
500.868	339.38
501.301	318.31
501.734	287.89
502.168	315.97
502.601	346.4
503.034	304.27
503.467	313.63
503.9	301.93
504.333	301.93
504.766	360.44
505.199	311.29
505.632	315.97
506.064	248.1
506.497	304.27
506.93	362.78
507.362	360.44
507.795	325.33
508.227	320.65
508.66	311.29
509.092	297.25
509.524	297.25
509.956	390.87
510.389	365.12
510.821	327.67
511.253	358.1
511.685	339.38
512.117	250.44
512.549	266.82
512.981	313.63
513.412	332.36
513.844	271.5
514.276	381.51
514.707	325.33
515.139	320.65
515.571	344.06
516.002	365.12
516.433	344.06
516.865	287.89
517.296	341.72
517.727	339.38
518.159	327.67
518.59	306.61
519.021	348.74
519.452	339.38
519.883	346.4
520.314	299.59
520.744	320.65
521.175	285.55
521.606	299.59
522.037	318.31
522.467	337.04
522.898	313.63
523.328	292.57
523.759	341.72
524.189	294.91
524.62	407.25
525.05	278.52
525.48	383.85
525.91	264.48
526.341	297.25
526.771	348.74
527.201	330.02
527.631	355.76
528.061	294.91
528.49	344.06
528.92	397.89
529.35	280.86
529.78	351.08
530.209	381.51
530.639	292.57
531.068	344.06
531.498	266.82
531.927	358.1
532.357	358.1
532.786	304.27
533.215	358.1
533.644	344.06
534.074	327.67
534.503	322.99
534.932	245.76
535.361	299.59
535.79	287.89
536.218	351.08
536.647	353.42
537.076	337.04
537.505	327.67
537.933	330.02
538.362	320.65
538.79	301.93
539.219	388.53
539.647	285.55
540.076	341.72
540.504	304.27
540.932	285.55
541.36	306.61
541.788	320.65
542.217	315.97
542.645	334.7
543.073	301.93
543.5	320.65
543.928	355.76
544.356	283.2
544.784	315.97
545.211	351.08
545.639	318.31
546.067	318.31
546.494	383.85
546.922	283.2
547.349	358.1
547.776	379.17
548.204	285.55
548.631	299.59
549.058	383.85
549.485	318.31
549.912	325.33
550.339	278.52
550.766	341.72
551.193	327.67
551.62	341.72
552.047	344.06
552.474	315.97
552.9	339.38
553.327	337.04
553.754	315.97
554.18	273.84
554.607	255.12
555.033	294.91
555.459	355.76
555.886	292.57
556.312	322.99
556.738	322.99
557.164	386.19
557.59	299.59
558.016	369.8
558.442	320.65
558.868	273.84
559.294	308.95
559.72	346.4
560.145	283.2
560.571	337.04
560.997	369.8
561.422	285.55
561.848	318.31
562.273	355.76
562.699	280.86
563.124	269.16
563.549	306.61
563.974	379.17
564.4	322.99
564.825	332.36
565.25	344.06
565.675	315.97
566.1	330.02
566.525	362.78
566.95	292.57
567.374	306.61
567.799	297.25
568.224	285.55
568.648	301.93
569.073	276.18
569.497	306.61
569.922	334.7
570.346	330.02
570.771	346.4
571.195	362.78
571.619	367.46
572.043	330.02
572.467	318.31
572.891	280.86
573.315	292.57
573.739	313.63
574.163	313.63
574.587	351.08
575.011	304.27
575.435	290.23
575.858	315.97
576.282	348.74
576.705	320.65
577.129	306.61
577.552	299.59
577.976	320.65
578.399	322.99
578.822	351.08
579.245	330.02
579.669	308.95
580.092	318.31
580.515	306.61
580.938	287.89
581.361	322.99
581.784	318.31
582.206	341.72
582.629	353.42
583.052	283.2
583.474	292.57
583.897	355.76
584.32	287.89
584.742	273.84
585.165	294.91
585.587	280.86
586.009	341.72
586.431	400.23
586.854	360.44
587.276	315.97
587.698	322.99
588.12	311.29
588.542	325.33
588.964	404.91
589.386	292.57
589.807	311.29
590.229	308.95
590.651	301.93
591.073	318.31
591.494	360.44
591.916	332.36
592.337	313.63
592.759	346.4
593.18	355.76
593.601	311.29
594.022	306.61
594.444	330.02
594.865	365.12
595.286	280.86
595.707	248.1
596.128	395.55
596.549	294.91
596.97	313.63
597.39	355.76
597.811	315.97
598.232	374.49
598.652	297.25
599.073	348.74
599.494	341.72
599.914	315.97
600.334	322.99
600.755	301.93
601.175	355.76
601.595	339.38
602.015	320.65
602.436	320.65
602.856	393.21
603.276	318.31
603.696	341.72
604.115	285.55
604.535	308.95
604.955	280.86
605.375	341.72
605.794	348.74
606.214	278.52
606.634	313.63
607.053	360.44
607.473	311.29
607.892	280.86
608.311	320.65
608.731	301.93
609.15	372.15
609.569	308.95
609.988	318.31
610.407	355.76
610.826	299.59
611.245	287.89
611.664	304.27
612.083	304.27
612.501	294.91
612.92	337.04
613.339	320.65
613.757	325.33
614.176	311.29
614.594	287.89
615.013	257.46
615.431	327.67
615.85	344.06
616.268	337.04
616.686	292.57
617.104	339.38
617.522	337.04
617.94	306.61
618.358	383.85
618.776	379.17
619.194	322.99
619.612	299.59
620.03	381.51
620.447	299.59
620.865	273.84
621.282	264.48
621.7	425.98
622.117	301.93
622.535	355.76
622.952	341.72
623.369	332.36
623.787	320.65
624.204	238.73
624.621	332.36
625.038	344.06
625.455	283.2
625.872	341.72
626.289	339.38
626.706	287.89
627.123	320.65
627.539	369.8
627.956	301.93
628.373	351.08
628.789	287.89
629.206	332.36
629.622	348.74
630.038	304.27
630.455	320.65
630.871	264.48
631.287	325.33
631.703	313.63
632.12	287.89
632.536	318.31
632.952	332.36
633.368	344.06
633.783	353.42
634.199	348.74
634.615	374.49
635.031	325.33
635.446	386.19
635.862	311.29
636.277	346.4
636.693	290.23
637.108	301.93
637.524	402.57
637.939	304.27
638.354	346.4
638.77	327.67
639.185	322.99
639.6	318.31
640.015	344.06
640.43	379.17
640.845	355.76
641.259	283.2
641.674	346.4
642.089	297.25
642.504	325.33
642.918	355.76
643.333	327.67
643.747	299.59
644.162	381.51
644.576	297.25
644.991	285.55
645.405	374.49
645.819	322.99
646.233	297.25
646.647	334.7
647.061	283.2
647.475	294.91
647.889	306.61
648.303	297.25
648.717	269.16
649.131	299.59
649.545	306.61
649.958	353.42
650.372	301.93
650.785	330.02
651.199	327.67
651.612	320.65
652.026	306.61
652.439	252.78
652.852	318.31
653.266	318.31
653.679	224.69
654.092	386.19
654.505	337.04
654.918	351.08
655.331	285.55
655.744	337.04
656.156	327.67
656.569	313.63
656.982	325.33
657.394	236.39
657.807	276.18
658.22	355.76
658.632	334.7
659.044	269.16
659.457	379.17
659.869	386.19
660.281	374.49
660.693	278.52
661.106	292.57
661.518	287.89
661.93	294.91
662.342	290.23
662.754	334.7
663.165	276.18
663.577	353.42
663.989	320.65
664.401	280.86
664.812	325.33
665.224	320.65
665.635	269.16
666.047	243.42
666.458	248.1
666.869	306.61
667.281	280.86
667.692	283.2
668.103	332.36
668.514	348.74
668.925	320.65
669.336	337.04
669.747	397.89
670.158	334.7
670.569	252.78
670.979	341.72
671.39	351.08
671.801	287.89
672.211	259.8
672.622	365.12
673.032	330.02
673.443	358.1
673.853	278.52
674.263	334.7
674.674	318.31
675.084	346.4
675.494	355.76
675.904	325.33
676.314	325.33
676.724	327.67
677.134	304.27
677.544	379.17
677.953	362.78
678.363	320.65
678.773	411.93
679.182	245.76
679.592	344.06
680.001	344.06
680.411	322.99
680.82	318.31
681.23	313.63
681.639	273.84
682.048	330.02
682.457	330.02
682.866	346.4
683.275	320.65
683.684	276.18
684.093	280.86
684.502	290.23
684.911	318.31
685.32	299.59
685.728	353.42
686.137	351.08
686.546	294.91
686.954	365.12
687.363	308.95
687.771	320.65
688.179	348.74
688.588	358.1
688.996	290.23
689.404	346.4
689.812	290.23
690.22	332.36
690.628	337.04
691.036	351.08
691.444	355.76
691.852	285.55
692.26	259.8
692.667	365.12
693.075	306.61
693.483	341.72
693.89	301.93
694.298	306.61
694.705	290.23
695.112	301.93
695.52	255.12
695.927	402.57
696.334	292.57
696.741	299.59
697.148	304.27
697.555	332.36
697.962	294.91
698.369	322.99
698.776	360.44
699.183	311.29
699.59	269.16
699.996	367.46
700.403	330.02
700.81	339.38
701.216	332.36
701.623	353.42
702.029	313.63
702.435	332.36
702.842	294.91
703.248	334.7
703.654	283.2
704.06	325.33
704.466	330.02
704.872	287.89
705.278	306.61
705.684	341.72
706.09	292.57
706.496	374.49
706.901	339.38
707.307	306.61
707.712	353.42
708.118	337.04
708.523	304.27
708.929	318.31
709.334	306.61
709.74	311.29
710.145	355.76
710.55	339.38
710.955	355.76
711.36	231.71
711.765	257.46
712.17	294.91
712.575	383.85
712.98	791.1
713.385	311.29
713.789	301.93
714.194	409.59
714.599	346.4
715.003	264.48
715.408	355.76
715.812	393.21
716.217	320.65
716.621	337.04
717.025	266.82
717.429	248.1
717.833	308.95
718.238	299.59
718.642	271.5
719.046	278.52
719.449	301.93
719.853	360.44
720.257	374.49
720.661	346.4
721.065	255.12
721.468	346.4
721.872	287.89
722.275	308.95
722.679	276.18
723.082	369.8
723.485	360.44
723.889	325.33
724.292	383.85
724.695	353.42
725.098	334.7
725.501	353.42
725.904	348.74
726.307	346.4
726.71	344.06
727.113	339.38
727.516	320.65
727.918	308.95
728.321	322.99
728.724	330.02
729.126	365.12
729.529	322.99
729.931	280.86
730.333	362.78
730.736	337.04
731.138	379.17
731.54	339.38
731.942	379.17
732.344	348.74
732.746	322.99
733.148	283.2
733.55	322.99
733.952	334.7
734.354	318.31
734.756	348.74
735.157	280.86
735.559	306.61
735.96	344.06
736.362	304.27
736.763	337.04
737.165	355.76
737.566	259.8
737.967	325.33
738.368	306.61
738.77	248.1
739.171	280.86
739.572	301.93
739.973	367.46
740.374	339.38
740.774	320.65
741.175	337.04
741.576	383.85
741.977	337.04
742.377	318.31
742.778	322.99
743.178	313.63
743.579	337.04
743.979	318.31
744.379	402.57
744.78	301.93
745.18	404.91
745.58	327.67
745.98	327.67
746.38	285.55
746.78	327.67
747.18	308.95
747.58	341.72
747.98	355.76
748.38	367.46
748.779	290.23
749.179	285.55
749.578	306.61
749.978	257.46
750.377	369.8
750.777	369.8
751.176	315.97
751.575	311.29
751.975	348.74
752.374	315.97
752.773	311.29
753.172	311.29
753.571	379.17
753.97	304.27
754.369	297.25
754.768	257.46
755.166	280.86
755.565	353.42
755.964	372.15
756.362	306.61
756.761	344.06
757.159	351.08
757.558	301.93
757.956	255.12
758.354	330.02
758.753	320.65
759.151	306.61
759.549	313.63
759.947	304.27
760.345	308.95
760.743	318.31
761.141	353.42
761.539	325.33
761.936	287.89
762.334	276.18
762.732	252.78
763.129	311.29
763.527	297.25
763.924	245.76
764.322	297.25
764.719	332.36
765.117	365.12
