Data from Al_FLMS009871__985__16-21-59-318.txt Node

Date: Fri Mar 08 16:21:59 CST 2024
User: pe5414po
Spectrometer: FLMS00987
Trigger mode: 0
Integration Time (sec): 1.000000E-1
Scans to average: 1
Electric dark correction enabled: true
Nonlinearity correction enabled: false
Boxcar width: 0
XAxis mode: Wavelengths
Number of Pixels in Spectrum: 2048
>>>>>Begin Spectral Data<<<<<
188.938	-65.53
189.409	-65.53
189.879	-65.53
190.349	-126.39
190.819	-102.98
191.29	-88.94
191.76	-114.69
192.23	-93.62
192.7	-53.83
193.17	-93.62
193.64	-81.92
194.109	-60.85
194.579	-65.53
195.049	-25.75
195.519	37.45
195.988	30.43
196.458	110.01
196.927	74.9
197.397	100.64
197.866	121.71
198.336	203.63
198.805	168.52
199.274	182.56
199.744	126.39
200.213	168.52
200.682	191.92
201.151	238.73
201.62	245.76
202.089	198.95
202.558	196.61
203.027	287.89
203.495	269.16
203.964	255.12
204.433	241.08
204.902	234.05
205.37	262.14
205.839	285.55
206.307	245.76
206.776	266.82
207.244	271.5
207.712	313.63
208.181	325.33
208.649	278.52
209.117	278.52
209.585	360.44
210.053	236.39
210.521	252.78
210.989	252.78
211.457	243.42
211.925	255.12
212.393	250.44
212.861	257.46
213.328	294.91
213.796	248.1
214.264	292.57
214.731	280.86
215.199	325.33
215.666	301.93
216.133	236.39
216.601	189.58
217.068	248.1
217.535	182.56
218.003	241.08
218.47	283.2
218.937	278.52
219.404	227.03
219.871	217.67
220.338	182.56
220.805	287.89
221.271	220.01
221.738	227.03
222.205	330.02
222.671	297.25
223.138	238.73
223.605	250.44
224.071	255.12
224.538	297.25
225.004	220.01
225.47	273.84
225.937	299.59
226.403	180.22
226.869	313.63
227.335	269.16
227.801	241.08
228.267	173.2
228.733	287.89
229.199	255.12
229.665	229.37
230.131	290.23
230.597	273.84
231.062	238.73
231.528	212.99
231.994	287.89
232.459	238.73
232.925	245.76
233.39	297.25
233.856	220.01
234.321	163.84
234.786	236.39
235.252	273.84
235.717	290.23
236.182	203.63
236.647	212.99
237.112	259.8
237.577	306.61
238.042	304.27
238.507	271.5
238.972	337.04
239.436	220.01
239.901	308.95
240.366	297.25
240.83	262.14
241.295	262.14
241.76	259.8
242.224	257.46
242.688	215.33
243.153	238.73
243.617	252.78
244.081	337.04
244.545	334.7
245.01	229.37
245.474	306.61
245.938	266.82
246.402	304.27
246.866	285.55
247.33	259.8
247.793	262.14
248.257	264.48
248.721	259.8
249.185	278.52
249.648	280.86
250.112	308.95
250.575	231.71
251.039	285.55
251.502	262.14
251.965	262.14
252.429	220.01
252.892	271.5
253.355	311.29
253.818	266.82
254.281	262.14
254.744	255.12
255.207	304.27
255.67	212.99
256.133	292.57
256.596	243.42
257.059	320.65
257.522	283.2
257.984	294.91
258.447	194.26
258.909	280.86
259.372	278.52
259.834	255.12
260.297	203.63
260.759	280.86
261.221	285.55
261.684	271.5
262.146	278.52
262.608	299.59
263.07	299.59
263.532	283.2
263.994	308.95
264.456	234.05
264.918	271.5
265.38	308.95
265.842	241.08
266.303	271.5
266.765	294.91
267.227	248.1
267.688	318.31
268.15	276.18
268.611	220.01
269.072	273.84
269.534	292.57
269.995	229.37
270.456	278.52
270.918	297.25
271.379	334.7
271.84	297.25
272.301	344.06
272.762	266.82
273.223	337.04
273.684	257.46
274.144	177.88
274.605	299.59
275.066	283.2
275.527	308.95
275.987	297.25
276.448	271.5
276.908	313.63
277.369	311.29
277.829	234.05
278.289	280.86
278.75	299.59
279.21	198.95
279.67	334.7
280.13	290.23
280.59	266.82
281.05	266.82
281.51	283.2
281.97	280.86
282.43	271.5
282.89	245.76
283.35	241.08
283.809	283.2
284.269	276.18
284.729	243.42
285.188	287.89
285.648	271.5
286.107	269.16
286.567	311.29
287.026	313.63
287.485	313.63
287.944	299.59
288.404	294.91
288.863	273.84
289.322	217.67
289.781	297.25
290.24	262.14
290.699	287.89
291.158	283.2
291.616	311.29
292.075	294.91
292.534	322.99
292.992	224.69
293.451	241.08
293.91	292.57
294.368	278.52
294.827	287.89
295.285	351.08
295.743	266.82
296.202	278.52
296.66	304.27
297.118	313.63
297.576	320.65
298.034	283.2
298.492	271.5
298.95	259.8
299.408	273.84
299.866	264.48
300.324	255.12
300.781	248.1
301.239	257.46
301.697	320.65
302.154	283.2
302.612	269.16
303.069	301.93
303.527	320.65
303.984	315.97
304.441	297.25
304.899	299.59
305.356	306.61
305.813	386.19
306.27	299.59
306.727	299.59
307.184	280.86
307.641	313.63
308.098	297.25
308.555	322.99
309.012	341.72
309.468	299.59
309.925	245.76
310.382	285.55
310.838	241.08
311.295	334.7
311.751	318.31
312.208	287.89
312.664	264.48
313.12	252.78
313.577	337.04
314.033	280.86
314.489	257.46
314.945	320.65
315.401	355.76
315.857	229.37
316.313	271.5
316.769	231.71
317.225	320.65
317.681	285.55
318.136	231.71
318.592	285.55
319.048	299.59
319.503	212.99
319.959	315.97
320.414	131.07
320.869	325.33
321.325	238.73
321.78	276.18
322.235	337.04
322.691	248.1
323.146	234.05
323.601	287.89
324.056	292.57
324.511	304.27
324.966	320.65
325.421	290.23
325.875	271.5
326.33	283.2
326.785	306.61
327.24	278.52
327.694	304.27
328.149	346.4
328.603	334.7
329.058	248.1
329.512	308.95
329.966	264.48
330.421	243.42
330.875	262.14
331.329	255.12
331.783	294.91
332.237	287.89
332.691	346.4
333.145	248.1
333.599	297.25
334.053	297.25
334.507	304.27
334.96	257.46
335.414	320.65
335.868	322.99
336.321	327.68
336.775	325.33
337.228	203.63
337.682	344.06
338.135	269.16
338.588	327.68
339.042	327.68
339.495	280.86
339.948	304.27
340.401	304.27
340.854	318.31
341.307	327.68
341.76	322.99
342.213	287.89
342.666	227.03
343.119	262.14
343.571	262.14
344.024	297.25
344.477	327.68
344.929	320.65
345.382	304.27
345.834	280.86
346.287	332.36
346.739	276.18
347.191	264.48
347.644	334.7
348.096	308.95
348.548	278.52
349	297.25
349.452	334.7
349.904	304.27
350.356	285.55
350.808	290.23
351.26	248.1
351.711	299.59
352.163	259.8
352.615	236.39
353.066	322.99
353.518	259.8
353.969	313.63
354.421	337.04
354.872	255.12
355.324	358.1
355.775	327.68
356.226	325.33
356.677	299.59
357.128	227.03
357.579	255.12
358.03	266.82
358.481	294.91
358.932	355.76
359.383	315.97
359.834	264.48
360.285	273.84
360.735	362.78
361.186	280.86
361.637	248.1
362.087	325.33
362.538	269.16
362.988	313.63
363.438	299.59
363.889	259.8
364.339	276.18
364.789	322.99
365.239	325.33
365.689	308.95
366.139	304.27
366.589	311.29
367.039	283.2
367.489	322.99
367.939	257.46
368.389	287.89
368.839	292.57
369.288	273.84
369.738	250.44
370.187	358.1
370.637	252.78
371.086	264.48
371.536	315.97
371.985	299.59
372.434	325.33
372.884	280.86
373.333	325.33
373.782	299.59
374.231	271.5
374.68	285.55
375.129	299.59
375.578	285.55
376.027	262.14
376.475	276.18
376.924	311.29
377.373	318.31
377.822	231.71
378.27	257.46
378.719	372.15
379.167	372.15
379.616	365.12
380.064	318.31
380.512	264.48
380.961	238.73
381.409	313.63
381.857	280.86
382.305	285.55
382.753	306.61
383.201	287.89
383.649	306.61
384.097	280.86
384.545	264.48
384.992	280.86
385.44	388.53
385.888	229.37
386.335	294.91
386.783	287.89
387.231	290.23
387.678	264.48
388.125	315.97
388.573	222.35
389.02	337.04
389.467	257.46
389.914	297.25
390.362	341.72
390.809	332.36
391.256	266.82
391.703	292.57
392.15	299.59
392.596	404.91
393.043	334.7
393.49	273.84
393.937	259.8
394.383	285.55
394.83	259.8
395.276	332.36
395.723	325.33
396.169	304.27
396.616	348.74
397.062	322.99
397.508	297.25
397.954	308.95
398.401	315.97
398.847	358.1
399.293	283.2
399.739	299.59
400.185	304.27
400.631	337.04
401.076	292.57
401.522	287.89
401.968	304.27
402.414	362.78
402.859	351.08
403.305	339.38
403.75	294.91
404.196	301.93
404.641	304.27
405.086	292.57
405.532	292.57
405.977	301.93
406.422	306.61
406.867	273.84
407.312	311.29
407.757	255.12
408.202	330.02
408.647	266.82
409.092	273.84
409.537	306.61
409.982	315.97
410.426	245.76
410.871	311.29
411.316	273.84
411.76	294.91
412.205	285.55
412.649	301.93
413.093	372.15
413.538	236.39
413.982	315.97
414.426	297.25
414.87	325.33
415.314	280.86
415.758	353.42
416.202	341.72
416.646	290.23
417.09	252.78
417.534	238.73
417.978	337.04
418.421	315.97
418.865	290.23
419.309	248.1
419.752	283.2
420.196	308.95
420.639	332.36
421.083	266.82
421.526	269.16
421.969	259.8
422.412	299.59
422.856	283.2
423.299	325.33
423.742	360.44
424.185	318.31
424.628	257.46
425.071	287.89
425.513	280.86
425.956	301.93
426.399	271.5
426.842	287.89
427.284	355.76
427.727	290.23
428.169	306.61
428.612	248.1
429.054	276.18
429.497	266.82
429.939	318.31
430.381	299.59
430.823	325.33
431.265	315.97
431.707	283.2
432.149	313.63
432.591	341.72
433.033	327.68
433.475	304.27
433.917	348.74
434.359	301.93
434.8	283.2
435.242	355.76
435.684	353.42
436.125	306.61
436.567	315.97
437.008	292.57
437.449	318.31
437.891	299.59
438.332	276.18
438.773	313.63
439.214	330.02
439.656	379.17
440.097	294.91
440.538	320.65
440.978	269.16
441.419	245.76
441.86	339.38
442.301	330.02
442.742	273.84
443.182	299.59
443.623	306.61
444.063	292.57
444.504	278.52
444.944	283.2
445.385	341.72
445.825	304.27
446.265	325.33
446.706	351.08
447.146	315.97
447.586	287.89
448.026	353.42
448.466	229.37
448.906	320.65
449.346	308.95
449.786	355.76
450.225	262.14
450.665	273.84
451.105	297.25
451.544	365.12
451.984	332.36
452.424	280.86
452.863	320.65
453.302	351.08
453.742	280.86
454.181	344.06
454.62	285.55
455.059	344.06
455.499	348.74
455.938	304.27
456.377	299.59
456.816	245.76
457.254	290.23
457.693	292.57
458.132	320.65
458.571	294.91
459.01	278.52
459.448	304.27
459.887	320.65
460.325	339.38
460.764	344.06
461.202	318.31
461.641	287.89
462.079	269.16
462.517	301.93
462.955	290.23
463.393	308.95
463.832	304.27
464.27	318.31
464.708	297.25
465.145	332.36
465.583	355.76
466.021	334.7
466.459	290.23
466.897	266.82
467.334	301.93
467.772	318.31
468.209	351.08
468.647	322.99
469.084	287.89
469.522	306.61
469.959	304.27
470.396	227.03
470.833	273.84
471.271	285.55
471.708	290.23
472.145	311.29
472.582	259.8
473.019	334.7
473.456	287.89
473.892	271.5
474.329	287.89
474.766	308.95
475.202	308.95
475.639	355.76
476.076	322.99
476.512	257.46
476.949	360.44
477.385	290.23
477.821	337.04
478.258	306.61
478.694	315.97
479.13	273.84
479.566	308.95
480.002	322.99
480.438	407.25
480.874	290.23
481.31	330.02
481.746	308.95
482.181	311.29
482.617	297.25
483.053	313.63
483.488	297.25
483.924	346.4
484.36	269.16
484.795	327.68
485.23	241.08
485.666	276.18
486.101	379.17
486.536	294.91
486.971	304.27
487.407	304.27
487.842	283.2
488.277	353.42
488.712	339.38
489.146	315.97
489.581	358.1
490.016	259.8
490.451	393.21
490.885	269.16
491.32	341.72
491.755	348.74
492.189	294.91
492.624	341.72
493.058	332.36
493.492	315.97
493.927	264.48
494.361	353.42
494.795	315.97
495.229	311.29
495.663	304.27
496.097	283.2
496.531	290.23
496.965	290.23
497.399	306.61
497.833	255.12
498.266	315.97
498.7	266.82
499.134	332.36
499.567	313.63
500.001	222.35
500.434	285.55
500.868	311.29
501.301	264.48
501.734	358.1
502.168	346.4
502.601	297.25
503.034	292.57
503.467	297.25
503.9	283.2
504.333	365.12
504.766	318.31
505.199	330.02
505.632	285.55
506.064	264.48
506.497	257.46
506.93	276.18
507.362	311.29
507.795	278.52
508.227	273.84
508.66	250.44
509.092	320.65
509.524	301.93
509.956	318.31
510.389	297.25
510.821	341.72
511.253	241.08
511.685	264.48
512.117	322.99
512.549	252.78
512.981	297.25
513.412	322.99
513.844	283.2
514.276	325.33
514.707	271.5
515.139	332.36
515.571	283.2
516.002	306.61
516.433	374.49
516.865	327.68
517.296	273.84
517.727	390.87
518.159	276.18
518.59	332.36
519.021	327.68
519.452	306.61
519.883	257.46
520.314	334.7
520.744	334.7
521.175	351.08
521.606	290.23
522.037	287.89
522.467	285.55
522.898	280.86
523.328	301.93
523.759	337.04
524.189	360.44
524.62	334.7
525.05	322.99
525.48	315.97
525.91	322.99
526.341	339.38
526.771	201.29
527.201	306.61
527.631	351.08
528.061	269.16
528.49	297.25
528.92	255.12
529.35	365.12
529.78	344.06
530.209	337.04
530.639	290.23
531.068	297.25
531.498	308.95
531.927	271.5
532.357	299.59
532.786	304.27
533.215	257.46
533.644	285.55
534.074	238.73
534.503	313.63
534.932	283.2
535.361	273.84
535.79	231.71
536.218	330.02
536.647	339.38
537.076	297.25
537.505	348.74
537.933	280.86
538.362	212.99
538.79	287.89
539.219	337.04
539.647	311.29
540.076	327.68
540.504	280.86
540.932	299.59
541.36	318.31
541.788	344.06
542.217	304.27
542.645	248.1
543.073	313.63
543.5	327.68
543.928	318.31
544.356	297.25
544.784	306.61
545.211	311.29
545.639	308.95
546.067	290.23
546.494	318.31
546.922	308.95
547.349	348.74
547.776	337.04
548.204	294.91
548.631	346.4
549.058	360.44
549.485	297.25
549.912	327.68
550.339	292.57
550.766	280.86
551.193	306.61
551.62	332.36
552.047	322.99
552.474	348.74
552.9	369.8
553.327	304.27
553.754	264.48
554.18	334.7
554.607	301.93
555.033	306.61
555.459	241.08
555.886	320.65
556.312	327.68
556.738	320.65
557.164	337.04
557.59	276.18
558.016	217.67
558.442	332.36
558.868	264.48
559.294	280.86
559.72	259.8
560.145	241.08
560.571	297.25
560.997	315.97
561.422	294.91
561.848	313.63
562.273	234.05
562.699	271.5
563.124	374.49
563.549	292.57
563.974	362.78
564.4	332.36
564.825	355.76
565.25	308.95
565.675	315.97
566.1	285.55
566.525	339.38
566.95	294.91
567.374	299.59
567.799	266.82
568.224	306.61
568.648	301.93
569.073	283.2
569.497	285.55
569.922	325.33
570.346	243.42
570.771	255.12
571.195	311.29
571.619	325.33
572.043	313.63
572.467	351.08
572.891	301.93
573.315	334.7
573.739	341.72
574.163	301.93
574.587	315.97
575.011	320.65
575.435	294.91
575.858	301.93
576.282	320.65
576.705	388.53
577.129	325.33
577.552	358.1
577.976	255.12
578.399	269.16
578.822	330.02
579.245	294.91
579.669	301.93
580.092	306.61
580.515	360.44
580.938	344.06
581.361	231.71
581.784	315.97
582.206	322.99
582.629	320.65
583.052	271.5
583.474	262.14
583.897	365.12
584.32	287.89
584.742	250.44
585.165	285.55
585.587	318.31
586.009	337.04
586.431	304.27
586.854	262.14
587.276	315.97
587.698	280.86
588.12	337.04
588.542	259.8
588.964	276.18
589.386	341.72
589.807	365.12
590.229	351.08
590.651	299.59
591.073	283.2
591.494	292.57
591.916	294.91
592.337	315.97
592.759	276.18
593.18	301.93
593.601	297.25
594.022	344.06
594.444	304.27
594.865	287.89
595.286	287.89
595.707	299.59
596.128	290.23
596.549	381.51
596.97	294.91
597.39	318.31
597.811	271.5
598.232	341.72
598.652	220.01
599.073	297.25
599.494	308.95
599.914	276.18
600.334	339.38
600.755	287.89
601.175	257.46
601.595	285.55
602.015	353.42
602.436	325.33
602.856	421.3
603.276	301.93
603.696	344.06
604.115	346.4
604.535	337.04
604.955	351.08
605.375	372.15
605.794	252.78
606.214	304.27
606.634	252.78
607.053	259.8
607.473	355.76
607.892	294.91
608.311	390.87
608.731	304.27
609.15	402.57
609.569	379.17
609.988	287.89
610.407	299.59
610.826	306.61
611.245	318.31
611.664	301.93
612.083	229.37
612.501	285.55
612.92	374.49
613.339	337.04
613.757	330.02
614.176	301.93
614.594	287.89
615.013	280.86
615.431	355.76
615.85	297.25
616.268	315.97
616.686	304.27
617.104	388.53
617.522	290.23
617.94	285.55
618.358	266.82
618.776	273.84
619.194	320.65
619.612	290.23
620.03	311.29
620.447	222.35
620.865	255.12
621.282	255.12
621.7	304.27
622.117	330.02
622.535	276.18
622.952	259.8
623.369	311.29
623.787	315.97
624.204	311.29
624.621	330.02
625.038	299.59
625.455	353.42
625.872	341.72
626.289	339.38
626.706	287.89
627.123	252.78
627.539	308.95
627.956	311.29
628.373	297.25
628.789	332.36
629.206	290.23
629.622	257.46
630.038	227.03
630.455	327.68
630.871	264.48
631.287	299.59
631.703	259.8
632.12	283.2
632.536	262.14
632.952	311.29
633.368	257.46
633.783	365.12
634.199	297.25
634.615	220.01
635.031	306.61
635.446	292.57
635.862	280.86
636.277	313.63
636.693	320.65
637.108	294.91
637.524	259.8
637.939	294.91
638.354	292.57
638.77	283.2
639.185	315.97
639.6	318.31
640.015	250.44
640.43	320.65
640.845	344.06
641.259	252.78
641.674	280.86
642.089	285.55
642.504	381.51
642.918	327.68
643.333	285.55
643.747	308.95
644.162	269.16
644.576	266.82
644.991	322.99
645.405	320.65
645.819	346.4
646.233	276.18
646.647	264.48
647.061	315.97
647.475	287.89
647.889	304.27
648.303	301.93
648.717	320.65
649.131	294.91
649.545	257.46
649.958	269.16
650.372	334.7
650.785	311.29
651.199	367.46
651.612	287.89
652.026	299.59
652.439	262.14
652.852	250.44
653.266	278.52
653.679	299.59
654.092	313.63
654.505	313.63
654.918	313.63
655.331	252.78
655.744	346.4
656.156	325.33
656.569	292.57
656.982	344.06
657.394	332.36
657.807	322.99
658.22	346.4
658.632	344.06
659.044	294.91
659.457	255.12
659.869	334.7
660.281	313.63
660.693	262.14
661.106	283.2
661.518	292.57
661.93	252.78
662.342	278.52
662.754	234.05
663.165	292.57
663.577	292.57
663.989	294.91
664.401	304.27
664.812	248.1
665.224	301.93
665.635	273.84
666.047	287.89
666.458	255.12
666.869	297.25
667.281	306.61
667.692	273.84
668.103	299.59
668.514	255.12
668.925	280.86
669.336	327.68
669.747	227.03
670.158	313.63
670.569	362.78
670.979	355.76
671.39	285.55
671.801	292.57
672.211	320.65
672.622	341.72
673.032	294.91
673.443	306.61
673.853	334.7
674.263	297.25
674.674	334.7
675.084	245.76
675.494	280.86
675.904	257.46
676.314	290.23
676.724	299.59
677.134	259.8
677.544	341.72
677.953	330.02
678.363	290.23
678.773	327.68
679.182	220.01
679.592	334.7
680.001	292.57
680.411	271.5
680.82	294.91
681.23	255.12
681.639	280.86
682.048	306.61
682.457	238.73
682.866	339.38
683.275	339.38
683.684	280.86
684.093	294.91
684.502	381.51
684.911	348.74
685.32	330.02
685.728	299.59
686.137	330.02
686.546	313.63
686.954	320.65
687.363	315.97
687.771	313.63
688.179	269.16
688.588	269.16
688.996	301.93
689.404	276.18
689.812	283.2
690.22	252.78
690.628	308.95
691.036	264.48
691.444	334.7
691.852	255.12
692.26	304.27
692.667	294.91
693.075	315.97
693.483	238.73
693.89	330.02
694.298	344.06
694.705	362.78
695.112	299.59
695.52	372.15
695.927	320.65
696.334	332.36
696.741	290.23
697.148	276.18
697.555	327.68
697.962	269.16
698.369	320.65
698.776	397.89
699.183	339.38
699.59	285.55
699.996	308.95
700.403	259.8
700.81	330.02
701.216	278.52
701.623	301.93
702.029	257.46
702.435	252.78
702.842	372.15
703.248	308.95
703.654	283.2
704.06	376.83
704.466	262.14
704.872	285.55
705.278	332.36
705.684	315.97
706.09	334.7
706.496	341.72
706.901	344.06
707.307	250.44
707.712	285.55
708.118	332.36
708.523	325.33
708.929	313.63
709.334	304.27
709.74	334.7
710.145	278.52
710.55	313.63
710.955	287.89
711.36	297.25
711.765	341.72
712.17	313.63
712.575	330.02
712.98	753.65
713.385	327.68
713.789	325.33
714.194	259.8
714.599	315.97
715.003	273.84
715.408	290.23
715.812	318.31
716.217	308.95
716.621	337.04
717.025	339.38
717.429	252.78
717.833	234.05
718.238	280.86
718.642	234.05
719.046	236.39
719.449	252.78
719.853	290.23
720.257	262.14
720.661	337.04
721.065	320.65
721.468	276.18
721.872	290.23
722.275	304.27
722.679	257.46
723.082	283.2
723.485	287.89
723.889	304.27
724.292	250.44
724.695	325.33
725.098	283.2
725.501	299.59
725.904	245.76
726.307	290.23
726.71	327.68
727.113	348.74
727.516	308.95
727.918	283.2
728.321	327.68
728.724	337.04
729.126	283.2
729.529	318.31
729.931	330.02
730.333	285.55
730.736	271.5
731.138	353.42
731.54	308.95
731.942	273.84
732.344	311.29
732.746	318.31
733.148	304.27
733.55	346.4
733.952	297.25
734.354	259.8
734.756	360.44
735.157	339.38
735.559	327.68
735.96	243.42
736.362	299.59
736.763	348.74
737.165	273.84
737.566	299.59
737.967	308.95
738.368	280.86
738.77	283.2
739.171	306.61
739.572	234.05
739.973	304.27
740.374	294.91
740.774	330.02
741.175	294.91
741.576	308.95
741.977	241.08
742.377	273.84
742.778	315.97
743.178	376.83
743.579	351.08
743.979	276.18
744.379	287.89
744.78	266.82
745.18	273.84
745.58	330.02
745.98	311.29
746.38	280.86
746.78	339.38
747.18	311.29
747.58	273.84
747.98	297.25
748.38	262.14
748.779	259.8
749.179	320.65
749.578	283.2
749.978	271.5
750.377	294.91
750.777	304.27
751.176	259.8
751.575	241.08
751.975	266.82
752.374	315.97
752.773	283.2
753.172	294.91
753.571	402.57
753.97	334.7
754.369	341.72
754.768	315.97
755.166	320.65
755.565	290.23
755.964	318.31
756.362	301.93
756.761	304.27
757.159	301.93
757.558	322.99
757.956	248.1
758.354	255.12
758.753	353.42
759.151	278.52
759.549	306.61
759.947	325.33
760.345	301.93
760.743	327.68
761.141	280.86
761.539	285.55
761.936	318.31
762.334	325.33
762.732	276.18
763.129	299.59
763.527	250.44
763.924	285.55
764.322	257.46
764.719	315.97
765.117	262.14
