Data from Al_FLMS009871__986__16-21-59-418.txt Node

Date: Fri Mar 08 16:21:59 CST 2024
User: pe5414po
Spectrometer: FLMS00987
Trigger mode: 0
Integration Time (sec): 1.000000E-1
Scans to average: 1
Electric dark correction enabled: true
Nonlinearity correction enabled: false
Boxcar width: 0
XAxis mode: Wavelengths
Number of Pixels in Spectrum: 2048
>>>>>Begin Spectral Data<<<<<
188.938	-76.21
189.409	-76.21
189.879	-76.21
190.349	-123.02
190.819	-104.3
191.29	-90.26
191.76	-125.36
192.23	-111.32
192.7	-118.34
193.17	-90.26
193.64	-13.02
194.109	-24.72
194.579	19.75
195.049	-64.51
195.519	57.2
195.988	22.09
196.458	75.92
196.927	85.28
197.397	108.69
197.866	132.09
198.336	136.78
198.805	169.54
199.274	197.63
199.744	87.62
200.213	197.63
200.682	185.93
201.151	263.16
201.62	286.57
202.089	258.48
202.558	263.16
203.027	223.37
203.495	300.61
203.964	228.06
204.433	307.63
204.902	202.31
205.37	284.23
205.839	314.66
206.307	314.66
206.776	288.91
207.244	251.46
207.712	338.06
208.181	298.27
208.649	265.5
209.117	265.5
209.585	279.55
210.053	300.61
210.521	232.74
210.989	272.53
211.457	295.93
211.925	256.14
212.393	305.29
212.861	260.82
213.328	295.93
213.796	312.32
214.264	239.76
214.731	242.1
215.199	228.06
215.666	232.74
216.133	314.66
216.601	204.65
217.068	274.87
217.535	267.85
218.003	171.88
218.47	232.74
218.937	246.78
219.404	295.93
219.871	279.55
220.338	295.93
220.805	218.69
221.271	263.16
221.738	190.61
222.205	228.06
222.671	284.23
223.138	249.12
223.605	235.08
224.071	225.72
224.538	295.93
225.004	258.48
225.47	260.82
225.937	286.57
226.403	277.21
226.869	218.69
227.335	199.97
227.801	279.55
228.267	256.14
228.733	274.87
229.199	309.97
229.665	338.06
230.131	260.82
230.597	263.16
231.062	263.16
231.528	281.89
231.994	253.8
232.459	288.91
232.925	239.76
233.39	319.34
233.856	267.85
234.321	258.48
234.786	242.1
235.252	246.78
235.717	300.61
236.182	242.1
236.647	223.37
237.112	293.59
237.577	300.61
238.042	221.03
238.507	270.19
238.972	270.19
239.436	263.16
239.901	277.21
240.366	171.88
240.83	270.19
241.295	251.46
241.76	291.25
242.224	288.91
242.688	309.97
243.153	237.42
243.617	223.37
244.081	211.67
244.545	317
245.01	309.97
245.474	263.16
245.938	312.32
246.402	270.19
246.866	274.87
247.33	211.67
247.793	263.16
248.257	295.93
248.721	293.59
249.185	244.44
249.648	284.23
250.112	202.31
250.575	209.33
251.039	309.97
251.502	286.57
251.965	324.02
252.429	279.55
252.892	281.89
253.355	342.74
253.818	279.55
254.281	284.23
254.744	284.23
255.207	263.16
255.67	256.14
256.133	312.32
256.596	319.34
257.059	295.93
257.522	356.79
257.984	291.25
258.447	300.61
258.909	319.34
259.372	354.44
259.834	272.53
260.297	300.61
260.759	305.29
261.221	277.21
261.684	251.46
262.146	300.61
262.608	281.89
263.07	265.5
263.532	307.63
263.994	232.74
264.456	249.12
264.918	309.97
265.38	272.53
265.842	307.63
266.303	279.55
266.765	298.27
267.227	263.16
267.688	324.02
268.15	242.1
268.611	246.78
269.072	279.55
269.534	291.25
269.995	270.19
270.456	288.91
270.918	286.57
271.379	265.5
271.84	225.72
272.301	284.23
272.762	256.14
273.223	302.95
273.684	281.89
274.144	309.97
274.605	291.25
275.066	197.63
275.527	291.25
275.987	295.93
276.448	272.53
276.908	319.34
277.369	300.61
277.829	305.29
278.289	279.55
278.75	295.93
279.21	305.29
279.67	281.89
280.13	284.23
280.59	260.82
281.05	274.87
281.51	265.5
281.97	309.97
282.43	253.8
282.89	326.36
283.35	239.76
283.809	277.21
284.269	249.12
284.729	267.85
285.188	307.63
285.648	279.55
286.107	256.14
286.567	391.89
287.026	251.46
287.485	312.32
287.944	321.68
288.404	319.34
288.863	256.14
289.322	288.91
289.781	319.34
290.24	338.06
290.699	258.48
291.158	333.38
291.616	260.82
292.075	300.61
292.534	295.93
292.992	312.32
293.451	181.25
293.91	284.23
294.368	295.93
294.827	326.36
295.285	324.02
295.743	230.4
296.202	263.16
296.66	298.27
297.118	307.63
297.576	260.82
298.034	228.06
298.492	244.44
298.95	288.91
299.408	312.32
299.866	260.82
300.324	277.21
300.781	380.19
301.239	321.68
301.697	291.25
302.154	284.23
302.612	242.1
303.069	284.23
303.527	249.12
303.984	356.79
304.441	263.16
304.899	256.14
305.356	281.89
305.813	279.55
306.27	300.61
306.727	314.66
307.184	286.57
307.641	244.44
308.098	349.76
308.555	319.34
309.012	232.74
309.468	260.82
309.925	291.25
310.382	314.66
310.838	263.16
311.295	312.32
311.751	331.04
312.208	338.06
312.664	274.87
313.12	398.92
313.577	319.34
314.033	309.97
314.489	333.38
314.945	272.53
315.401	307.63
315.857	338.06
316.313	342.74
316.769	246.78
317.225	324.02
317.681	326.36
318.136	291.25
318.592	265.5
319.048	272.53
319.503	331.04
319.959	326.36
320.414	314.66
320.869	309.97
321.325	267.85
321.78	347.42
322.235	298.27
322.691	298.27
323.146	338.06
323.601	307.63
324.056	305.29
324.511	307.63
324.966	223.37
325.421	253.8
325.875	302.95
326.33	274.87
326.785	312.32
327.24	302.95
327.694	286.57
328.149	333.38
328.603	319.34
329.058	263.16
329.512	314.66
329.966	284.23
330.421	387.21
330.875	286.57
331.329	286.57
331.783	312.32
332.237	263.16
332.691	342.74
333.145	260.82
333.599	288.91
334.053	277.21
334.507	291.25
334.96	335.72
335.414	256.14
335.868	321.68
336.321	293.59
336.775	286.57
337.228	288.91
337.682	244.44
338.135	319.34
338.588	239.76
339.042	321.68
339.495	345.08
339.948	305.29
340.401	324.02
340.854	317
341.307	338.06
341.76	288.91
342.213	377.85
342.666	307.63
343.119	302.95
343.571	394.23
344.024	298.27
344.477	281.89
344.929	298.27
345.382	291.25
345.834	295.93
346.287	359.13
346.739	263.16
347.191	293.59
347.644	295.93
348.096	349.76
348.548	314.66
349	258.48
349.452	309.97
349.904	345.08
350.356	309.97
350.808	242.1
351.26	293.59
351.711	295.93
352.163	340.4
352.615	319.34
353.066	331.04
353.518	361.47
353.969	326.36
354.421	342.74
354.872	300.61
355.324	300.61
355.775	368.49
356.226	331.04
356.677	326.36
357.128	291.25
357.579	309.97
358.03	314.66
358.481	300.61
358.932	363.81
359.383	398.92
359.834	314.66
360.285	302.95
360.735	272.53
361.186	302.95
361.637	349.76
362.087	340.4
362.538	258.48
362.988	366.15
363.438	263.16
363.889	328.7
364.339	272.53
364.789	368.49
365.239	253.8
365.689	309.97
366.139	277.21
366.589	300.61
367.039	295.93
367.489	314.66
367.939	314.66
368.389	279.55
368.839	272.53
369.288	307.63
369.738	284.23
370.187	302.95
370.637	302.95
371.086	309.97
371.536	307.63
371.985	305.29
372.434	309.97
372.884	258.48
373.333	314.66
373.782	293.59
374.231	288.91
374.68	286.57
375.129	307.63
375.578	335.72
376.027	328.7
376.475	298.27
376.924	349.76
377.373	345.08
377.822	321.68
378.27	267.85
378.719	349.76
379.167	324.02
379.616	387.21
380.064	352.1
380.512	331.04
380.961	277.21
381.409	340.4
381.857	244.44
382.305	345.08
382.753	305.29
383.201	354.44
383.649	361.47
384.097	333.38
384.545	354.44
384.992	284.23
385.44	391.89
385.888	302.95
386.335	317
386.783	321.68
387.231	300.61
387.678	331.04
388.125	338.06
388.573	387.21
389.02	244.44
389.467	263.16
389.914	356.79
390.362	300.61
390.809	281.89
391.256	281.89
391.703	267.85
392.15	277.21
392.596	300.61
393.043	300.61
393.49	305.29
393.937	251.46
394.383	298.27
394.83	384.87
395.276	258.48
395.723	265.5
396.169	331.04
396.616	321.68
397.062	314.66
397.508	302.95
397.954	295.93
398.401	277.21
398.847	286.57
399.293	288.91
399.739	286.57
400.185	317
400.631	242.1
401.076	242.1
401.522	284.23
401.968	256.14
402.414	326.36
402.859	321.68
403.305	298.27
403.75	309.97
404.196	356.79
404.641	218.69
405.086	286.57
405.532	349.76
405.977	380.19
406.422	319.34
406.867	281.89
407.312	326.36
407.757	300.61
408.202	335.72
408.647	272.53
409.092	352.1
409.537	307.63
409.982	324.02
410.426	373.17
410.871	342.74
411.316	359.13
411.76	284.23
412.205	317
412.649	270.19
413.093	293.59
413.538	263.16
413.982	305.29
414.426	302.95
414.87	293.59
415.314	295.93
415.758	319.34
416.202	359.13
416.646	249.12
417.09	305.29
417.534	335.72
417.978	338.06
418.421	263.16
418.865	256.14
419.309	298.27
419.752	274.87
420.196	267.85
420.639	314.66
421.083	309.97
421.526	265.5
421.969	267.85
422.412	312.32
422.856	279.55
423.299	338.06
423.742	295.93
424.185	307.63
424.628	295.93
425.071	288.91
425.513	324.02
425.956	317
426.399	326.36
426.842	321.68
427.284	312.32
427.727	302.95
428.169	331.04
428.612	331.04
429.054	319.34
429.497	314.66
429.939	263.16
430.381	286.57
430.823	277.21
431.265	375.51
431.707	317
432.149	389.55
432.591	312.32
433.033	293.59
433.475	309.97
433.917	326.36
434.359	321.68
434.8	239.76
435.242	305.29
435.684	314.66
436.125	298.27
436.567	319.34
437.008	293.59
437.449	293.59
437.891	288.91
438.332	326.36
438.773	286.57
439.214	263.16
439.656	324.02
440.097	321.68
440.538	270.19
440.978	335.72
441.419	370.83
441.86	335.72
442.301	277.21
442.742	228.06
443.182	274.87
443.623	265.5
444.063	288.91
444.504	284.23
444.944	305.29
445.385	309.97
445.825	314.66
446.265	284.23
446.706	253.8
447.146	228.06
447.586	291.25
448.026	302.95
448.466	272.53
448.906	309.97
449.346	295.93
449.786	272.53
450.225	366.15
450.665	295.93
451.105	291.25
451.544	317
451.984	352.1
452.424	281.89
452.863	256.14
453.302	328.7
453.742	331.04
454.181	307.63
454.62	347.42
455.059	272.53
455.499	319.34
455.938	272.53
456.377	317
456.816	291.25
457.254	361.47
457.693	342.74
458.132	295.93
458.571	232.74
459.01	338.06
459.448	288.91
459.887	307.63
460.325	288.91
460.764	298.27
461.202	309.97
461.641	279.55
462.079	298.27
462.517	265.5
462.955	293.59
463.393	342.74
463.832	359.13
464.27	307.63
464.708	258.48
465.145	281.89
465.583	298.27
466.021	309.97
466.459	298.27
466.897	340.4
467.334	221.03
467.772	321.68
468.209	324.02
468.647	265.5
469.084	361.47
469.522	326.36
469.959	253.8
470.396	354.44
470.833	272.53
471.271	270.19
471.708	298.27
472.145	249.12
472.582	274.87
473.019	314.66
473.456	307.63
473.892	228.06
474.329	317
474.766	324.02
475.202	354.44
475.639	331.04
476.076	356.79
476.512	359.13
476.949	331.04
477.385	359.13
477.821	272.53
478.258	375.51
478.694	319.34
479.13	333.38
479.566	277.21
480.002	352.1
480.438	309.97
480.874	319.34
481.31	335.72
481.746	321.68
482.181	302.95
482.617	305.29
483.053	305.29
483.488	335.72
483.924	324.02
484.36	324.02
484.795	274.87
485.23	302.95
485.666	349.76
486.101	331.04
486.536	345.08
486.971	277.21
487.407	258.48
487.842	352.1
488.277	342.74
488.712	246.78
489.146	331.04
489.581	302.95
490.016	265.5
490.451	340.4
490.885	305.29
491.32	342.74
491.755	258.48
492.189	286.57
492.624	309.97
493.058	293.59
493.492	270.19
493.927	288.91
494.361	302.95
494.795	263.16
495.229	328.7
495.663	279.55
496.097	274.87
496.531	319.34
496.965	300.61
497.399	295.93
497.833	335.72
498.266	291.25
498.7	309.97
499.134	356.79
499.567	298.27
500.001	363.81
500.434	300.61
500.868	300.61
501.301	356.79
501.734	307.63
502.168	340.4
502.601	309.97
503.034	277.21
503.467	347.42
503.9	354.44
504.333	319.34
504.766	319.34
505.199	302.95
505.632	361.47
506.064	345.08
506.497	366.15
506.93	356.79
507.362	319.34
507.795	401.26
508.227	359.13
508.66	347.42
509.092	356.79
509.524	309.97
509.956	288.91
510.389	263.16
510.821	291.25
511.253	291.25
511.685	305.29
512.117	345.08
512.549	314.66
512.981	398.92
513.412	338.06
513.844	321.68
514.276	307.63
514.707	312.32
515.139	312.32
515.571	347.42
516.002	277.21
516.433	321.68
516.865	366.15
517.296	347.42
517.727	239.76
518.159	251.46
518.59	272.53
519.021	305.29
519.452	291.25
519.883	335.72
520.314	288.91
520.744	272.53
521.175	321.68
521.606	244.44
522.037	312.32
522.467	317
522.898	319.34
523.328	300.61
523.759	267.85
524.189	295.93
524.62	298.27
525.05	291.25
525.48	328.7
525.91	307.63
526.341	326.36
526.771	321.68
527.201	328.7
527.631	319.34
528.061	298.27
528.49	298.27
528.92	356.79
529.35	281.89
529.78	286.57
530.209	317
530.639	312.32
531.068	309.97
531.498	342.74
531.927	321.68
532.357	345.08
532.786	352.1
533.215	305.29
533.644	302.95
534.074	338.06
534.503	274.87
534.932	349.76
535.361	391.89
535.79	356.79
536.218	286.57
536.647	366.15
537.076	319.34
537.505	340.4
537.933	281.89
538.362	345.08
538.79	375.51
539.219	314.66
539.647	300.61
540.076	333.38
540.504	359.13
540.932	305.29
541.36	373.17
541.788	300.61
542.217	345.08
542.645	263.16
543.073	246.78
543.5	284.23
543.928	375.51
544.356	354.44
544.784	272.53
545.211	324.02
545.639	291.25
546.067	319.34
546.494	373.17
546.922	403.6
547.349	326.36
547.776	291.25
548.204	342.74
548.631	284.23
549.058	291.25
549.485	302.95
549.912	263.16
550.339	331.04
550.766	352.1
551.193	314.66
551.62	305.29
552.047	375.51
552.474	221.03
552.9	293.59
553.327	279.55
553.754	312.32
554.18	342.74
554.607	302.95
555.033	291.25
555.459	345.08
555.886	342.74
556.312	307.63
556.738	235.08
557.164	319.34
557.59	302.95
558.016	331.04
558.442	307.63
558.868	328.7
559.294	295.93
559.72	314.66
560.145	263.16
560.571	349.76
560.997	263.16
561.422	331.04
561.848	326.36
562.273	263.16
562.699	281.89
563.124	319.34
563.549	394.23
563.974	331.04
564.4	286.57
564.825	267.85
565.25	272.53
565.675	394.23
566.1	338.06
566.525	340.4
566.95	293.59
567.374	305.29
567.799	309.97
568.224	305.29
568.648	263.16
569.073	286.57
569.497	317
569.922	300.61
570.346	293.59
570.771	361.47
571.195	321.68
571.619	373.17
572.043	295.93
572.467	300.61
572.891	363.81
573.315	352.1
573.739	377.85
574.163	368.49
574.587	305.29
575.011	293.59
575.435	349.76
575.858	230.4
576.282	267.85
576.705	284.23
577.129	333.38
577.552	328.7
577.976	293.59
578.399	284.23
578.822	295.93
579.245	326.36
579.669	300.61
580.092	295.93
580.515	333.38
580.938	284.23
581.361	345.08
581.784	258.48
582.206	326.36
582.629	279.55
583.052	286.57
583.474	349.76
583.897	354.44
584.32	270.19
584.742	260.82
585.165	307.63
585.587	291.25
586.009	317
586.431	288.91
586.854	331.04
587.276	335.72
587.698	300.61
588.12	274.87
588.542	302.95
588.964	361.47
589.386	288.91
589.807	286.57
590.229	342.74
590.651	305.29
591.073	326.36
591.494	349.76
591.916	214.01
592.337	317
592.759	331.04
593.18	279.55
593.601	277.21
594.022	302.95
594.444	326.36
594.865	347.42
595.286	288.91
595.707	260.82
596.128	277.21
596.549	307.63
596.97	356.79
597.39	288.91
597.811	293.59
598.232	302.95
598.652	293.59
599.073	272.53
599.494	317
599.914	389.55
600.334	277.21
600.755	281.89
601.175	277.21
601.595	298.27
602.015	298.27
602.436	335.72
602.856	398.92
603.276	335.72
603.696	288.91
604.115	321.68
604.535	293.59
604.955	298.27
605.375	340.4
605.794	232.74
606.214	366.15
606.634	295.93
607.053	265.5
607.473	277.21
607.892	302.95
608.311	230.4
608.731	312.32
609.15	309.97
609.569	340.4
609.988	328.7
610.407	298.27
610.826	380.19
611.245	281.89
611.664	380.19
612.083	342.74
612.501	260.82
612.92	382.53
613.339	291.25
613.757	321.68
614.176	298.27
614.594	307.63
615.013	321.68
615.431	281.89
615.85	328.7
616.268	302.95
616.686	302.95
617.104	235.08
617.522	319.34
617.94	272.53
618.358	286.57
618.776	347.42
619.194	314.66
619.612	319.34
620.03	291.25
620.447	288.91
620.865	258.48
621.282	345.08
621.7	309.97
622.117	333.38
622.535	331.04
622.952	377.85
623.369	335.72
623.787	244.44
624.204	317
624.621	328.7
625.038	253.8
625.455	298.27
625.872	277.21
626.289	335.72
626.706	192.95
627.123	295.93
627.539	265.5
627.956	326.36
628.373	302.95
628.789	302.95
629.206	326.36
629.622	277.21
630.038	293.59
630.455	300.61
630.871	309.97
631.287	260.82
631.703	349.76
632.12	333.38
632.536	286.57
632.952	324.02
633.368	340.4
633.783	338.06
634.199	317
634.615	354.44
635.031	377.85
635.446	291.25
635.862	324.02
636.277	363.81
636.693	312.32
637.108	295.93
637.524	347.42
637.939	317
638.354	326.36
638.77	309.97
639.185	335.72
639.6	291.25
640.015	312.32
640.43	284.23
640.845	286.57
641.259	349.76
641.674	267.85
642.089	291.25
642.504	253.8
642.918	302.95
643.333	324.02
643.747	405.94
644.162	286.57
644.576	356.79
644.991	342.74
645.405	237.42
645.819	202.31
646.233	317
646.647	347.42
647.061	293.59
647.475	305.29
647.889	354.44
648.303	401.26
648.717	319.34
649.131	342.74
649.545	331.04
649.958	293.59
650.372	260.82
650.785	281.89
651.199	340.4
651.612	305.29
652.026	347.42
652.439	284.23
652.852	295.93
653.266	338.06
653.679	274.87
654.092	375.51
654.505	291.25
654.918	312.32
655.331	295.93
655.744	314.66
656.156	347.42
656.569	295.93
656.982	347.42
657.394	274.87
657.807	359.13
658.22	295.93
658.632	293.59
659.044	305.29
659.457	286.57
659.869	295.93
660.281	270.19
660.693	267.85
661.106	345.08
661.518	354.44
661.93	232.74
662.342	317
662.754	288.91
663.165	349.76
663.577	326.36
663.989	242.1
664.401	368.49
664.812	302.95
665.224	295.93
665.635	270.19
666.047	302.95
666.458	370.83
666.869	300.61
667.281	302.95
667.692	279.55
668.103	281.89
668.514	298.27
668.925	366.15
669.336	361.47
669.747	317
670.158	230.4
670.569	307.63
670.979	295.93
671.39	260.82
671.801	279.55
672.211	274.87
672.622	307.63
673.032	279.55
673.443	317
673.853	302.95
674.263	277.21
674.674	359.13
675.084	326.36
675.494	335.72
675.904	319.34
676.314	279.55
676.724	249.12
677.134	260.82
677.544	331.04
677.953	272.53
678.363	321.68
678.773	382.53
679.182	340.4
679.592	417.64
680.001	286.57
680.411	314.66
680.82	288.91
681.23	309.97
681.639	345.08
682.048	345.08
682.457	331.04
682.866	256.14
683.275	314.66
683.684	228.06
684.093	284.23
684.502	277.21
684.911	305.29
685.32	317
685.728	221.03
686.137	309.97
686.546	256.14
686.954	312.32
687.363	312.32
687.771	340.4
688.179	333.38
688.588	328.7
688.996	277.21
689.404	328.7
689.812	286.57
690.22	284.23
690.628	314.66
691.036	317
691.444	324.02
691.852	312.32
692.26	389.55
692.667	279.55
693.075	317
693.483	326.36
693.89	253.8
694.298	284.23
694.705	317
695.112	284.23
695.52	331.04
695.927	300.61
696.334	333.38
696.741	317
697.148	253.8
697.555	314.66
697.962	338.06
698.369	349.76
698.776	321.68
699.183	291.25
699.59	331.04
699.996	286.57
700.403	272.53
700.81	309.97
701.216	305.29
701.623	333.38
702.029	302.95
702.435	333.38
702.842	384.87
703.248	321.68
703.654	382.53
704.06	342.74
704.466	317
704.872	253.8
705.278	281.89
705.684	302.95
706.09	307.63
706.496	307.63
706.901	225.72
707.307	305.29
707.712	375.51
708.118	270.19
708.523	288.91
708.929	291.25
709.334	373.17
709.74	333.38
710.145	373.17
710.55	321.68
710.955	286.57
711.36	317
711.765	340.4
712.17	298.27
712.575	286.57
712.98	761.7
713.385	321.68
713.789	366.15
714.194	284.23
714.599	302.95
715.003	291.25
715.408	300.61
715.812	239.76
716.217	333.38
716.621	300.61
717.025	281.89
717.429	277.21
717.833	354.44
718.238	270.19
718.642	314.66
719.046	244.44
719.449	415.3
719.853	317
720.257	298.27
720.661	317
721.065	267.85
721.468	352.1
721.872	298.27
722.275	284.23
722.679	359.13
723.082	288.91
723.485	307.63
723.889	307.63
724.292	314.66
724.695	281.89
725.098	274.87
725.501	326.36
725.904	331.04
726.307	288.91
726.71	225.72
727.113	309.97
727.516	298.27
727.918	244.44
728.321	265.5
728.724	249.12
729.126	272.53
729.529	321.68
729.931	352.1
730.333	333.38
730.736	288.91
731.138	291.25
731.54	338.06
731.942	326.36
732.344	284.23
732.746	274.87
733.148	258.48
733.55	309.97
733.952	321.68
734.354	305.29
734.756	295.93
735.157	340.4
735.559	375.51
735.96	324.02
736.362	288.91
736.763	345.08
737.165	333.38
737.566	286.57
737.967	317
738.368	363.81
738.77	223.37
739.171	237.42
739.572	331.04
739.973	293.59
740.374	321.68
740.774	279.55
741.175	314.66
741.576	277.21
741.977	324.02
742.377	305.29
742.778	279.55
743.178	260.82
743.579	284.23
743.979	288.91
744.379	274.87
744.78	326.36
745.18	321.68
745.58	300.61
745.98	382.53
746.38	361.47
746.78	335.72
747.18	314.66
747.58	314.66
747.98	293.59
748.38	349.76
748.779	377.85
749.179	298.27
749.578	293.59
749.978	291.25
750.377	309.97
750.777	286.57
751.176	251.46
751.575	305.29
751.975	324.02
752.374	356.79
752.773	326.36
753.172	340.4
753.571	284.23
753.97	293.59
754.369	295.93
754.768	288.91
755.166	281.89
755.565	356.79
755.964	249.12
756.362	354.44
756.761	312.32
757.159	272.53
757.558	281.89
757.956	256.14
758.354	307.63
758.753	295.93
759.151	291.25
759.549	328.7
759.947	272.53
760.345	321.68
760.743	298.27
761.141	291.25
761.539	230.4
761.936	272.53
762.334	305.29
762.732	293.59
763.129	338.06
763.527	312.32
763.924	352.1
764.322	302.95
764.719	333.38
765.117	300.61
765.514	305.29
765.911	331.04
766.308	347.42
