Data from Al_FLMS009871__994__16-22-00-218.txt Node

Date: Fri Mar 08 16:22:00 CST 2024
User: pe5414po
Spectrometer: FLMS00987
Trigger mode: 0
Integration Time (sec): 1.000000E-1
Scans to average: 1
Electric dark correction enabled: true
Nonlinearity correction enabled: false
Boxcar width: 0
XAxis mode: Wavelengths
Number of Pixels in Spectrum: 2048
>>>>>Begin Spectral Data<<<<<
188.938	-101.81
189.409	-101.81
189.879	-101.81
190.349	-64.36
190.819	-139.26
191.29	-134.58
191.76	-99.47
192.23	-62.02
192.7	-64.36
193.17	-101.81
193.64	-19.89
194.109	-90.11
194.579	31.6
195.049	5.85
195.519	80.75
195.988	80.75
196.458	26.92
196.927	50.32
197.397	59.68
197.866	97.13
198.336	139.26
198.805	183.73
199.274	148.62
199.744	190.75
200.213	162.67
200.682	197.78
201.151	190.75
201.62	188.41
202.089	190.75
202.558	200.12
203.027	183.73
203.495	218.84
203.964	239.9
204.433	246.93
204.902	303.1
205.37	331.19
205.839	317.14
206.307	298.42
206.776	321.82
207.244	326.5
207.712	289.06
208.181	267.99
208.649	286.72
209.117	251.61
209.585	314.8
210.053	277.35
210.521	307.78
210.989	251.61
211.457	282.03
211.925	293.74
212.393	340.55
212.861	338.21
213.328	296.08
213.796	328.85
214.264	251.61
214.731	317.14
215.199	253.95
215.666	270.33
216.133	296.08
216.601	221.18
217.068	282.03
217.535	263.31
218.003	282.03
218.47	242.25
218.937	284.38
219.404	272.67
219.871	207.14
220.338	207.14
220.805	225.86
221.271	200.12
221.738	202.46
222.205	230.54
222.671	258.63
223.138	197.78
223.605	251.61
224.071	321.82
224.538	251.61
225.004	275.01
225.47	253.95
225.937	179.05
226.403	293.74
226.869	286.72
227.335	232.88
227.801	333.53
228.267	230.54
228.733	307.78
229.199	200.12
229.665	263.31
230.131	242.25
230.597	331.19
231.062	282.03
231.528	228.2
231.994	277.35
232.459	286.72
232.925	260.97
233.39	211.82
233.856	228.2
234.321	214.16
234.786	270.33
235.252	211.82
235.717	293.74
236.182	307.78
236.647	282.03
237.112	230.54
237.577	307.78
238.042	289.06
238.507	253.95
238.972	300.76
239.436	242.25
239.901	258.63
240.366	310.12
240.83	244.59
241.295	263.31
241.76	305.44
242.224	232.88
242.688	258.63
243.153	296.08
243.617	263.31
244.081	289.06
244.545	328.85
245.01	246.93
245.474	279.69
245.938	267.99
246.402	263.31
246.866	258.63
247.33	204.8
247.793	328.85
248.257	214.16
248.721	239.9
249.185	307.78
249.648	310.12
250.112	258.63
250.575	291.4
251.039	289.06
251.502	221.18
251.965	333.53
252.429	251.61
252.892	267.99
253.355	310.12
253.818	260.97
254.281	228.2
254.744	267.99
255.207	237.56
255.67	282.03
256.133	277.35
256.596	275.01
257.059	275.01
257.522	275.01
257.984	263.31
258.447	190.75
258.909	293.74
259.372	289.06
259.834	223.52
260.297	319.48
260.759	270.33
261.221	279.69
261.684	253.95
262.146	267.99
262.608	263.31
263.07	272.67
263.532	249.27
263.994	244.59
264.456	326.5
264.918	314.8
265.38	267.99
265.842	312.46
266.303	263.31
266.765	319.48
267.227	228.2
267.688	317.14
268.15	256.29
268.611	300.76
269.072	310.12
269.534	335.87
269.995	277.35
270.456	284.38
270.918	253.95
271.379	253.95
271.84	291.4
272.301	303.1
272.762	317.14
273.223	235.22
273.684	338.21
274.144	300.76
274.605	251.61
275.066	291.4
275.527	296.08
275.987	305.44
276.448	324.16
276.908	296.08
277.369	253.95
277.829	317.14
278.289	312.46
278.75	303.1
279.21	298.42
279.67	277.35
280.13	314.8
280.59	303.1
281.05	232.88
281.51	333.53
281.97	293.74
282.43	256.29
282.89	326.5
283.35	300.76
283.809	359.27
284.269	317.14
284.729	279.69
285.188	310.12
285.648	286.72
286.107	256.29
286.567	305.44
287.026	225.86
287.485	221.18
287.944	284.38
288.404	382.68
288.863	359.27
289.322	235.22
289.781	289.06
290.24	251.61
290.699	370.97
291.158	368.63
291.616	310.12
292.075	310.12
292.534	324.16
292.992	256.29
293.451	265.65
293.91	300.76
294.368	328.85
294.827	289.06
295.285	349.91
295.743	321.82
296.202	239.9
296.66	324.16
297.118	333.53
297.576	317.14
298.034	307.78
298.492	270.33
298.95	289.06
299.408	359.27
299.866	338.21
300.324	314.8
300.781	305.44
301.239	342.89
301.697	363.95
302.154	314.8
302.612	270.33
303.069	246.93
303.527	303.1
303.984	239.9
304.441	218.84
304.899	239.9
305.356	275.01
305.813	284.38
306.27	303.1
306.727	317.14
307.184	307.78
307.641	321.82
308.098	331.19
308.555	321.82
309.012	282.03
309.468	277.35
309.925	298.42
310.382	349.91
310.838	279.69
311.295	258.63
311.751	293.74
312.208	319.48
312.664	265.65
313.12	370.97
313.577	307.78
314.033	284.38
314.489	338.21
314.945	326.5
315.401	298.42
315.857	328.85
316.313	279.69
316.769	277.35
317.225	305.44
317.681	272.67
318.136	239.9
318.592	305.44
319.048	331.19
319.503	289.06
319.959	314.8
320.414	340.55
320.869	275.01
321.325	293.74
321.78	291.4
322.235	260.97
322.691	251.61
323.146	279.69
323.601	307.78
324.056	338.21
324.511	305.44
324.966	216.5
325.421	286.72
325.875	347.57
326.33	225.86
326.785	303.1
327.24	296.08
327.694	251.61
328.149	272.67
328.603	338.21
329.058	265.65
329.512	284.38
329.966	291.4
330.421	328.85
330.875	314.8
331.329	345.23
331.783	293.74
332.237	305.44
332.691	305.44
333.145	298.42
333.599	347.57
334.053	317.14
334.507	321.82
334.96	307.78
335.414	333.53
335.868	380.34
336.321	328.85
336.775	242.25
337.228	258.63
337.682	382.68
338.135	321.82
338.588	267.99
339.042	296.08
339.495	340.55
339.948	272.67
340.401	284.38
340.854	260.97
341.307	260.97
341.76	293.74
342.213	300.76
342.666	200.12
343.119	361.61
343.571	305.44
344.024	340.55
344.477	258.63
344.929	345.23
345.382	284.38
345.834	373.32
346.287	317.14
346.739	293.74
347.191	356.93
347.644	317.14
348.096	296.08
348.548	319.48
349	218.84
349.452	338.21
349.904	296.08
350.356	289.06
350.808	267.99
351.26	251.61
351.711	356.93
352.163	298.42
352.615	305.44
353.066	307.78
353.518	314.8
353.969	310.12
354.421	366.29
354.872	349.91
355.324	310.12
355.775	293.74
356.226	319.48
356.677	272.67
357.128	260.97
357.579	319.48
358.03	326.5
358.481	282.03
358.932	361.61
359.383	286.72
359.834	314.8
360.285	380.34
360.735	277.35
361.186	284.38
361.637	317.14
362.087	303.1
362.538	256.29
362.988	307.78
363.438	312.46
363.889	342.89
364.339	335.87
364.789	317.14
365.239	272.67
365.689	331.19
366.139	312.46
366.589	291.4
367.039	239.9
367.489	394.38
367.939	354.59
368.389	289.06
368.839	296.08
369.288	340.55
369.738	286.72
370.187	207.14
370.637	300.76
371.086	289.06
371.536	293.74
371.985	326.5
372.434	282.03
372.884	338.21
373.333	338.21
373.782	354.59
374.231	338.21
374.68	342.89
375.129	361.61
375.578	286.72
376.027	342.89
376.475	328.85
376.924	335.87
377.373	359.27
377.822	270.33
378.27	284.38
378.719	249.27
379.167	277.35
379.616	293.74
380.064	352.25
380.512	228.2
380.961	349.91
381.409	349.91
381.857	298.42
382.305	260.97
382.753	340.55
383.201	307.78
383.649	354.59
384.097	319.48
384.545	296.08
384.992	340.55
385.44	314.8
385.888	366.29
386.335	305.44
386.783	256.29
387.231	270.33
387.678	260.97
388.125	277.35
388.573	298.42
389.02	359.27
389.467	300.76
389.914	300.76
390.362	289.06
390.809	347.57
391.256	279.69
391.703	342.89
392.15	324.16
392.596	291.4
393.043	225.86
393.49	291.4
393.937	256.29
394.383	284.38
394.83	296.08
395.276	333.53
395.723	267.99
396.169	298.42
396.616	279.69
397.062	289.06
397.508	303.1
397.954	317.14
398.401	310.12
398.847	324.16
399.293	286.72
399.739	298.42
400.185	305.44
400.631	291.4
401.076	317.14
401.522	359.27
401.968	296.08
402.414	307.78
402.859	361.61
403.305	305.44
403.75	246.93
404.196	349.91
404.641	333.53
405.086	345.23
405.532	242.25
405.977	256.29
406.422	312.46
406.867	321.82
407.312	258.63
407.757	319.48
408.202	279.69
408.647	298.42
409.092	293.74
409.537	298.42
409.982	328.85
410.426	286.72
410.871	310.12
411.316	260.97
411.76	380.34
412.205	300.76
412.649	298.42
413.093	366.29
413.538	333.53
413.982	326.5
414.426	338.21
414.87	333.53
415.314	342.89
415.758	279.69
416.202	342.89
416.646	324.16
417.09	279.69
417.534	293.74
417.978	324.16
418.421	303.1
418.865	321.82
419.309	356.93
419.752	326.5
420.196	289.06
420.639	279.69
421.083	307.78
421.526	300.76
421.969	356.93
422.412	300.76
422.856	370.97
423.299	333.53
423.742	328.85
424.185	310.12
424.628	253.95
425.071	246.93
425.513	298.42
425.956	300.76
426.399	282.03
426.842	356.93
427.284	335.87
427.727	272.67
428.169	342.89
428.612	328.85
429.054	296.08
429.497	314.8
429.939	352.25
430.381	307.78
430.823	366.29
431.265	363.95
431.707	363.95
432.149	307.78
432.591	305.44
433.033	361.61
433.475	300.76
433.917	296.08
434.359	324.16
434.8	275.01
435.242	289.06
435.684	347.57
436.125	293.74
436.567	345.23
437.008	270.33
437.449	319.48
437.891	277.35
438.332	298.42
438.773	286.72
439.214	300.76
439.656	324.16
440.097	293.74
440.538	286.72
440.978	275.01
441.419	291.4
441.86	326.5
442.301	303.1
442.742	303.1
443.182	307.78
443.623	328.85
444.063	300.76
444.504	303.1
444.944	331.19
445.385	314.8
445.825	291.4
446.265	356.93
446.706	232.88
447.146	321.82
447.586	340.55
448.026	291.4
448.466	314.8
448.906	342.89
449.346	284.38
449.786	298.42
450.225	296.08
450.665	270.33
451.105	349.91
451.544	321.82
451.984	310.12
452.424	378
452.863	328.85
453.302	256.29
453.742	340.55
454.181	352.25
454.62	303.1
455.059	324.16
455.499	349.91
455.938	349.91
456.377	293.74
456.816	265.65
457.254	303.1
457.693	317.14
458.132	242.25
458.571	317.14
459.01	349.91
459.448	303.1
459.887	319.48
460.325	258.63
460.764	277.35
461.202	289.06
461.641	289.06
462.079	291.4
462.517	284.38
462.955	349.91
463.393	300.76
463.832	296.08
464.27	319.48
464.708	326.5
465.145	317.14
465.583	319.48
466.021	298.42
466.459	310.12
466.897	338.21
467.334	361.61
467.772	267.99
468.209	324.16
468.647	324.16
469.084	277.35
469.522	289.06
469.959	289.06
470.396	363.95
470.833	298.42
471.271	284.38
471.708	296.08
472.145	305.44
472.582	333.53
473.019	338.21
473.456	307.78
473.892	293.74
474.329	260.97
474.766	349.91
475.202	319.48
475.639	300.76
476.076	363.95
476.512	300.76
476.949	331.19
477.385	258.63
477.821	314.8
478.258	272.67
478.694	300.76
479.13	349.91
479.566	340.55
480.002	349.91
480.438	319.48
480.874	342.89
481.31	331.19
481.746	312.46
482.181	317.14
482.617	286.72
483.053	312.46
483.488	279.69
483.924	298.42
484.36	277.35
484.795	359.27
485.23	307.78
485.666	361.61
486.101	338.21
486.536	340.55
486.971	331.19
487.407	296.08
487.842	349.91
488.277	324.16
488.712	289.06
489.146	331.19
489.581	331.19
490.016	275.01
490.451	326.5
490.885	328.85
491.32	303.1
491.755	321.82
492.189	335.87
492.624	282.03
493.058	291.4
493.492	256.29
493.927	298.42
494.361	314.8
494.795	328.85
495.229	310.12
495.663	303.1
496.097	286.72
496.531	335.87
496.965	333.53
497.399	291.4
497.833	270.33
498.266	349.91
498.7	291.4
499.134	326.5
499.567	305.44
500.001	370.97
500.434	275.01
500.868	366.29
501.301	314.8
501.734	392.04
502.168	368.63
502.601	331.19
503.034	249.27
503.467	270.33
503.9	305.44
504.333	293.74
504.766	345.23
505.199	270.33
505.632	296.08
506.064	307.78
506.497	317.14
506.93	352.25
507.362	338.21
507.795	326.5
508.227	385.02
508.66	366.29
509.092	326.5
509.524	324.16
509.956	314.8
510.389	342.89
510.821	319.48
511.253	314.8
511.685	265.65
512.117	326.5
512.549	218.84
512.981	286.72
513.412	298.42
513.844	317.14
514.276	300.76
514.707	312.46
515.139	270.33
515.571	310.12
516.002	235.22
516.433	328.85
516.865	289.06
517.296	291.4
517.727	286.72
518.159	375.66
518.59	375.66
519.021	286.72
519.452	296.08
519.883	256.29
520.314	324.16
520.744	328.85
521.175	317.14
521.606	307.78
522.037	317.14
522.467	326.5
522.898	272.67
523.328	370.97
523.759	286.72
524.189	333.53
524.62	338.21
525.05	300.76
525.48	321.82
525.91	373.32
526.341	345.23
526.771	328.85
527.201	324.16
527.631	354.59
528.061	263.31
528.49	366.29
528.92	370.97
529.35	331.19
529.78	263.31
530.209	314.8
530.639	324.16
531.068	312.46
531.498	298.42
531.927	282.03
532.357	270.33
532.786	303.1
533.215	275.01
533.644	399.06
534.074	296.08
534.503	267.99
534.932	289.06
535.361	335.87
535.79	279.69
536.218	293.74
536.647	340.55
537.076	328.85
537.505	310.12
537.933	230.54
538.362	284.38
538.79	321.82
539.219	328.85
539.647	338.21
540.076	317.14
540.504	284.38
540.932	265.65
541.36	296.08
541.788	286.72
542.217	333.53
542.645	312.46
543.073	293.74
543.5	289.06
543.928	298.42
544.356	303.1
544.784	293.74
545.211	303.1
545.639	267.99
546.067	277.35
546.494	373.32
546.922	312.46
547.349	326.5
547.776	359.27
548.204	275.01
548.631	267.99
549.058	275.01
549.485	296.08
549.912	275.01
550.339	293.74
550.766	349.91
551.193	289.06
551.62	326.5
552.047	307.78
552.474	279.69
552.9	340.55
553.327	333.53
553.754	225.86
554.18	258.63
554.607	286.72
555.033	289.06
555.459	326.5
555.886	314.8
556.312	345.23
556.738	349.91
557.164	324.16
557.59	300.76
558.016	265.65
558.442	310.12
558.868	298.42
559.294	307.78
559.72	291.4
560.145	270.33
560.571	352.25
560.997	286.72
561.422	267.99
561.848	319.48
562.273	277.35
562.699	265.65
563.124	317.14
563.549	289.06
563.974	366.29
564.4	298.42
564.825	293.74
565.25	319.48
565.675	347.57
566.1	333.53
566.525	319.48
566.95	298.42
567.374	328.85
567.799	324.16
568.224	307.78
568.648	296.08
569.073	310.12
569.497	338.21
569.922	368.63
570.346	314.8
570.771	359.27
571.195	277.35
571.619	319.48
572.043	345.23
572.467	335.87
572.891	293.74
573.315	284.38
573.739	319.48
574.163	314.8
574.587	291.4
575.011	345.23
575.435	335.87
575.858	291.4
576.282	307.78
576.705	324.16
577.129	342.89
577.552	394.38
577.976	296.08
578.399	361.61
578.822	307.78
579.245	326.5
579.669	258.63
580.092	321.82
580.515	260.97
580.938	267.99
581.361	296.08
581.784	378
582.206	340.55
582.629	333.53
583.052	326.5
583.474	270.33
583.897	359.27
584.32	363.95
584.742	303.1
585.165	310.12
585.587	319.48
586.009	321.82
586.431	342.89
586.854	326.5
587.276	291.4
587.698	328.85
588.12	345.23
588.542	321.82
588.964	291.4
589.386	305.44
589.807	253.95
590.229	310.12
590.651	251.61
591.073	258.63
591.494	345.23
591.916	328.85
592.337	296.08
592.759	277.35
593.18	335.87
593.601	300.76
594.022	296.08
594.444	303.1
594.865	317.14
595.286	328.85
595.707	333.53
596.128	289.06
596.549	321.82
596.97	258.63
597.39	300.76
597.811	293.74
598.232	300.76
598.652	284.38
599.073	340.55
599.494	310.12
599.914	378
600.334	249.27
600.755	335.87
601.175	317.14
601.595	319.48
602.015	284.38
602.436	279.69
602.856	455.23
603.276	282.03
603.696	296.08
604.115	307.78
604.535	286.72
604.955	298.42
605.375	356.93
605.794	340.55
606.214	300.76
606.634	251.61
607.053	300.76
607.473	277.35
607.892	331.19
608.311	282.03
608.731	244.59
609.15	328.85
609.569	232.88
609.988	326.5
610.407	249.27
610.826	314.8
611.245	305.44
611.664	310.12
612.083	333.53
612.501	349.91
612.92	293.74
613.339	331.19
613.757	333.53
614.176	303.1
614.594	298.42
615.013	307.78
615.431	335.87
615.85	317.14
616.268	331.19
616.686	324.16
617.104	296.08
617.522	272.67
617.94	342.89
618.358	321.82
618.776	298.42
619.194	317.14
619.612	286.72
620.03	265.65
620.447	378
620.865	305.44
621.282	347.57
621.7	317.14
622.117	303.1
622.535	345.23
622.952	382.68
623.369	319.48
623.787	314.8
624.204	368.63
624.621	267.99
625.038	319.48
625.455	267.99
625.872	312.46
626.289	321.82
626.706	312.46
627.123	319.48
627.539	298.42
627.956	270.33
628.373	303.1
628.789	335.87
629.206	296.08
629.622	305.44
630.038	253.95
630.455	312.46
630.871	305.44
631.287	260.97
631.703	289.06
632.12	338.21
632.536	284.38
632.952	331.19
633.368	258.63
633.783	324.16
634.199	305.44
634.615	317.14
635.031	251.61
635.446	293.74
635.862	335.87
636.277	368.63
636.693	286.72
637.108	296.08
637.524	312.46
637.939	356.93
638.354	340.55
638.77	317.14
639.185	307.78
639.6	345.23
640.015	328.85
640.43	345.23
640.845	342.89
641.259	267.99
641.674	342.89
642.089	333.53
642.504	286.72
642.918	270.33
643.333	251.61
643.747	340.55
644.162	359.27
644.576	298.42
644.991	291.4
645.405	380.34
645.819	307.78
646.233	349.91
646.647	338.21
647.061	352.25
647.475	317.14
647.889	324.16
648.303	260.97
648.717	342.89
649.131	298.42
649.545	263.31
649.958	293.74
650.372	314.8
650.785	312.46
651.199	310.12
651.612	291.4
652.026	321.82
652.439	256.29
652.852	298.42
653.266	267.99
653.679	356.93
654.092	331.19
654.505	270.33
654.918	319.48
655.331	293.74
655.744	305.44
656.156	368.63
656.569	324.16
656.982	305.44
657.394	256.29
657.807	265.65
658.22	284.38
658.632	317.14
659.044	298.42
659.457	321.82
659.869	321.82
660.281	303.1
660.693	333.53
661.106	291.4
661.518	321.82
661.93	279.69
662.342	326.5
662.754	321.82
663.165	296.08
663.577	321.82
663.989	310.12
664.401	328.85
664.812	303.1
665.224	265.65
665.635	307.78
666.047	347.57
666.458	347.57
666.869	317.14
667.281	317.14
667.692	267.99
668.103	361.61
668.514	319.48
668.925	314.8
669.336	296.08
669.747	298.42
670.158	321.82
670.569	319.48
670.979	284.38
671.39	289.06
671.801	235.22
672.211	331.19
672.622	314.8
673.032	340.55
673.443	286.72
673.853	319.48
674.263	331.19
674.674	307.78
675.084	293.74
675.494	368.63
675.904	366.29
676.314	354.59
676.724	324.16
677.134	284.38
677.544	289.06
677.953	263.31
678.363	300.76
678.773	298.42
679.182	335.87
679.592	286.72
680.001	277.35
680.411	324.16
680.82	319.48
681.23	282.03
681.639	349.91
682.048	331.19
682.457	317.14
682.866	296.08
683.275	328.85
683.684	331.19
684.093	265.65
684.502	263.31
684.911	317.14
685.32	314.8
685.728	232.88
686.137	293.74
686.546	338.21
686.954	352.25
687.363	293.74
687.771	328.85
688.179	317.14
688.588	352.25
688.996	312.46
689.404	312.46
689.812	370.97
690.22	352.25
690.628	354.59
691.036	359.27
691.444	326.5
691.852	307.78
692.26	349.91
692.667	324.16
693.075	298.42
693.483	319.48
693.89	305.44
694.298	345.23
694.705	317.14
695.112	267.99
695.52	333.53
695.927	256.29
696.334	263.31
696.741	347.57
697.148	293.74
697.555	260.97
697.962	312.46
698.369	305.44
698.776	328.85
699.183	298.42
699.59	342.89
699.996	345.23
700.403	331.19
700.81	244.59
701.216	291.4
701.623	331.19
702.029	319.48
702.435	284.38
702.842	291.4
703.248	366.29
703.654	279.69
704.06	319.48
704.466	275.01
704.872	333.53
705.278	352.25
705.684	296.08
706.09	263.31
706.496	382.68
706.901	359.27
707.307	298.42
707.712	232.88
708.118	249.27
708.523	263.31
708.929	289.06
709.334	314.8
709.74	286.72
710.145	326.5
710.55	385.02
710.955	319.48
711.36	312.46
711.765	321.82
712.17	347.57
712.575	314.8
712.98	853.13
713.385	434.17
713.789	349.91
714.194	324.16
714.599	382.68
715.003	286.72
715.408	275.01
715.812	354.59
716.217	307.78
716.621	310.12
717.025	223.52
717.429	345.23
717.833	263.31
718.238	300.76
718.642	286.72
719.046	347.57
719.449	286.72
719.853	324.16
720.257	267.99
720.661	349.91
721.065	310.12
721.468	363.95
721.872	293.74
722.275	312.46
722.679	298.42
723.082	286.72
723.485	352.25
723.889	298.42
724.292	279.69
724.695	282.03
725.098	349.91
725.501	265.65
725.904	347.57
726.307	282.03
726.71	300.76
727.113	335.87
727.516	321.82
727.918	319.48
728.321	296.08
728.724	310.12
729.126	277.35
729.529	335.87
729.931	314.8
730.333	312.46
730.736	235.22
731.138	368.63
731.54	300.76
731.942	298.42
732.344	298.42
732.746	319.48
733.148	293.74
733.55	305.44
733.952	277.35
734.354	352.25
734.756	319.48
735.157	284.38
735.559	321.82
735.96	326.5
736.362	349.91
736.763	207.14
737.165	359.27
737.566	312.46
737.967	314.8
738.368	331.19
738.77	286.72
739.171	345.23
739.572	335.87
739.973	298.42
740.374	312.46
740.774	326.5
741.175	305.44
741.576	300.76
741.977	296.08
742.377	340.55
742.778	324.16
743.178	279.69
743.579	314.8
743.979	382.68
744.379	373.32
744.78	260.97
745.18	263.31
745.58	246.93
745.98	267.99
746.38	263.31
746.78	267.99
747.18	319.48
747.58	335.87
747.98	321.82
748.38	286.72
748.779	303.1
749.179	352.25
749.578	385.02
749.978	303.1
750.377	293.74
750.777	265.65
751.176	260.97
751.575	296.08
751.975	349.91
752.374	307.78
752.773	340.55
753.172	244.59
753.571	312.46
753.97	345.23
754.369	296.08
754.768	321.82
755.166	310.12
755.565	298.42
755.964	389.7
756.362	298.42
756.761	326.5
757.159	296.08
757.558	230.54
757.956	298.42
758.354	361.61
758.753	328.85
759.151	317.14
759.549	256.29
759.947	314.8
760.345	345.23
760.743	356.93
761.141	328.85
761.539	298.42
761.936	340.55
762.334	277.35
762.732	324.16
763.129	314.8
763.527	310.12
763.924	373.32
764.322	331.19
764.719	298.42
765.117	354.59
765.514	319.48
