Data from Al_FLMS009871__999__16-22-00-718.txt Node

Date: Fri Mar 08 16:22:00 CST 2024
User: pe5414po
Spectrometer: FLMS00987
Trigger mode: 0
Integration Time (sec): 1.000000E-1
Scans to average: 1
Electric dark correction enabled: true
Nonlinearity correction enabled: false
Boxcar width: 0
XAxis mode: Wavelengths
Number of Pixels in Spectrum: 2048
>>>>>Begin Spectral Data<<<<<
188.938	-104.15
189.409	-104.15
189.879	-104.15
190.349	-108.83
190.819	-111.18
191.29	-115.86
191.76	-66.71
192.23	-8.19
192.7	-52.66
193.17	-38.62
193.64	-106.49
194.109	-40.96
194.579	8.19
195.049	36.28
195.519	-17.55
195.988	15.21
196.458	15.21
196.927	10.53
197.397	122.88
197.866	134.58
198.336	104.15
198.805	118.2
199.274	237.56
199.744	162.67
200.213	190.75
200.682	195.43
201.151	263.31
201.62	209.48
202.089	242.25
202.558	246.93
203.027	239.9
203.495	303.1
203.964	251.61
204.433	258.63
204.902	303.1
205.37	272.67
205.839	270.33
206.307	253.95
206.776	291.4
207.244	209.48
207.712	317.14
208.181	296.08
208.649	246.93
209.117	242.25
209.585	265.65
210.053	282.03
210.521	305.44
210.989	270.33
211.457	300.76
211.925	303.1
212.393	312.46
212.861	282.03
213.328	230.54
213.796	307.78
214.264	232.88
214.731	237.56
215.199	228.2
215.666	277.35
216.133	235.22
216.601	253.95
217.068	218.84
217.535	251.61
218.003	258.63
218.47	279.69
218.937	228.2
219.404	256.29
219.871	211.82
220.338	356.93
220.805	225.86
221.271	242.25
221.738	246.93
222.205	202.46
222.671	223.52
223.138	237.56
223.605	342.89
224.071	204.8
224.538	258.63
225.004	267.99
225.47	260.97
225.937	216.5
226.403	272.67
226.869	338.21
227.335	258.63
227.801	267.99
228.267	289.06
228.733	307.78
229.199	242.25
229.665	249.27
230.131	244.59
230.597	235.22
231.062	235.22
231.528	300.76
231.994	282.03
232.459	251.61
232.925	275.01
233.39	265.65
233.856	237.56
234.321	246.93
234.786	277.35
235.252	256.29
235.717	321.82
236.182	326.5
236.647	260.97
237.112	249.27
237.577	204.8
238.042	298.42
238.507	286.72
238.972	263.31
239.436	282.03
239.901	169.69
240.366	239.9
240.83	230.54
241.295	214.16
241.76	275.01
242.224	275.01
242.688	286.72
243.153	319.48
243.617	282.03
244.081	251.61
244.545	209.48
245.01	230.54
245.474	256.29
245.938	237.56
246.402	272.67
246.866	251.61
247.33	333.53
247.793	209.48
248.257	237.56
248.721	312.46
249.185	286.72
249.648	296.08
250.112	289.06
250.575	232.88
251.039	298.42
251.502	258.63
251.965	277.35
252.429	239.9
252.892	263.31
253.355	310.12
253.818	235.22
254.281	328.85
254.744	244.59
255.207	232.88
255.67	270.33
256.133	303.1
256.596	335.87
257.059	363.95
257.522	305.44
257.984	291.4
258.447	251.61
258.909	239.9
259.372	277.35
259.834	267.99
260.297	260.97
260.759	272.67
261.221	300.76
261.684	225.86
262.146	328.85
262.608	291.4
263.07	279.69
263.532	260.97
263.994	242.25
264.456	275.01
264.918	246.93
265.38	324.16
265.842	267.99
266.303	319.48
266.765	303.1
267.227	303.1
267.688	286.72
268.15	258.63
268.611	275.01
269.072	237.56
269.534	260.97
269.995	235.22
270.456	188.41
270.918	242.25
271.379	289.06
271.84	286.72
272.301	284.38
272.762	265.65
273.223	221.18
273.684	286.72
274.144	230.54
274.605	232.88
275.066	307.78
275.527	272.67
275.987	267.99
276.448	319.48
276.908	296.08
277.369	296.08
277.829	260.97
278.289	277.35
278.75	228.2
279.21	286.72
279.67	291.4
280.13	319.48
280.59	310.12
281.05	275.01
281.51	267.99
281.97	232.88
282.43	289.06
282.89	289.06
283.35	275.01
283.809	361.61
284.269	324.16
284.729	291.4
285.188	225.86
285.648	242.25
286.107	272.67
286.567	277.35
287.026	289.06
287.485	275.01
287.944	314.8
288.404	265.65
288.863	267.99
289.322	272.67
289.781	232.88
290.24	272.67
290.699	335.87
291.158	328.85
291.616	326.5
292.075	296.08
292.534	289.06
292.992	235.22
293.451	214.16
293.91	310.12
294.368	310.12
294.827	272.67
295.285	307.78
295.743	263.31
296.202	284.38
296.66	242.25
297.118	275.01
297.576	272.67
298.034	312.46
298.492	307.78
298.95	324.16
299.408	326.5
299.866	298.42
300.324	279.69
300.781	296.08
301.239	296.08
301.697	324.16
302.154	347.57
302.612	277.35
303.069	305.44
303.527	310.12
303.984	296.08
304.441	265.65
304.899	314.8
305.356	333.53
305.813	275.01
306.27	310.12
306.727	275.01
307.184	338.21
307.641	347.57
308.098	335.87
308.555	289.06
309.012	298.42
309.468	289.06
309.925	237.56
310.382	291.4
310.838	319.48
311.295	319.48
311.751	282.03
312.208	279.69
312.664	340.55
313.12	256.29
313.577	246.93
314.033	312.46
314.489	296.08
314.945	298.42
315.401	312.46
315.857	293.74
316.313	279.69
316.769	267.99
317.225	216.5
317.681	293.74
318.136	232.88
318.592	258.63
319.048	314.8
319.503	340.55
319.959	289.06
320.414	333.53
320.869	324.16
321.325	347.57
321.78	312.46
322.235	258.63
322.691	263.31
323.146	338.21
323.601	298.42
324.056	321.82
324.511	286.72
324.966	289.06
325.421	284.38
325.875	286.72
326.33	293.74
326.785	249.27
327.24	366.29
327.694	326.5
328.149	253.95
328.603	345.23
329.058	267.99
329.512	307.78
329.966	282.03
330.421	340.55
330.875	277.35
331.329	221.18
331.783	286.72
332.237	275.01
332.691	256.29
333.145	319.48
333.599	300.76
334.053	291.4
334.507	354.59
334.96	293.74
335.414	275.01
335.868	275.01
336.321	363.95
336.775	267.99
337.228	270.33
337.682	345.23
338.135	298.42
338.588	305.44
339.042	300.76
339.495	314.8
339.948	324.16
340.401	305.44
340.854	291.4
341.307	335.87
341.76	305.44
342.213	314.8
342.666	352.25
343.119	326.5
343.571	347.57
344.024	263.31
344.477	267.99
344.929	328.85
345.382	319.48
345.834	298.42
346.287	298.42
346.739	286.72
347.191	298.42
347.644	265.65
348.096	291.4
348.548	319.48
349	314.8
349.452	347.57
349.904	321.82
350.356	289.06
350.808	251.61
351.26	282.03
351.711	312.46
352.163	289.06
352.615	216.5
353.066	319.48
353.518	317.14
353.969	279.69
354.421	282.03
354.872	312.46
355.324	265.65
355.775	291.4
356.226	296.08
356.677	251.61
357.128	284.38
357.579	260.97
358.03	251.61
358.481	258.63
358.932	333.53
359.383	293.74
359.834	310.12
360.285	319.48
360.735	296.08
361.186	272.67
361.637	307.78
362.087	284.38
362.538	312.46
362.988	235.22
363.438	349.91
363.889	249.27
364.339	293.74
364.789	232.88
365.239	260.97
365.689	331.19
366.139	305.44
366.589	298.42
367.039	300.76
367.489	272.67
367.939	340.55
368.389	296.08
368.839	328.85
369.288	260.97
369.738	260.97
370.187	326.5
370.637	333.53
371.086	256.29
371.536	324.16
371.985	389.7
372.434	291.4
372.884	286.72
373.333	331.19
373.782	342.89
374.231	282.03
374.68	270.33
375.129	347.57
375.578	312.46
376.027	328.85
376.475	303.1
376.924	310.12
377.373	279.69
377.822	335.87
378.27	317.14
378.719	256.29
379.167	317.14
379.616	328.85
380.064	333.53
380.512	338.21
380.961	279.69
381.409	235.22
381.857	265.65
382.305	282.03
382.753	293.74
383.201	286.72
383.649	279.69
384.097	298.42
384.545	326.5
384.992	289.06
385.44	235.22
385.888	286.72
386.335	300.76
386.783	319.48
387.231	258.63
387.678	289.06
388.125	342.89
388.573	307.78
389.02	293.74
389.467	286.72
389.914	324.16
390.362	305.44
390.809	239.9
391.256	326.5
391.703	282.03
392.15	324.16
392.596	328.85
393.043	333.53
393.49	296.08
393.937	345.23
394.383	394.38
394.83	312.46
395.276	296.08
395.723	319.48
396.169	305.44
396.616	321.82
397.062	293.74
397.508	314.8
397.954	186.07
398.401	272.67
398.847	279.69
399.293	312.46
399.739	253.95
400.185	314.8
400.631	321.82
401.076	291.4
401.522	326.5
401.968	284.38
402.414	333.53
402.859	260.97
403.305	284.38
403.75	342.89
404.196	326.5
404.641	267.99
405.086	300.76
405.532	284.38
405.977	296.08
406.422	324.16
406.867	319.48
407.312	237.56
407.757	298.42
408.202	225.86
408.647	225.86
409.092	270.33
409.537	359.27
409.982	291.4
410.426	293.74
410.871	293.74
411.316	300.76
411.76	246.93
412.205	307.78
412.649	359.27
413.093	293.74
413.538	303.1
413.982	246.93
414.426	286.72
414.87	317.14
415.314	279.69
415.758	368.63
416.202	326.5
416.646	338.21
417.09	277.35
417.534	328.85
417.978	303.1
418.421	319.48
418.865	321.82
419.309	347.57
419.752	284.38
420.196	326.5
420.639	312.46
421.083	303.1
421.526	331.19
421.969	279.69
422.412	328.85
422.856	340.55
423.299	335.87
423.742	284.38
424.185	296.08
424.628	279.69
425.071	326.5
425.513	333.53
425.956	340.55
426.399	258.63
426.842	286.72
427.284	286.72
427.727	328.85
428.169	345.23
428.612	282.03
429.054	272.67
429.497	328.85
429.939	363.95
430.381	291.4
430.823	228.2
431.265	326.5
431.707	363.95
432.149	272.67
432.591	256.29
433.033	312.46
433.475	291.4
433.917	305.44
434.359	284.38
434.8	251.61
435.242	284.38
435.684	289.06
436.125	291.4
436.567	218.84
437.008	361.61
437.449	317.14
437.891	338.21
438.332	298.42
438.773	321.82
439.214	277.35
439.656	333.53
440.097	265.65
440.538	310.12
440.978	284.38
441.419	314.8
441.86	300.76
442.301	289.06
442.742	242.25
443.182	284.38
443.623	342.89
444.063	349.91
444.504	296.08
444.944	352.25
445.385	298.42
445.825	277.35
446.265	293.74
446.706	282.03
447.146	333.53
447.586	347.57
448.026	282.03
448.466	289.06
448.906	335.87
449.346	300.76
449.786	293.74
450.225	317.14
450.665	286.72
451.105	286.72
451.544	349.91
451.984	326.5
452.424	338.21
452.863	291.4
453.302	291.4
453.742	363.95
454.181	277.35
454.62	303.1
455.059	345.23
455.499	359.27
455.938	296.08
456.377	352.25
456.816	275.01
457.254	310.12
457.693	349.91
458.132	347.57
458.571	267.99
459.01	331.19
459.448	307.78
459.887	331.19
460.325	354.59
460.764	380.34
461.202	298.42
461.641	300.76
462.079	307.78
462.517	319.48
462.955	267.99
463.393	296.08
463.832	223.52
464.27	328.85
464.708	293.74
465.145	286.72
465.583	296.08
466.021	375.66
466.459	312.46
466.897	307.78
467.334	267.99
467.772	319.48
468.209	307.78
468.647	312.46
469.084	296.08
469.522	352.25
469.959	345.23
470.396	338.21
470.833	307.78
471.271	324.16
471.708	263.31
472.145	314.8
472.582	260.97
473.019	319.48
473.456	277.35
473.892	260.97
474.329	296.08
474.766	310.12
475.202	326.5
475.639	272.67
476.076	193.09
476.512	263.31
476.949	307.78
477.385	272.67
477.821	312.46
478.258	324.16
478.694	298.42
479.13	310.12
479.566	326.5
480.002	289.06
480.438	338.21
480.874	282.03
481.31	275.01
481.746	300.76
482.181	282.03
482.617	293.74
483.053	359.27
483.488	312.46
483.924	270.33
484.36	298.42
484.795	293.74
485.23	298.42
485.666	279.69
486.101	277.35
486.536	286.72
486.971	326.5
487.407	356.93
487.842	225.86
488.277	333.53
488.712	263.31
489.146	291.4
489.581	340.55
490.016	303.1
490.451	342.89
490.885	317.14
491.32	359.27
491.755	284.38
492.189	378
492.624	244.59
493.058	310.12
493.492	298.42
493.927	335.87
494.361	293.74
494.795	293.74
495.229	368.63
495.663	324.16
496.097	310.12
496.531	331.19
496.965	298.42
497.399	242.25
497.833	300.76
498.266	340.55
498.7	312.46
499.134	342.89
499.567	338.21
500.001	289.06
500.434	279.69
500.868	275.01
501.301	230.54
501.734	307.78
502.168	272.67
502.601	338.21
503.034	298.42
503.467	333.53
503.9	282.03
504.333	317.14
504.766	335.87
505.199	314.8
505.632	338.21
506.064	340.55
506.497	310.12
506.93	305.44
507.362	272.67
507.795	307.78
508.227	307.78
508.66	326.5
509.092	253.95
509.524	298.42
509.956	291.4
510.389	244.59
510.821	319.48
511.253	331.19
511.685	366.29
512.117	335.87
512.549	303.1
512.981	279.69
513.412	368.63
513.844	359.27
514.276	300.76
514.707	317.14
515.139	305.44
515.571	289.06
516.002	307.78
516.433	326.5
516.865	235.22
517.296	361.61
517.727	300.76
518.159	277.35
518.59	296.08
519.021	293.74
519.452	277.35
519.883	312.46
520.314	258.63
520.744	328.85
521.175	321.82
521.606	286.72
522.037	303.1
522.467	296.08
522.898	298.42
523.328	368.63
523.759	342.89
524.189	251.61
524.62	286.72
525.05	324.16
525.48	284.38
525.91	244.59
526.341	286.72
526.771	282.03
527.201	342.89
527.631	326.5
528.061	312.46
528.49	244.59
528.92	321.82
529.35	267.99
529.78	324.16
530.209	354.59
530.639	284.38
531.068	331.19
531.498	319.48
531.927	239.9
532.357	310.12
532.786	340.55
533.215	321.82
533.644	312.46
534.074	314.8
534.503	284.38
534.932	345.23
535.361	307.78
535.79	331.19
536.218	291.4
536.647	326.5
537.076	300.76
537.505	319.48
537.933	345.23
538.362	260.97
538.79	305.44
539.219	279.69
539.647	307.78
540.076	277.35
540.504	305.44
540.932	305.44
541.36	361.61
541.788	328.85
542.217	347.57
542.645	314.8
543.073	272.67
543.5	277.35
543.928	340.55
544.356	279.69
544.784	263.31
545.211	284.38
545.639	314.8
546.067	265.65
546.494	310.12
546.922	265.65
547.349	312.46
547.776	258.63
548.204	270.33
548.631	303.1
549.058	265.65
549.485	312.46
549.912	291.4
550.339	291.4
550.766	340.55
551.193	326.5
551.62	242.25
552.047	256.29
552.474	331.19
552.9	317.14
553.327	305.44
553.754	305.44
554.18	298.42
554.607	265.65
555.033	319.48
555.459	310.12
555.886	235.22
556.312	370.97
556.738	312.46
557.164	223.52
557.59	279.69
558.016	321.82
558.442	258.63
558.868	326.5
559.294	385.02
559.72	263.31
560.145	359.27
560.571	324.16
560.997	258.63
561.422	312.46
561.848	317.14
562.273	331.19
562.699	352.25
563.124	249.27
563.549	293.74
563.974	352.25
564.4	242.25
564.825	305.44
565.25	319.48
565.675	335.87
566.1	300.76
566.525	277.35
566.95	244.59
567.374	312.46
567.799	291.4
568.224	321.82
568.648	385.02
569.073	232.88
569.497	298.42
569.922	335.87
570.346	298.42
570.771	331.19
571.195	263.31
571.619	277.35
572.043	258.63
572.467	310.12
572.891	265.65
573.315	303.1
573.739	282.03
574.163	314.8
574.587	317.14
575.011	265.65
575.435	260.97
575.858	335.87
576.282	333.53
576.705	291.4
577.129	270.33
577.552	300.76
577.976	394.38
578.399	305.44
578.822	279.69
579.245	314.8
579.669	293.74
580.092	232.88
580.515	267.99
580.938	328.85
581.361	258.63
581.784	340.55
582.206	342.89
582.629	258.63
583.052	209.48
583.474	324.16
583.897	279.69
584.32	263.31
584.742	310.12
585.165	275.01
585.587	286.72
586.009	305.44
586.431	293.74
586.854	223.52
587.276	275.01
587.698	282.03
588.12	380.34
588.542	335.87
588.964	314.8
589.386	349.91
589.807	303.1
590.229	328.85
590.651	253.95
591.073	258.63
591.494	317.14
591.916	284.38
592.337	331.19
592.759	284.38
593.18	263.31
593.601	319.48
594.022	317.14
594.444	317.14
594.865	289.06
595.286	335.87
595.707	284.38
596.128	263.31
596.549	333.53
596.97	366.29
597.39	347.57
597.811	392.04
598.232	260.97
598.652	333.53
599.073	307.78
599.494	270.33
599.914	282.03
600.334	296.08
600.755	333.53
601.175	282.03
601.595	230.54
602.015	326.5
602.436	291.4
602.856	422.47
603.276	326.5
603.696	342.89
604.115	342.89
604.535	312.46
604.955	298.42
605.375	296.08
605.794	347.57
606.214	338.21
606.634	312.46
607.053	328.85
607.473	305.44
607.892	317.14
608.311	293.74
608.731	359.27
609.15	289.06
609.569	338.21
609.988	282.03
610.407	312.46
610.826	256.29
611.245	272.67
611.664	293.74
612.083	335.87
612.501	303.1
612.92	354.59
613.339	232.88
613.757	317.14
614.176	291.4
614.594	321.82
615.013	300.76
615.431	211.82
615.85	286.72
616.268	284.38
616.686	298.42
617.104	279.69
617.522	319.48
617.94	314.8
618.358	303.1
618.776	403.74
619.194	319.48
619.612	298.42
620.03	300.76
620.447	284.38
620.865	303.1
621.282	317.14
621.7	244.59
622.117	223.52
622.535	349.91
622.952	317.14
623.369	277.35
623.787	326.5
624.204	333.53
624.621	289.06
625.038	267.99
625.455	300.76
625.872	338.21
626.289	272.67
626.706	375.66
627.123	272.67
627.539	335.87
627.956	293.74
628.373	326.5
628.789	279.69
629.206	303.1
629.622	300.76
630.038	307.78
630.455	361.61
630.871	319.48
631.287	260.97
631.703	279.69
632.12	305.44
632.536	300.76
632.952	373.32
633.368	291.4
633.783	282.03
634.199	300.76
634.615	317.14
635.031	314.8
635.446	317.14
635.862	321.82
636.277	275.01
636.693	324.16
637.108	328.85
637.524	361.61
637.939	284.38
638.354	331.19
638.77	370.97
639.185	331.19
639.6	370.97
640.015	265.65
640.43	284.38
640.845	300.76
641.259	298.42
641.674	286.72
642.089	387.36
642.504	335.87
642.918	237.56
643.333	267.99
643.747	296.08
644.162	317.14
644.576	296.08
644.991	289.06
645.405	324.16
645.819	216.5
646.233	347.57
646.647	305.44
647.061	324.16
647.475	338.21
647.889	275.01
648.303	303.1
648.717	277.35
649.131	324.16
649.545	293.74
649.958	251.61
650.372	382.68
650.785	333.53
651.199	282.03
651.612	275.01
652.026	258.63
652.439	277.35
652.852	244.59
653.266	260.97
653.679	378
654.092	338.21
654.505	263.31
654.918	289.06
655.331	333.53
655.744	331.19
656.156	279.69
656.569	312.46
656.982	305.44
657.394	239.9
657.807	232.88
658.22	286.72
658.632	256.29
659.044	328.85
659.457	310.12
659.869	305.44
660.281	314.8
660.693	270.33
661.106	331.19
661.518	317.14
661.93	225.86
662.342	338.21
662.754	239.9
663.165	331.19
663.577	380.34
663.989	279.69
664.401	279.69
664.812	282.03
665.224	275.01
665.635	352.25
666.047	314.8
666.458	338.21
666.869	326.5
667.281	368.63
667.692	324.16
668.103	324.16
668.514	279.69
668.925	286.72
669.336	251.61
669.747	305.44
670.158	324.16
670.569	282.03
670.979	296.08
671.39	310.12
671.801	263.31
672.211	356.93
672.622	298.42
673.032	310.12
673.443	345.23
673.853	317.14
674.263	373.32
674.674	310.12
675.084	260.97
675.494	356.93
675.904	253.95
676.314	277.35
676.724	345.23
677.134	300.76
677.544	289.06
677.953	246.93
678.363	375.66
678.773	431.83
679.182	265.65
679.592	342.89
680.001	303.1
680.411	279.69
680.82	331.19
681.23	326.5
681.639	324.16
682.048	349.91
682.457	286.72
682.866	321.82
683.275	370.97
683.684	239.9
684.093	237.56
684.502	305.44
684.911	265.65
685.32	338.21
685.728	352.25
686.137	303.1
686.546	300.76
686.954	317.14
687.363	293.74
687.771	286.72
688.179	340.55
688.588	307.78
688.996	347.57
689.404	214.16
689.812	286.72
690.22	298.42
690.628	319.48
691.036	284.38
691.444	319.48
691.852	258.63
692.26	314.8
692.667	312.46
693.075	284.38
693.483	265.65
693.89	296.08
694.298	263.31
694.705	378
695.112	303.1
695.52	265.65
695.927	328.85
696.334	312.46
696.741	363.95
697.148	326.5
697.555	251.61
697.962	289.06
698.369	289.06
698.776	310.12
699.183	380.34
699.59	324.16
699.996	333.53
700.403	267.99
700.81	307.78
701.216	333.53
701.623	282.03
702.029	286.72
702.435	305.44
702.842	314.8
703.248	291.4
703.654	246.93
704.06	370.97
704.466	338.21
704.872	300.76
705.278	378
705.684	326.5
706.09	305.44
706.496	354.59
706.901	359.27
707.307	331.19
707.712	361.61
708.118	310.12
708.523	253.95
708.929	270.33
709.334	275.01
709.74	235.22
710.145	331.19
710.55	298.42
710.955	272.67
711.36	303.1
711.765	298.42
712.17	289.06
712.575	267.99
712.98	780.57
713.385	256.29
713.789	328.85
714.194	324.16
714.599	324.16
715.003	317.14
715.408	279.69
715.812	307.78
716.217	399.06
716.621	291.4
717.025	347.57
717.429	300.76
717.833	319.48
718.238	310.12
718.642	293.74
719.046	270.33
719.449	345.23
719.853	265.65
720.257	396.72
720.661	293.74
721.065	239.9
721.468	296.08
721.872	298.42
722.275	298.42
722.679	345.23
723.082	277.35
723.485	342.89
723.889	342.89
724.292	310.12
724.695	263.31
725.098	347.57
725.501	305.44
725.904	296.08
726.307	335.87
726.71	312.46
727.113	256.29
727.516	319.48
727.918	277.35
728.321	296.08
728.724	331.19
729.126	289.06
729.529	373.32
729.931	352.25
730.333	305.44
730.736	270.33
731.138	338.21
731.54	282.03
731.942	225.86
732.344	272.67
732.746	347.57
733.148	382.68
733.55	317.14
733.952	335.87
734.354	307.78
734.756	279.69
735.157	305.44
735.559	296.08
735.96	305.44
736.362	296.08
736.763	296.08
737.165	361.61
737.566	253.95
737.967	225.86
738.368	300.76
738.77	380.34
739.171	347.57
739.572	237.56
739.973	307.78
740.374	307.78
740.774	305.44
741.175	303.1
741.576	284.38
741.977	333.53
742.377	258.63
742.778	249.27
743.178	284.38
743.579	275.01
743.979	356.93
744.379	291.4
744.78	338.21
745.18	331.19
745.58	312.46
745.98	284.38
746.38	298.42
746.78	279.69
747.18	335.87
747.58	242.25
747.98	265.65
748.38	319.48
748.779	282.03
749.179	296.08
749.578	286.72
749.978	279.69
750.377	307.78
750.777	321.82
751.176	305.44
751.575	267.99
751.975	277.35
752.374	277.35
752.773	326.5
753.172	310.12
753.571	291.4
753.97	338.21
754.369	328.85
754.768	282.03
755.166	251.61
755.565	335.87
755.964	335.87
756.362	293.74
756.761	335.87
757.159	296.08
757.558	314.8
757.956	314.8
758.354	354.59
758.753	305.44
759.151	319.48
759.549	267.99
759.947	356.93
760.345	328.85
760.743	277.35
761.141	312.46
761.539	319.48
761.936	326.5
762.334	307.78
762.732	286.72
763.129	359.27
763.527	312.46
763.924	267.99
764.322	296.08
764.719	314.8
765.117	298.42
765.514	312.46
