Data from Al_FLMS009871__997__16-22-00-518.txt Node

Date: Fri Mar 08 16:22:00 CST 2024
User: pe5414po
Spectrometer: FLMS00987
Trigger mode: 0
Integration Time (sec): 1.000000E-1
Scans to average: 1
Electric dark correction enabled: true
Nonlinearity correction enabled: false
Boxcar width: 0
XAxis mode: Wavelengths
Number of Pixels in Spectrum: 2048
>>>>>Begin Spectral Data<<<<<
188.938	-3.36
189.409	-3.36
189.879	-3.36
190.349	-164.86
190.819	-96.99
191.29	-80.6
191.76	-71.24
192.23	-96.99
192.7	-89.96
193.17	-66.56
193.64	-57.2
194.109	-1.02
194.579	-94.65
195.049	-19.75
195.519	-22.09
195.988	85.58
196.458	57.49
196.927	123.02
197.397	141.75
197.866	120.68
198.336	71.53
198.805	160.47
199.274	146.43
199.744	188.56
200.213	216.65
200.682	270.48
201.151	226.01
201.62	247.07
202.089	235.37
202.558	235.37
203.027	235.37
203.495	277.5
203.964	284.52
204.433	352.4
204.902	291.54
205.37	319.63
205.839	228.35
206.307	261.12
206.776	336.01
207.244	352.4
207.712	282.18
208.181	298.56
208.649	314.95
209.117	300.91
209.585	368.78
210.053	314.95
210.521	328.99
210.989	359.42
211.457	300.91
211.925	284.52
212.393	270.48
212.861	282.18
213.328	331.33
213.796	352.4
214.264	312.61
214.731	268.14
215.199	296.22
215.666	284.52
216.133	251.75
216.601	298.56
217.068	270.48
217.535	242.39
218.003	242.39
218.47	319.63
218.937	291.54
219.404	254.09
219.871	221.33
220.338	291.54
220.805	235.37
221.271	244.73
221.738	240.05
222.205	247.07
222.671	258.78
223.138	310.27
223.605	300.91
224.071	321.97
224.538	247.07
225.004	270.48
225.47	235.37
225.937	263.46
226.403	265.8
226.869	321.97
227.335	286.86
227.801	300.91
228.267	272.82
228.733	251.75
229.199	373.46
229.665	289.2
230.131	286.86
230.597	263.46
231.062	300.91
231.528	324.31
231.994	230.69
232.459	293.88
232.925	314.95
233.39	221.33
233.856	312.61
234.321	289.2
234.786	284.52
235.252	336.01
235.717	321.97
236.182	256.43
236.647	230.69
237.112	321.97
237.577	333.67
238.042	293.88
238.507	284.52
238.972	265.8
239.436	270.48
239.901	336.01
240.366	312.61
240.83	242.39
241.295	261.12
241.76	300.91
242.224	314.95
242.688	284.52
243.153	300.91
243.617	310.27
244.081	263.46
244.545	284.52
245.01	307.93
245.474	296.22
245.938	305.59
246.402	310.27
246.866	218.99
247.33	310.27
247.793	298.56
248.257	214.31
248.721	282.18
249.185	289.2
249.648	277.5
250.112	286.86
250.575	235.37
251.039	319.63
251.502	282.18
251.965	331.33
252.429	293.88
252.892	277.5
253.355	282.18
253.818	230.69
254.281	331.33
254.744	237.71
255.207	364.1
255.67	258.78
256.133	317.29
256.596	261.12
257.059	317.29
257.522	268.14
257.984	279.84
258.447	333.67
258.909	310.27
259.372	300.91
259.834	378.14
260.297	324.31
260.759	382.82
261.221	305.59
261.684	361.76
262.146	378.14
262.608	312.61
263.07	286.86
263.532	256.43
263.994	261.12
264.456	373.46
264.918	387.5
265.38	256.43
265.842	279.84
266.303	258.78
266.765	291.54
267.227	293.88
267.688	293.88
268.15	263.46
268.611	256.43
269.072	305.59
269.534	251.75
269.995	279.84
270.456	314.95
270.918	289.2
271.379	307.93
271.84	347.72
272.301	286.86
272.762	317.29
273.223	263.46
273.684	403.89
274.144	268.14
274.605	350.06
275.066	319.63
275.527	277.5
275.987	300.91
276.448	326.65
276.908	415.59
277.369	296.22
277.829	354.74
278.289	235.37
278.75	300.91
279.21	298.56
279.67	270.48
280.13	352.4
280.59	310.27
281.05	300.91
281.51	366.44
281.97	361.76
282.43	275.16
282.89	347.72
283.35	244.73
283.809	230.69
284.269	350.06
284.729	312.61
285.188	282.18
285.648	338.35
286.107	218.99
286.567	270.48
287.026	242.39
287.485	286.86
287.944	310.27
288.404	368.78
288.863	324.31
289.322	338.35
289.781	345.38
290.24	286.86
290.699	298.56
291.158	373.46
291.616	324.31
292.075	324.31
292.534	312.61
292.992	338.35
293.451	371.12
293.91	242.39
294.368	247.07
294.827	293.88
295.285	240.05
295.743	284.52
296.202	357.08
296.66	345.38
297.118	298.56
297.576	289.2
298.034	261.12
298.492	314.95
298.95	357.08
299.408	300.91
299.866	296.22
300.324	328.99
300.781	336.01
301.239	366.44
301.697	282.18
302.154	312.61
302.612	380.48
303.069	352.4
303.527	272.82
303.984	286.86
304.441	331.33
304.899	336.01
305.356	321.97
305.813	254.09
306.27	387.5
306.727	293.88
307.184	314.95
307.641	289.2
308.098	282.18
308.555	312.61
309.012	326.65
309.468	298.56
309.925	357.08
310.382	291.54
310.838	307.93
311.295	277.5
311.751	263.46
312.208	296.22
312.664	296.22
313.12	343.03
313.577	331.33
314.033	338.35
314.489	261.12
314.945	373.46
315.401	298.56
315.857	387.5
316.313	258.78
316.769	338.35
317.225	324.31
317.681	305.59
318.136	331.33
318.592	298.56
319.048	357.08
319.503	279.84
319.959	293.88
320.414	289.2
320.869	254.09
321.325	352.4
321.78	338.35
322.235	359.42
322.691	338.35
323.146	286.86
323.601	289.2
324.056	324.31
324.511	265.8
324.966	277.5
325.421	307.93
325.875	361.76
326.33	321.97
326.785	279.84
327.24	298.56
327.694	282.18
328.149	321.97
328.603	331.33
329.058	314.95
329.512	343.03
329.966	333.67
330.421	354.74
330.875	261.12
331.329	317.29
331.783	317.29
332.237	275.16
332.691	277.5
333.145	268.14
333.599	230.69
334.053	268.14
334.507	289.2
334.96	312.61
335.414	312.61
335.868	298.56
336.321	307.93
336.775	357.08
337.228	293.88
337.682	303.25
338.135	305.59
338.588	286.86
339.042	314.95
339.495	317.29
339.948	289.2
340.401	303.25
340.854	321.97
341.307	321.97
341.76	328.99
342.213	333.67
342.666	321.97
343.119	303.25
343.571	317.29
344.024	319.63
344.477	312.61
344.929	326.65
345.382	289.2
345.834	347.72
346.287	296.22
346.739	331.33
347.191	333.67
347.644	249.41
348.096	305.59
348.548	326.65
349	307.93
349.452	378.14
349.904	340.69
350.356	326.65
350.808	352.4
351.26	389.85
351.711	321.97
352.163	261.12
352.615	310.27
353.066	350.06
353.518	275.16
353.969	350.06
354.421	310.27
354.872	347.72
355.324	373.46
355.775	359.42
356.226	209.62
356.677	324.31
357.128	324.31
357.579	319.63
358.03	233.03
358.481	368.78
358.932	368.78
359.383	261.12
359.834	380.48
360.285	357.08
360.735	373.46
361.186	298.56
361.637	314.95
362.087	284.52
362.538	286.86
362.988	300.91
363.438	296.22
363.889	312.61
364.339	265.8
364.789	378.14
365.239	371.12
365.689	321.97
366.139	378.14
366.589	275.16
367.039	261.12
367.489	321.97
367.939	340.69
368.389	326.65
368.839	275.16
369.288	300.91
369.738	289.2
370.187	321.97
370.637	291.54
371.086	312.61
371.536	305.59
371.985	305.59
372.434	303.25
372.884	352.4
373.333	354.74
373.782	336.01
374.231	321.97
374.68	307.93
375.129	354.74
375.578	366.44
376.027	319.63
376.475	326.65
376.924	324.31
377.373	319.63
377.822	300.91
378.27	300.91
378.719	347.72
379.167	303.25
379.616	291.54
380.064	300.91
380.512	357.08
380.961	324.31
381.409	279.84
381.857	305.59
382.305	300.91
382.753	300.91
383.201	331.33
383.649	352.4
384.097	317.29
384.545	282.18
384.992	338.35
385.44	331.33
385.888	364.1
386.335	291.54
386.783	324.31
387.231	291.54
387.678	364.1
388.125	399.21
388.573	254.09
389.02	331.33
389.467	282.18
389.914	347.72
390.362	303.25
390.809	352.4
391.256	354.74
391.703	352.4
392.15	361.76
392.596	298.56
393.043	317.29
393.49	296.22
393.937	326.65
394.383	275.16
394.83	314.95
395.276	305.59
395.723	354.74
396.169	291.54
396.616	289.2
397.062	317.29
397.508	298.56
397.954	310.27
398.401	338.35
398.847	324.31
399.293	305.59
399.739	310.27
400.185	291.54
400.631	324.31
401.076	298.56
401.522	354.74
401.968	291.54
402.414	328.99
402.859	312.61
403.305	338.35
403.75	319.63
404.196	343.03
404.641	319.63
405.086	387.5
405.532	408.57
405.977	296.22
406.422	350.06
406.867	338.35
407.312	317.29
407.757	317.29
408.202	270.48
408.647	275.16
409.092	249.41
409.537	347.72
409.982	333.67
410.426	291.54
410.871	345.38
411.316	270.48
411.76	277.5
412.205	279.84
412.649	333.67
413.093	300.91
413.538	357.08
413.982	345.38
414.426	300.91
414.87	340.69
415.314	319.63
415.758	296.22
416.202	357.08
416.646	286.86
417.09	350.06
417.534	296.22
417.978	317.29
418.421	324.31
418.865	321.97
419.309	326.65
419.752	317.29
420.196	333.67
420.639	345.38
421.083	340.69
421.526	343.03
421.969	328.99
422.412	331.33
422.856	277.5
423.299	317.29
423.742	303.25
424.185	328.99
424.628	265.8
425.071	326.65
425.513	277.5
425.956	303.25
426.399	371.12
426.842	298.56
427.284	305.59
427.727	284.52
428.169	326.65
428.612	336.01
429.054	328.99
429.497	350.06
429.939	373.46
430.381	235.37
430.823	286.86
431.265	338.35
431.707	392.19
432.149	338.35
432.591	319.63
433.033	345.38
433.475	310.27
433.917	314.95
434.359	343.03
434.8	333.67
435.242	333.67
435.684	310.27
436.125	350.06
436.567	303.25
437.008	326.65
437.449	270.48
437.891	310.27
438.332	303.25
438.773	247.07
439.214	333.67
439.656	310.27
440.097	347.72
440.538	298.56
440.978	298.56
441.419	345.38
441.86	296.22
442.301	338.35
442.742	328.99
443.182	338.35
443.623	324.31
444.063	293.88
444.504	333.67
444.944	282.18
445.385	268.14
445.825	270.48
446.265	261.12
446.706	270.48
447.146	314.95
447.586	331.33
448.026	343.03
448.466	343.03
448.906	324.31
449.346	284.52
449.786	284.52
450.225	284.52
450.665	354.74
451.105	317.29
451.544	265.8
451.984	298.56
452.424	326.65
452.863	296.22
453.302	324.31
453.742	378.14
454.181	314.95
454.62	343.03
455.059	326.65
455.499	321.97
455.938	298.56
456.377	312.61
456.816	368.78
457.254	361.76
457.693	340.69
458.132	319.63
458.571	298.56
459.01	326.65
459.448	364.1
459.887	364.1
460.325	305.59
460.764	333.67
461.202	328.99
461.641	282.18
462.079	347.72
462.517	392.19
462.955	350.06
463.393	361.76
463.832	319.63
464.27	300.91
464.708	305.59
465.145	298.56
465.583	331.33
466.021	371.12
466.459	328.99
466.897	331.33
467.334	385.16
467.772	312.61
468.209	331.33
468.647	305.59
469.084	345.38
469.522	310.27
469.959	303.25
470.396	321.97
470.833	345.38
471.271	333.67
471.708	296.22
472.145	298.56
472.582	378.14
473.019	268.14
473.456	298.56
473.892	321.97
474.329	338.35
474.766	336.01
475.202	312.61
475.639	375.8
476.076	317.29
476.512	366.44
476.949	305.59
477.385	340.69
477.821	328.99
478.258	324.31
478.694	324.31
479.13	321.97
479.566	317.29
480.002	324.31
480.438	317.29
480.874	317.29
481.31	345.38
481.746	319.63
482.181	326.65
482.617	291.54
483.053	347.72
483.488	338.35
483.924	333.67
484.36	310.27
484.795	319.63
485.23	347.72
485.666	272.82
486.101	321.97
486.536	343.03
486.971	324.31
487.407	328.99
487.842	300.91
488.277	279.84
488.712	340.69
489.146	340.69
489.581	366.44
490.016	296.22
490.451	291.54
490.885	256.43
491.32	307.93
491.755	272.82
492.189	382.82
492.624	310.27
493.058	364.1
493.492	286.86
493.927	263.46
494.361	366.44
494.795	399.21
495.229	310.27
495.663	321.97
496.097	343.03
496.531	343.03
496.965	312.61
497.399	314.95
497.833	321.97
498.266	331.33
498.7	303.25
499.134	345.38
499.567	326.65
500.001	321.97
500.434	312.61
500.868	415.59
501.301	338.35
501.734	352.4
502.168	307.93
502.601	307.93
503.034	256.43
503.467	366.44
503.9	298.56
504.333	310.27
504.766	263.46
505.199	350.06
505.632	394.53
506.064	361.76
506.497	366.44
506.93	357.08
507.362	307.93
507.795	328.99
508.227	336.01
508.66	305.59
509.092	380.48
509.524	300.91
509.956	314.95
510.389	324.31
510.821	303.25
511.253	317.29
511.685	333.67
512.117	326.65
512.549	336.01
512.981	354.74
513.412	328.99
513.844	368.78
514.276	338.35
514.707	371.12
515.139	319.63
515.571	399.21
516.002	293.88
516.433	291.54
516.865	312.61
517.296	282.18
517.727	326.65
518.159	359.42
518.59	324.31
519.021	317.29
519.452	263.46
519.883	282.18
520.314	284.52
520.744	321.97
521.175	347.72
521.606	333.67
522.037	357.08
522.467	331.33
522.898	364.1
523.328	268.14
523.759	345.38
524.189	361.76
524.62	350.06
525.05	296.22
525.48	307.93
525.91	319.63
526.341	307.93
526.771	265.8
527.201	307.93
527.631	310.27
528.061	314.95
528.49	347.72
528.92	303.25
529.35	343.03
529.78	268.14
530.209	228.35
530.639	282.18
531.068	345.38
531.498	350.06
531.927	265.8
532.357	303.25
532.786	333.67
533.215	305.59
533.644	293.88
534.074	354.74
534.503	368.78
534.932	312.61
535.361	424.95
535.79	359.42
536.218	314.95
536.647	354.74
537.076	270.48
537.505	270.48
537.933	382.82
538.362	275.16
538.79	338.35
539.219	314.95
539.647	347.72
540.076	324.31
540.504	331.33
540.932	347.72
541.36	331.33
541.788	333.67
542.217	364.1
542.645	251.75
543.073	357.08
543.5	256.43
543.928	336.01
544.356	338.35
544.784	305.59
545.211	375.8
545.639	345.38
546.067	361.76
546.494	343.03
546.922	321.97
547.349	291.54
547.776	361.76
548.204	354.74
548.631	293.88
549.058	331.33
549.485	324.31
549.912	364.1
550.339	282.18
550.766	298.56
551.193	289.2
551.62	354.74
552.047	343.03
552.474	277.5
552.9	352.4
553.327	338.35
553.754	319.63
554.18	289.2
554.607	298.56
555.033	326.65
555.459	347.72
555.886	361.76
556.312	352.4
556.738	240.05
557.164	300.91
557.59	343.03
558.016	350.06
558.442	233.03
558.868	265.8
559.294	277.5
559.72	303.25
560.145	350.06
560.571	347.72
560.997	336.01
561.422	321.97
561.848	312.61
562.273	340.69
562.699	324.31
563.124	343.03
563.549	331.33
563.974	336.01
564.4	354.74
564.825	317.29
565.25	378.14
565.675	303.25
566.1	380.48
566.525	361.76
566.95	310.27
567.374	289.2
567.799	326.65
568.224	326.65
568.648	326.65
569.073	277.5
569.497	291.54
569.922	324.31
570.346	286.86
570.771	291.54
571.195	340.69
571.619	305.59
572.043	261.12
572.467	345.38
572.891	338.35
573.315	387.5
573.739	312.61
574.163	277.5
574.587	333.67
575.011	258.78
575.435	312.61
575.858	270.48
576.282	284.52
576.705	284.52
577.129	321.97
577.552	317.29
577.976	347.72
578.399	284.52
578.822	289.2
579.245	350.06
579.669	272.82
580.092	319.63
580.515	373.46
580.938	263.46
581.361	401.55
581.784	333.67
582.206	389.85
582.629	296.22
583.052	314.95
583.474	305.59
583.897	298.56
584.32	289.2
584.742	289.2
585.165	331.33
585.587	279.84
586.009	338.35
586.431	277.5
586.854	305.59
587.276	321.97
587.698	291.54
588.12	366.44
588.542	340.69
588.964	331.33
589.386	336.01
589.807	333.67
590.229	347.72
590.651	354.74
591.073	265.8
591.494	371.12
591.916	293.88
592.337	338.35
592.759	254.09
593.18	256.43
593.601	284.52
594.022	321.97
594.444	277.5
594.865	300.91
595.286	336.01
595.707	317.29
596.128	368.78
596.549	350.06
596.97	324.31
597.39	324.31
597.811	291.54
598.232	331.33
598.652	307.93
599.073	336.01
599.494	321.97
599.914	422.61
600.334	298.56
600.755	314.95
601.175	314.95
601.595	340.69
602.015	333.67
602.436	300.91
602.856	527.94
603.276	396.87
603.696	307.93
604.115	368.78
604.535	305.59
604.955	275.16
605.375	340.69
605.794	305.59
606.214	284.52
606.634	336.01
607.053	340.69
607.473	401.55
607.892	284.52
608.311	289.2
608.731	357.08
609.15	345.38
609.569	366.44
609.988	317.29
610.407	277.5
610.826	286.86
611.245	319.63
611.664	333.67
612.083	282.18
612.501	326.65
612.92	326.65
613.339	366.44
613.757	364.1
614.176	343.03
614.594	347.72
615.013	357.08
615.431	282.18
615.85	314.95
616.268	279.84
616.686	314.95
617.104	343.03
617.522	333.67
617.94	289.2
618.358	324.31
618.776	289.2
619.194	261.12
619.612	265.8
620.03	324.31
620.447	326.65
620.865	366.44
621.282	333.67
621.7	392.19
622.117	321.97
622.535	375.8
622.952	328.99
623.369	340.69
623.787	319.63
624.204	326.65
624.621	389.85
625.038	286.86
625.455	307.93
625.872	324.31
626.289	272.82
626.706	340.69
627.123	368.78
627.539	291.54
627.956	293.88
628.373	310.27
628.789	261.12
629.206	359.42
629.622	347.72
630.038	275.16
630.455	357.08
630.871	328.99
631.287	321.97
631.703	258.78
632.12	326.65
632.536	310.27
632.952	282.18
633.368	336.01
633.783	354.74
634.199	361.76
634.615	282.18
635.031	357.08
635.446	258.78
635.862	314.95
636.277	289.2
636.693	319.63
637.108	291.54
637.524	321.97
637.939	279.84
638.354	291.54
638.77	338.35
639.185	408.57
639.6	303.25
640.015	291.54
640.43	328.99
640.845	314.95
641.259	270.48
641.674	284.52
642.089	249.41
642.504	328.99
642.918	298.56
643.333	343.03
643.747	364.1
644.162	298.56
644.576	328.99
644.991	296.22
645.405	317.29
645.819	277.5
646.233	314.95
646.647	380.48
647.061	336.01
647.475	347.72
647.889	331.33
648.303	303.25
648.717	312.61
649.131	366.44
649.545	380.48
649.958	317.29
650.372	326.65
650.785	331.33
651.199	366.44
651.612	354.74
652.026	305.59
652.439	385.16
652.852	279.84
653.266	282.18
653.679	314.95
654.092	331.33
654.505	319.63
654.918	333.67
655.331	310.27
655.744	321.97
656.156	321.97
656.569	268.14
656.982	326.65
657.394	277.5
657.807	303.25
658.22	396.87
658.632	326.65
659.044	305.59
659.457	289.2
659.869	364.1
660.281	382.82
660.693	300.91
661.106	382.82
661.518	347.72
661.93	300.91
662.342	333.67
662.754	314.95
663.165	314.95
663.577	291.54
663.989	338.35
664.401	265.8
664.812	312.61
665.224	336.01
665.635	305.59
666.047	305.59
666.458	345.38
666.869	317.29
667.281	380.48
667.692	340.69
668.103	317.29
668.514	380.48
668.925	338.35
669.336	359.42
669.747	401.55
670.158	366.44
670.569	317.29
670.979	366.44
671.39	303.25
671.801	305.59
672.211	305.59
672.622	258.78
673.032	324.31
673.443	307.93
673.853	331.33
674.263	364.1
674.674	345.38
675.084	336.01
675.494	422.61
675.904	359.42
676.314	272.82
676.724	296.22
677.134	338.35
677.544	272.82
677.953	321.97
678.363	324.31
678.773	312.61
679.182	366.44
679.592	343.03
680.001	279.84
680.411	247.07
680.82	331.33
681.23	305.59
681.639	307.93
682.048	310.27
682.457	284.52
682.866	317.29
683.275	321.97
683.684	347.72
684.093	314.95
684.502	279.84
684.911	324.31
685.32	317.29
685.728	380.48
686.137	368.78
686.546	338.35
686.954	261.12
687.363	333.67
687.771	321.97
688.179	359.42
688.588	338.35
688.996	333.67
689.404	303.25
689.812	382.82
690.22	378.14
690.628	343.03
691.036	321.97
691.444	336.01
691.852	357.08
692.26	350.06
692.667	359.42
693.075	293.88
693.483	343.03
693.89	314.95
694.298	265.8
694.705	256.43
695.112	307.93
695.52	336.01
695.927	293.88
696.334	382.82
696.741	378.14
697.148	324.31
697.555	324.31
697.962	364.1
698.369	254.09
698.776	289.2
699.183	345.38
699.59	382.82
699.996	268.14
700.403	305.59
700.81	324.31
701.216	328.99
701.623	352.4
702.029	331.33
702.435	317.29
702.842	317.29
703.248	357.08
703.654	326.65
704.06	312.61
704.466	380.48
704.872	319.63
705.278	235.37
705.684	361.76
706.09	317.29
706.496	321.97
706.901	324.31
707.307	305.59
707.712	396.87
708.118	347.72
708.523	345.38
708.929	312.61
709.334	368.78
709.74	293.88
710.145	286.86
710.55	319.63
710.955	289.2
711.36	345.38
711.765	378.14
712.17	275.16
712.575	310.27
712.98	783.06
713.385	296.22
713.789	289.2
714.194	340.69
714.599	328.99
715.003	354.74
715.408	340.69
715.812	347.72
716.217	265.8
716.621	357.08
717.025	314.95
717.429	340.69
717.833	300.91
718.238	368.78
718.642	343.03
719.046	317.29
719.449	303.25
719.853	286.86
720.257	275.16
720.661	293.88
721.065	324.31
721.468	251.75
721.872	270.48
722.275	214.31
722.679	317.29
723.082	364.1
723.485	343.03
723.889	319.63
724.292	338.35
724.695	272.82
725.098	324.31
725.501	331.33
725.904	305.59
726.307	347.72
726.71	319.63
727.113	279.84
727.516	354.74
727.918	326.65
728.321	310.27
728.724	282.18
729.126	296.22
729.529	319.63
729.931	338.35
730.333	389.85
730.736	277.5
731.138	284.52
731.54	347.72
731.942	254.09
732.344	247.07
732.746	289.2
733.148	364.1
733.55	343.03
733.952	352.4
734.354	303.25
734.756	324.31
735.157	417.93
735.559	340.69
735.96	303.25
736.362	345.38
736.763	364.1
737.165	307.93
737.566	279.84
737.967	331.33
738.368	310.27
738.77	291.54
739.171	291.54
739.572	305.59
739.973	321.97
740.374	333.67
740.774	380.48
741.175	347.72
741.576	326.65
741.977	317.29
742.377	336.01
742.778	321.97
743.178	305.59
743.579	272.82
743.979	338.35
744.379	282.18
744.78	354.74
745.18	321.97
745.58	333.67
745.98	352.4
746.38	347.72
746.78	324.31
747.18	345.38
747.58	373.46
747.98	312.61
748.38	277.5
748.779	350.06
749.179	296.22
749.578	385.16
749.978	293.88
750.377	359.42
750.777	368.78
751.176	326.65
751.575	343.03
751.975	312.61
752.374	326.65
752.773	284.52
753.172	324.31
753.571	298.56
753.97	331.33
754.369	343.03
754.768	312.61
755.166	275.16
755.565	282.18
755.964	312.61
756.362	345.38
756.761	364.1
757.159	340.69
757.558	277.5
757.956	270.48
758.354	324.31
758.753	328.99
759.151	270.48
759.549	303.25
759.947	408.57
760.345	279.84
760.743	282.18
761.141	291.54
761.539	373.46
761.936	354.74
762.334	357.08
762.732	291.54
763.129	291.54
763.527	333.67
763.924	319.63
764.322	314.95
