Data from Al_FLMS009871__89__11-47-42-896.txt Node

Date: Fri Mar 08 11:47:42 CST 2024
User: pe5414po
Spectrometer: FLMS00987
Trigger mode: 0
Integration Time (sec): 1.000000E-1
Scans to average: 1
Electric dark correction enabled: true
Nonlinearity correction enabled: false
Boxcar width: 0
XAxis mode: Wavelengths
Number of Pixels in Spectrum: 2048
>>>>>Begin Spectral Data<<<<<
188.938	-41.11
189.409	-41.11
189.879	-41.11
190.349	-20.04
190.819	-76.21
191.29	-155.79
191.76	-125.36
192.23	-83.24
192.7	-57.49
193.17	8.05
193.64	-45.79
194.109	-6
194.579	-50.47
195.049	-62.17
195.519	22.09
195.988	66.56
196.458	52.52
196.927	111.03
197.397	108.69
197.866	122.73
198.336	94.65
198.805	162.52
199.274	171.88
199.744	134.43
200.213	225.72
200.682	249.12
201.151	300.61
201.62	221.03
202.089	267.85
202.558	263.16
203.027	256.14
203.495	249.12
203.964	223.37
204.433	237.42
204.902	314.66
205.37	286.57
205.839	307.63
206.307	293.59
206.776	291.25
207.244	293.59
207.712	293.59
208.181	331.04
208.649	319.34
209.117	300.61
209.585	333.38
210.053	342.74
210.521	361.47
210.989	235.08
211.457	305.29
211.925	274.87
212.393	270.19
212.861	317
213.328	244.44
213.796	279.55
214.264	216.35
214.731	317
215.199	279.55
215.666	295.93
216.133	284.23
216.601	281.89
217.068	331.04
217.535	218.69
218.003	251.46
218.47	230.4
218.937	305.29
219.404	286.57
219.871	235.08
220.338	274.87
220.805	237.42
221.271	228.06
221.738	251.46
222.205	206.99
222.671	281.89
223.138	277.21
223.605	333.38
224.071	242.1
224.538	253.8
225.004	272.53
225.47	251.46
225.937	265.5
226.403	209.33
226.869	244.44
227.335	300.61
227.801	354.44
228.267	253.8
228.733	263.16
229.199	309.97
229.665	230.4
230.131	284.23
230.597	328.7
231.062	244.44
231.528	249.12
231.994	246.78
232.459	333.38
232.925	239.76
233.39	267.85
233.856	246.78
234.321	263.16
234.786	349.76
235.252	302.95
235.717	242.1
236.182	324.02
236.647	305.29
237.112	319.34
237.577	277.21
238.042	302.95
238.507	279.55
238.972	270.19
239.436	235.08
239.901	302.95
240.366	249.12
240.83	251.46
241.295	274.87
241.76	253.8
242.224	221.03
242.688	265.5
243.153	335.72
243.617	253.8
244.081	319.34
244.545	246.78
245.01	263.16
245.474	279.55
245.938	347.42
246.402	263.16
246.866	244.44
247.33	263.16
247.793	270.19
248.257	291.25
248.721	328.7
249.185	239.76
249.648	267.85
250.112	321.68
250.575	230.4
251.039	281.89
251.502	279.55
251.965	265.5
252.429	267.85
252.892	260.82
253.355	319.34
253.818	302.95
254.281	230.4
254.744	321.68
255.207	279.55
255.67	244.44
256.133	202.31
256.596	279.55
257.059	309.97
257.522	326.36
257.984	253.8
258.447	307.63
258.909	270.19
259.372	352.1
259.834	256.14
260.297	277.21
260.759	307.63
261.221	340.4
261.684	256.14
262.146	244.44
262.608	293.59
263.07	391.89
263.532	267.85
263.994	272.53
264.456	333.38
264.918	305.29
265.38	349.76
265.842	340.4
266.303	375.51
266.765	251.46
267.227	317
267.688	324.02
268.15	309.97
268.611	281.89
269.072	251.46
269.534	321.68
269.995	302.95
270.456	258.48
270.918	267.85
271.379	298.27
271.84	300.61
272.301	338.06
272.762	298.27
273.223	321.68
273.684	284.23
274.144	286.57
274.605	295.93
275.066	335.72
275.527	249.12
275.987	291.25
276.448	331.04
276.908	302.95
277.369	321.68
277.829	302.95
278.289	319.34
278.75	272.53
279.21	305.29
279.67	230.4
280.13	314.66
280.59	314.66
281.05	281.89
281.51	349.76
281.97	331.04
282.43	293.59
282.89	214.01
283.35	267.85
283.809	286.57
284.269	295.93
284.729	263.16
285.188	274.87
285.648	298.27
286.107	359.13
286.567	246.78
287.026	291.25
287.485	314.66
287.944	270.19
288.404	342.74
288.863	333.38
289.322	263.16
289.781	302.95
290.24	284.23
290.699	382.53
291.158	321.68
291.616	291.25
292.075	319.34
292.534	258.48
292.992	302.95
293.451	338.06
293.91	328.7
294.368	370.83
294.827	349.76
295.285	356.79
295.743	305.29
296.202	314.66
296.66	317
297.118	319.34
297.576	366.15
298.034	284.23
298.492	302.95
298.95	326.36
299.408	347.42
299.866	291.25
300.324	338.06
300.781	244.44
301.239	345.08
301.697	286.57
302.154	300.61
302.612	309.97
303.069	361.47
303.527	288.91
303.984	246.78
304.441	328.7
304.899	342.74
305.356	288.91
305.813	326.36
306.27	319.34
306.727	300.61
307.184	312.32
307.641	274.87
308.098	246.78
308.555	370.83
309.012	319.34
309.468	249.12
309.925	314.66
310.382	366.15
310.838	317
311.295	356.79
311.751	321.68
312.208	242.1
312.664	291.25
313.12	298.27
313.577	272.53
314.033	314.66
314.489	331.04
314.945	314.66
315.401	237.42
315.857	281.89
316.313	321.68
316.769	291.25
317.225	340.4
317.681	277.21
318.136	286.57
318.592	225.72
319.048	277.21
319.503	319.34
319.959	270.19
320.414	270.19
320.869	324.02
321.325	349.76
321.78	333.38
322.235	317
322.691	270.19
323.146	312.32
323.601	356.79
324.056	331.04
324.511	349.76
324.966	321.68
325.421	319.34
325.875	314.66
326.33	356.79
326.785	352.1
327.24	324.02
327.694	300.61
328.149	302.95
328.603	295.93
329.058	335.72
329.512	331.04
329.966	328.7
330.421	305.29
330.875	302.95
331.329	302.95
331.783	314.66
332.237	286.57
332.691	321.68
333.145	319.34
333.599	375.51
334.053	331.04
334.507	373.17
334.96	295.93
335.414	398.92
335.868	309.97
336.321	314.66
336.775	312.32
337.228	326.36
337.682	260.82
338.135	253.8
338.588	317
339.042	347.42
339.495	373.17
339.948	312.32
340.401	305.29
340.854	307.63
341.307	314.66
341.76	288.91
342.213	338.06
342.666	288.91
343.119	256.14
343.571	312.32
344.024	326.36
344.477	356.79
344.929	340.4
345.382	375.51
345.834	319.34
346.287	317
346.739	319.34
347.191	356.79
347.644	370.83
348.096	286.57
348.548	373.17
349	319.34
349.452	347.42
349.904	312.32
350.356	321.68
350.808	288.91
351.26	347.42
351.711	277.21
352.163	309.97
352.615	295.93
353.066	368.49
353.518	277.21
353.969	326.36
354.421	370.83
354.872	288.91
355.324	263.16
355.775	270.19
356.226	340.4
356.677	354.44
357.128	326.36
357.579	342.74
358.03	302.95
358.481	347.42
358.932	256.14
359.383	293.59
359.834	256.14
360.285	277.21
360.735	291.25
361.186	314.66
361.637	328.7
362.087	328.7
362.538	340.4
362.988	309.97
363.438	349.76
363.889	286.57
364.339	291.25
364.789	342.74
365.239	356.79
365.689	380.19
366.139	274.87
366.589	281.89
367.039	260.82
367.489	356.79
367.939	368.49
368.389	328.7
368.839	338.06
369.288	335.72
369.738	361.47
370.187	291.25
370.637	361.47
371.086	309.97
371.536	274.87
371.985	317
372.434	300.61
372.884	373.17
373.333	295.93
373.782	347.42
374.231	288.91
374.68	272.53
375.129	265.5
375.578	340.4
376.027	338.06
376.475	335.72
376.924	370.83
377.373	295.93
377.822	305.29
378.27	281.89
378.719	345.08
379.167	256.14
379.616	312.32
380.064	335.72
380.512	314.66
380.961	302.95
381.409	352.1
381.857	333.38
382.305	232.74
382.753	359.13
383.201	324.02
383.649	345.08
384.097	363.81
384.545	321.68
384.992	305.29
385.44	321.68
385.888	345.08
386.335	321.68
386.783	338.06
387.231	312.32
387.678	352.1
388.125	293.59
388.573	370.83
389.02	272.53
389.467	295.93
389.914	270.19
390.362	300.61
390.809	260.82
391.256	305.29
391.703	307.63
392.15	312.32
392.596	347.42
393.043	345.08
393.49	317
393.937	293.59
394.383	347.42
394.83	342.74
395.276	359.13
395.723	312.32
396.169	253.8
396.616	305.29
397.062	331.04
397.508	319.34
397.954	342.74
398.401	309.97
398.847	321.68
399.293	394.23
399.739	295.93
400.185	373.17
400.631	295.93
401.076	352.1
401.522	338.06
401.968	321.68
402.414	293.59
402.859	345.08
403.305	359.13
403.75	305.29
404.196	319.34
404.641	352.1
405.086	345.08
405.532	342.74
405.977	265.5
406.422	291.25
406.867	298.27
407.312	382.53
407.757	307.63
408.202	342.74
408.647	380.19
409.092	359.13
409.537	274.87
409.982	340.4
410.426	349.76
410.871	354.44
411.316	291.25
411.76	338.06
412.205	328.7
412.649	366.15
413.093	317
413.538	319.34
413.982	328.7
414.426	300.61
414.87	324.02
415.314	321.68
415.758	347.42
416.202	356.79
416.646	277.21
417.09	331.04
417.534	431.68
417.978	314.66
418.421	277.21
418.865	284.23
419.309	300.61
419.752	366.15
420.196	345.08
420.639	321.68
421.083	398.92
421.526	277.21
421.969	338.06
422.412	373.17
422.856	338.06
423.299	307.63
423.742	260.82
424.185	366.15
424.628	368.49
425.071	324.02
425.513	335.72
425.956	312.32
426.399	356.79
426.842	333.38
427.284	419.98
427.727	373.17
428.169	366.15
428.612	342.74
429.054	396.57
429.497	387.21
429.939	377.85
430.381	408.28
430.823	387.21
431.265	352.1
431.707	398.92
432.149	333.38
432.591	349.76
433.033	394.23
433.475	391.89
433.917	457.43
434.359	443.39
434.8	455.09
435.242	562.75
435.684	513.6
436.125	565.09
436.567	445.73
437.008	508.92
437.449	450.41
437.891	424.66
438.332	370.83
438.773	368.49
439.214	464.45
439.656	431.68
440.097	403.6
440.538	476.15
440.978	497.22
441.419	466.79
441.86	487.86
442.301	459.77
442.742	452.75
443.182	473.81
443.623	518.28
444.063	408.28
444.504	464.45
444.944	506.58
445.385	546.37
445.825	562.75
446.265	499.56
446.706	518.28
447.146	511.26
447.586	459.77
448.026	469.13
448.466	492.54
448.906	497.22
449.346	443.39
449.786	436.36
450.225	445.73
450.665	504.24
451.105	478.49
451.544	478.49
451.984	419.98
452.424	443.39
452.863	443.39
453.302	427
453.742	450.41
454.181	476.15
454.62	417.64
455.059	375.51
455.499	434.02
455.938	417.64
456.377	438.7
456.816	377.85
457.254	501.9
457.693	427
458.132	429.34
458.571	419.98
459.01	427
459.448	410.62
459.887	387.21
460.325	434.02
460.764	415.3
461.202	415.3
461.641	410.62
462.079	408.28
462.517	398.92
462.955	342.74
463.393	361.47
463.832	331.04
464.27	391.89
464.708	466.79
465.145	340.4
465.583	345.08
466.021	412.96
466.459	429.34
466.897	429.34
467.334	436.36
467.772	377.85
468.209	436.36
468.647	373.17
469.084	354.44
469.522	359.13
469.959	403.6
470.396	415.3
470.833	307.63
471.271	359.13
471.708	338.06
472.145	412.96
472.582	342.74
473.019	429.34
473.456	384.87
473.892	352.1
474.329	380.19
474.766	354.44
475.202	345.08
475.639	356.79
476.076	396.57
476.512	401.26
476.949	293.59
477.385	359.13
477.821	352.1
478.258	436.36
478.694	349.76
479.13	356.79
479.566	384.87
480.002	331.04
480.438	377.85
480.874	352.1
481.31	342.74
481.746	328.7
482.181	328.7
482.617	403.6
483.053	419.98
483.488	429.34
483.924	380.19
484.36	338.06
484.795	398.92
485.23	415.3
485.666	396.57
486.101	391.89
486.536	492.54
486.971	391.89
487.407	436.36
487.842	422.32
488.277	504.24
488.712	480.83
489.146	462.11
489.581	410.62
490.016	417.64
490.451	340.4
490.885	384.87
491.32	398.92
491.755	462.11
492.189	302.95
492.624	441.04
493.058	469.13
493.492	415.3
493.927	441.04
494.361	389.55
494.795	375.51
495.229	464.45
495.663	445.73
496.097	394.23
496.531	415.3
496.965	408.28
497.399	452.75
497.833	391.89
498.266	366.15
498.7	417.64
499.134	419.98
499.567	394.23
500.001	401.26
500.434	375.51
500.868	457.43
501.301	410.62
501.734	398.92
502.168	443.39
502.601	380.19
503.034	382.53
503.467	382.53
503.9	396.57
504.333	361.47
504.766	340.4
505.199	410.62
505.632	373.17
506.064	384.87
506.497	363.81
506.93	436.36
507.362	415.3
507.795	434.02
508.227	394.23
508.66	373.17
509.092	345.08
509.524	389.55
509.956	412.96
510.389	403.6
510.821	429.34
511.253	424.66
511.685	387.21
512.117	436.36
512.549	361.47
512.981	387.21
513.412	431.68
513.844	417.64
514.276	405.94
514.707	396.57
515.139	398.92
515.571	436.36
516.002	382.53
516.433	408.28
516.865	408.28
517.296	405.94
517.727	387.21
518.159	424.66
518.59	387.21
519.021	443.39
519.452	384.87
519.883	384.87
520.314	370.83
520.744	436.36
521.175	417.64
521.606	436.36
522.037	394.23
522.467	317
522.898	377.85
523.328	448.07
523.759	438.7
524.189	370.83
524.62	410.62
525.05	384.87
525.48	490.2
525.91	522.96
526.341	429.34
526.771	424.66
527.201	394.23
527.631	422.32
528.061	419.98
528.49	373.17
528.92	333.38
529.35	398.92
529.78	441.04
530.209	405.94
530.639	452.75
531.068	345.08
531.498	443.39
531.927	427
532.357	338.06
532.786	384.87
533.215	401.26
533.644	403.6
534.074	373.17
534.503	403.6
534.932	412.96
535.361	466.79
535.79	441.04
536.218	457.43
536.647	450.41
537.076	412.96
537.505	424.66
537.933	459.77
538.362	452.75
538.79	501.9
539.219	544.03
539.647	534.67
540.076	515.94
540.504	506.58
540.932	532.33
541.36	647.01
541.788	656.37
542.217	707.87
542.645	707.87
543.073	719.57
543.5	703.18
543.928	768.72
544.356	728.93
544.784	719.57
545.211	738.29
545.639	768.72
546.067	628.29
546.494	625.95
546.922	593.18
547.349	597.86
547.776	520.62
548.204	441.04
548.631	504.24
549.058	539.35
549.485	527.64
549.912	476.15
550.339	497.22
550.766	476.15
551.193	485.51
551.62	483.17
552.047	499.56
552.474	487.86
552.9	452.75
553.327	424.66
553.754	448.07
554.18	412.96
554.607	478.49
555.033	431.68
555.459	478.49
555.886	419.98
556.312	501.9
556.738	469.13
557.164	398.92
557.59	352.1
558.016	401.26
558.442	391.89
558.868	427
559.294	373.17
559.72	424.66
560.145	368.49
560.571	476.15
560.997	377.85
561.422	377.85
561.848	394.23
562.273	450.41
562.699	391.89
563.124	459.77
563.549	389.55
563.974	408.28
564.4	403.6
564.825	448.07
565.25	412.96
565.675	424.66
566.1	373.17
566.525	370.83
566.95	466.79
567.374	366.15
567.799	417.64
568.224	457.43
568.648	410.62
569.073	424.66
569.497	487.86
569.922	448.07
570.346	410.62
570.771	373.17
571.195	366.15
571.619	436.36
572.043	434.02
572.467	410.62
572.891	443.39
573.315	427
573.739	363.81
574.163	492.54
574.587	387.21
575.011	427
575.435	373.17
575.858	518.28
576.282	452.75
576.705	412.96
577.129	410.62
577.552	382.53
577.976	412.96
578.399	441.04
578.822	403.6
579.245	419.98
579.669	462.11
580.092	441.04
580.515	431.68
580.938	483.17
581.361	490.2
581.784	469.13
582.206	412.96
582.629	441.04
583.052	476.15
583.474	422.32
583.897	403.6
584.32	398.92
584.742	427
585.165	485.51
585.587	412.96
586.009	450.41
586.431	490.2
586.854	499.56
587.276	485.51
587.698	525.3
588.12	469.13
588.542	478.49
588.964	455.09
589.386	419.98
589.807	450.41
590.229	412.96
590.651	455.09
591.073	504.24
591.494	424.66
591.916	417.64
592.337	450.41
592.759	401.26
593.18	354.44
593.601	361.47
594.022	434.02
594.444	422.32
594.865	424.66
595.286	396.57
595.707	462.11
596.128	427
596.549	431.68
596.97	398.92
597.39	361.47
597.811	328.7
598.232	490.2
598.652	422.32
599.073	401.26
599.494	405.94
599.914	455.09
600.334	403.6
600.755	370.83
601.175	438.7
601.595	356.79
602.015	377.85
602.436	455.09
602.856	490.2
603.276	368.49
603.696	375.51
604.115	366.15
604.535	363.81
604.955	417.64
605.375	338.06
605.794	398.92
606.214	375.51
606.634	410.62
607.053	429.34
607.473	441.04
607.892	434.02
608.311	403.6
608.731	466.79
609.15	434.02
609.569	525.3
609.988	637.65
610.407	717.23
610.826	747.65
611.245	768.72
611.664	726.59
612.083	679.78
612.501	625.95
612.92	686.8
613.339	604.88
613.757	499.56
614.176	583.82
614.594	466.79
615.013	464.45
615.431	471.47
615.85	412.96
616.268	417.64
616.686	382.53
617.104	349.76
617.522	412.96
617.94	356.79
618.358	382.53
618.776	391.89
619.194	403.6
619.612	394.23
620.03	384.87
620.447	419.98
620.865	429.34
621.282	398.92
621.7	450.41
622.117	394.23
622.535	410.62
622.952	452.75
623.369	476.15
623.787	370.83
624.204	375.51
624.621	419.98
625.038	356.79
625.455	391.89
625.872	387.21
626.289	389.55
626.706	368.49
627.123	394.23
627.539	349.76
627.956	356.79
628.373	448.07
628.789	338.06
629.206	394.23
629.622	394.23
630.038	431.68
630.455	405.94
630.871	422.32
631.287	356.79
631.703	333.38
632.12	361.47
632.536	328.7
632.952	361.47
633.368	333.38
633.783	401.26
634.199	359.13
634.615	319.34
635.031	377.85
635.446	340.4
635.862	331.04
636.277	333.38
636.693	366.15
637.108	352.1
637.524	431.68
637.939	380.19
638.354	298.27
638.77	272.53
639.185	326.36
639.6	314.66
640.015	335.72
640.43	317
640.845	338.06
641.259	340.4
641.674	298.27
642.089	410.62
642.504	335.72
642.918	347.42
643.333	356.79
643.747	377.85
644.162	349.76
644.576	345.08
644.991	305.29
645.405	384.87
645.819	342.74
646.233	366.15
646.647	284.23
647.061	387.21
647.475	361.47
647.889	345.08
648.303	267.85
648.717	333.38
649.131	338.06
649.545	363.81
649.958	340.4
650.372	368.49
650.785	354.44
651.199	347.42
651.612	349.76
652.026	356.79
652.439	319.34
652.852	331.04
653.266	277.21
653.679	338.06
654.092	394.23
654.505	324.02
654.918	389.55
655.331	396.57
655.744	286.57
656.156	356.79
656.569	293.59
656.982	284.23
657.394	356.79
657.807	382.53
658.22	281.89
658.632	352.1
659.044	244.44
659.457	389.55
659.869	345.08
660.281	370.83
660.693	363.81
661.106	291.25
661.518	354.44
661.93	354.44
662.342	293.59
662.754	335.72
663.165	352.1
663.577	335.72
663.989	359.13
664.401	277.21
664.812	279.55
665.224	349.76
665.635	307.63
666.047	319.34
666.458	335.72
666.869	368.49
667.281	380.19
667.692	331.04
668.103	338.06
668.514	396.57
668.925	380.19
669.336	396.57
669.747	324.02
670.158	328.7
670.569	333.38
670.979	354.44
671.39	295.93
671.801	298.27
672.211	333.38
672.622	284.23
673.032	331.04
673.443	317
673.853	373.17
674.263	373.17
674.674	361.47
675.084	281.89
675.494	265.5
675.904	349.76
676.314	359.13
676.724	331.04
677.134	427
677.544	319.34
677.953	366.15
678.363	370.83
678.773	403.6
679.182	302.95
679.592	328.7
680.001	333.38
680.411	284.23
680.82	295.93
681.23	258.48
681.639	291.25
682.048	321.68
682.457	352.1
682.866	302.95
683.275	368.49
683.684	324.02
684.093	347.42
684.502	321.68
684.911	356.79
685.32	230.4
685.728	270.19
686.137	338.06
686.546	398.92
686.954	352.1
687.363	307.63
687.771	307.63
688.179	295.93
688.588	321.68
688.996	302.95
689.404	298.27
689.812	321.68
690.22	298.27
690.628	314.66
691.036	375.51
691.444	298.27
691.852	361.47
692.26	410.62
692.667	345.08
693.075	305.29
693.483	363.81
693.89	312.32
694.298	302.95
694.705	321.68
695.112	345.08
695.52	307.63
695.927	342.74
696.334	272.53
696.741	352.1
697.148	288.91
697.555	387.21
697.962	340.4
698.369	314.66
698.776	363.81
699.183	302.95
699.59	352.1
699.996	305.29
700.403	401.26
700.81	345.08
701.216	300.61
701.623	345.08
702.029	363.81
702.435	326.36
702.842	302.95
703.248	356.79
703.654	312.32
704.06	265.5
704.466	293.59
704.872	309.97
705.278	291.25
705.684	305.29
706.09	324.02
706.496	380.19
706.901	272.53
707.307	370.83
707.712	302.95
708.118	373.17
708.523	345.08
708.929	342.74
709.334	321.68
709.74	352.1
710.145	349.76
710.55	335.72
710.955	363.81
711.36	300.61
711.765	349.76
712.17	366.15
712.575	377.85
712.98	1047.24
713.385	361.47
713.789	305.29
714.194	333.38
714.599	394.23
715.003	340.4
715.408	265.5
715.812	340.4
716.217	307.63
716.621	338.06
717.025	309.97
717.429	295.93
717.833	291.25
718.238	312.32
718.642	267.85
719.046	375.51
719.449	321.68
719.853	230.4
720.257	314.66
720.661	321.68
721.065	291.25
721.468	305.29
721.872	302.95
722.275	302.95
722.679	356.79
723.082	267.85
723.485	331.04
723.889	366.15
724.292	338.06
724.695	286.57
725.098	274.87
725.501	314.66
725.904	324.02
726.307	333.38
726.71	326.36
727.113	277.21
727.516	326.36
727.918	345.08
728.321	307.63
728.724	288.91
729.126	331.04
729.529	382.53
729.931	368.49
730.333	335.72
730.736	354.44
731.138	314.66
731.54	246.78
731.942	356.79
732.344	354.44
732.746	307.63
733.148	321.68
733.55	281.89
733.952	333.38
734.354	265.5
734.756	373.17
735.157	366.15
735.559	258.48
735.96	298.27
736.362	314.66
736.763	363.81
737.165	305.29
737.566	326.36
737.967	340.4
738.368	298.27
738.77	284.23
739.171	331.04
739.572	298.27
739.973	253.8
740.374	265.5
740.774	309.97
741.175	295.93
741.576	349.76
741.977	342.74
742.377	328.7
742.778	305.29
743.178	288.91
743.579	272.53
743.979	405.94
744.379	319.34
744.78	335.72
745.18	321.68
745.58	408.28
745.98	324.02
746.38	295.93
746.78	293.59
747.18	352.1
747.58	377.85
747.98	317
748.38	317
748.779	333.38
749.179	326.36
749.578	281.89
749.978	312.32
750.377	335.72
750.777	377.85
751.176	349.76
751.575	347.42
751.975	249.12
752.374	326.36
752.773	300.61
753.172	347.42
753.571	291.25
753.97	317
754.369	302.95
754.768	324.02
755.166	309.97
755.565	309.97
755.964	335.72
756.362	319.34
756.761	312.32
757.159	333.38
757.558	328.7
757.956	307.63
758.354	366.15
758.753	309.97
759.151	317
759.549	417.64
759.947	373.17
760.345	375.51
760.743	300.61
761.141	312.32
761.539	317
761.936	321.68
762.334	309.97
762.732	291.25
763.129	324.02
763.527	246.78
763.924	347.42
764.322	352.1
764.719	352.1
765.117	354.44
765.514	333.38
765.911	370.83
766.308	307.63
766.705	293.59
767.102	284.23
