Data from Al_FLMS009871__86__11-47-42-596.txt Node

Date: Fri Mar 08 11:47:42 CST 2024
User: pe5414po
Spectrometer: FLMS00987
Trigger mode: 0
Integration Time (sec): 1.000000E-1
Scans to average: 1
Electric dark correction enabled: true
Nonlinearity correction enabled: false
Boxcar width: 0
XAxis mode: Wavelengths
Number of Pixels in Spectrum: 2048
>>>>>Begin Spectral Data<<<<<
188.938	-77.68
189.409	-77.68
189.879	-77.68
190.349	-101.08
190.819	-129.17
191.29	-68.31
191.76	-70.65
192.23	-70.65
192.7	-108.1
193.17	-65.97
193.64	-7.46
194.109	-23.84
194.579	-47.25
195.049	65.1
195.519	1.9
195.988	51.05
196.458	65.1
196.927	34.67
197.397	72.12
197.866	83.82
198.336	88.5
198.805	142.33
199.274	128.29
199.744	118.93
200.213	184.46
200.682	205.53
201.151	182.12
201.62	221.91
202.089	142.33
202.558	217.23
203.027	306.17
203.495	224.25
203.964	310.85
204.433	257.02
204.902	294.47
205.37	352.98
205.839	282.77
206.307	271.06
206.776	285.11
207.244	177.44
207.712	240.64
208.181	247.66
208.649	324.9
209.117	233.61
209.585	254.68
210.053	268.72
210.521	242.98
210.989	320.21
211.457	278.08
211.925	313.19
212.393	221.91
212.861	226.59
213.328	257.02
213.796	306.17
214.264	294.47
214.731	231.27
215.199	317.87
215.666	214.89
216.133	301.49
216.601	252.34
217.068	306.17
217.535	193.83
218.003	217.23
218.47	266.38
218.937	226.59
219.404	310.85
219.871	170.42
220.338	247.66
220.805	219.57
221.271	247.66
221.738	285.11
222.205	242.98
222.671	299.15
223.138	252.34
223.605	247.66
224.071	360
224.538	301.49
225.004	278.08
225.47	217.23
225.937	224.25
226.403	280.43
226.869	163.4
227.335	207.87
227.801	327.24
228.267	259.36
228.733	259.36
229.199	261.7
229.665	238.3
230.131	301.49
230.597	310.85
231.062	198.51
231.528	217.23
231.994	285.11
232.459	242.98
232.925	299.15
233.39	252.34
233.856	224.25
234.321	289.79
234.786	268.72
235.252	259.36
235.717	235.96
236.182	221.91
236.647	235.96
237.112	217.23
237.577	250
238.042	238.3
238.507	259.36
238.972	299.15
239.436	266.38
239.901	250
240.366	224.25
240.83	231.27
241.295	273.4
241.76	285.11
242.224	226.59
242.688	250
243.153	212.55
243.617	242.98
244.081	210.21
244.545	275.74
245.01	245.32
245.474	217.23
245.938	287.45
246.402	331.92
246.866	355.32
247.33	228.93
247.793	303.83
248.257	292.13
248.721	289.79
249.185	226.59
249.648	341.28
250.112	285.11
250.575	266.38
251.039	287.45
251.502	261.7
251.965	271.06
252.429	271.06
252.892	252.34
253.355	203.19
253.818	324.9
254.281	287.45
254.744	306.17
255.207	278.08
255.67	245.32
256.133	268.72
256.596	329.58
257.059	296.81
257.522	268.72
257.984	275.74
258.447	231.27
258.909	242.98
259.372	254.68
259.834	254.68
260.297	299.15
260.759	301.49
261.221	259.36
261.684	233.61
262.146	289.79
262.608	282.77
263.07	350.64
263.532	235.96
263.994	320.21
264.456	273.4
264.918	228.93
265.38	200.85
265.842	224.25
266.303	257.02
266.765	299.15
267.227	308.51
267.688	341.28
268.15	273.4
268.611	341.28
269.072	310.85
269.534	273.4
269.995	289.79
270.456	294.47
270.918	275.74
271.379	233.61
271.84	275.74
272.301	212.55
272.762	299.15
273.223	242.98
273.684	268.72
274.144	303.83
274.605	264.04
275.066	245.32
275.527	254.68
275.987	259.36
276.448	285.11
276.908	299.15
277.369	294.47
277.829	238.3
278.289	296.81
278.75	271.06
279.21	292.13
279.67	303.83
280.13	327.24
280.59	292.13
281.05	254.68
281.51	228.93
281.97	313.19
282.43	381.07
282.89	238.3
283.35	261.7
283.809	247.66
284.269	261.7
284.729	315.53
285.188	289.79
285.648	254.68
286.107	299.15
286.567	282.77
287.026	296.81
287.485	259.36
287.944	322.56
288.404	264.04
288.863	280.43
289.322	292.13
289.781	268.72
290.24	331.92
290.699	238.3
291.158	264.04
291.616	242.98
292.075	301.49
292.534	299.15
292.992	266.38
293.451	280.43
293.91	315.53
294.368	308.51
294.827	320.21
295.285	317.87
295.743	240.64
296.202	254.68
296.66	324.9
297.118	280.43
297.576	329.58
298.034	329.58
298.492	280.43
298.95	254.68
299.408	254.68
299.866	280.43
300.324	308.51
300.781	292.13
301.239	280.43
301.697	242.98
302.154	254.68
302.612	315.53
303.069	252.34
303.527	315.53
303.984	329.58
304.441	317.87
304.899	259.36
305.356	254.68
305.813	338.94
306.27	294.47
306.727	292.13
307.184	235.96
307.641	219.57
308.098	345.96
308.555	285.11
309.012	313.19
309.468	257.02
309.925	303.83
310.382	278.08
310.838	294.47
311.295	331.92
311.751	294.47
312.208	257.02
312.664	320.21
313.12	303.83
313.577	308.51
314.033	308.51
314.489	285.11
314.945	313.19
315.401	266.38
315.857	296.81
316.313	278.08
316.769	294.47
317.225	294.47
317.681	210.21
318.136	278.08
318.592	310.85
319.048	266.38
319.503	289.79
319.959	238.3
320.414	250
320.869	341.28
321.325	303.83
321.78	324.9
322.235	294.47
322.691	348.3
323.146	331.92
323.601	308.51
324.056	362.34
324.511	257.02
324.966	308.51
325.421	214.89
325.875	324.9
326.33	324.9
326.785	294.47
327.24	278.08
327.694	296.81
328.149	287.45
328.603	338.94
329.058	350.64
329.512	292.13
329.966	310.85
330.421	315.53
330.875	271.06
331.329	257.02
331.783	294.47
332.237	331.92
332.691	254.68
333.145	259.36
333.599	308.51
334.053	317.87
334.507	247.66
334.96	303.83
335.414	273.4
335.868	221.91
336.321	357.66
336.775	345.96
337.228	275.74
337.682	303.83
338.135	306.17
338.588	374.05
339.042	278.08
339.495	345.96
339.948	294.47
340.401	296.81
340.854	278.08
341.307	310.85
341.76	278.08
342.213	271.06
342.666	338.94
343.119	352.98
343.571	317.87
344.024	278.08
344.477	296.81
344.929	317.87
345.382	278.08
345.834	334.26
346.287	320.21
346.739	250
347.191	306.17
347.644	282.77
348.096	254.68
348.548	280.43
349	287.45
349.452	235.96
349.904	289.79
350.356	294.47
350.808	329.58
351.26	254.68
351.711	378.73
352.163	329.58
352.615	331.92
353.066	341.28
353.518	331.92
353.969	327.24
354.421	331.92
354.872	257.02
355.324	303.83
355.775	303.83
356.226	287.45
356.677	322.56
357.128	238.3
357.579	285.11
358.03	289.79
358.481	338.94
358.932	252.34
359.383	285.11
359.834	350.64
360.285	334.26
360.735	350.64
361.186	240.64
361.637	238.3
362.087	313.19
362.538	292.13
362.988	285.11
363.438	273.4
363.889	299.15
364.339	313.19
364.789	313.19
365.239	299.15
365.689	257.02
366.139	315.53
366.589	275.74
367.039	294.47
367.489	287.45
367.939	261.7
368.389	367.03
368.839	327.24
369.288	308.51
369.738	320.21
370.187	310.85
370.637	350.64
371.086	287.45
371.536	352.98
371.985	322.56
372.434	289.79
372.884	406.81
373.333	348.3
373.782	306.17
374.231	275.74
374.68	301.49
375.129	341.28
375.578	228.93
376.027	334.26
376.475	336.6
376.924	266.38
377.373	266.38
377.822	336.6
378.27	320.21
378.719	226.59
379.167	322.56
379.616	341.28
380.064	306.17
380.512	327.24
380.961	317.87
381.409	308.51
381.857	322.56
382.305	320.21
382.753	278.08
383.201	245.32
383.649	292.13
384.097	303.83
384.545	285.11
384.992	315.53
385.44	303.83
385.888	242.98
386.335	261.7
386.783	341.28
387.231	343.62
387.678	294.47
388.125	273.4
388.573	367.03
389.02	355.32
389.467	198.51
389.914	317.87
390.362	327.24
390.809	271.06
391.256	301.49
391.703	336.6
392.15	371.71
392.596	301.49
393.043	395.11
393.49	341.28
393.937	399.79
394.383	320.21
394.83	261.7
395.276	360
395.723	308.51
396.169	310.85
396.616	322.56
397.062	357.66
397.508	317.87
397.954	329.58
398.401	271.06
398.847	317.87
399.293	322.56
399.739	296.81
400.185	360
400.631	334.26
401.076	287.45
401.522	294.47
401.968	301.49
402.414	294.47
402.859	240.64
403.305	278.08
403.75	233.61
404.196	322.56
404.641	374.05
405.086	287.45
405.532	278.08
405.977	399.79
406.422	322.56
406.867	287.45
407.312	203.19
407.757	376.39
408.202	334.26
408.647	350.64
409.092	329.58
409.537	338.94
409.982	271.06
410.426	343.62
410.871	331.92
411.316	247.66
411.76	271.06
412.205	315.53
412.649	306.17
413.093	280.43
413.538	271.06
413.982	231.27
414.426	245.32
414.87	273.4
415.314	306.17
415.758	320.21
416.202	352.98
416.646	378.73
417.09	266.38
417.534	310.85
417.978	303.83
418.421	306.17
418.865	285.11
419.309	336.6
419.752	345.96
420.196	299.15
420.639	320.21
421.083	280.43
421.526	320.21
421.969	278.08
422.412	334.26
422.856	341.28
423.299	348.3
423.742	378.73
424.185	343.62
424.628	334.26
425.071	350.64
425.513	313.19
425.956	308.51
426.399	399.79
426.842	310.85
427.284	383.41
427.727	388.09
428.169	343.62
428.612	320.21
429.054	345.96
429.497	320.21
429.939	317.87
430.381	371.71
430.823	331.92
431.265	390.43
431.707	299.15
432.149	357.66
432.591	395.11
433.033	392.77
433.475	409.15
433.917	437.24
434.359	402.13
434.8	453.63
435.242	484.05
435.684	507.46
436.125	474.69
436.567	451.28
437.008	462.99
437.449	446.6
437.891	392.77
438.332	446.6
438.773	430.22
439.214	345.96
439.656	399.79
440.097	385.75
440.538	367.03
440.978	451.28
441.419	395.11
441.86	460.65
442.301	448.94
442.742	416.18
443.182	439.58
443.623	458.31
444.063	369.37
444.504	418.52
444.944	481.71
445.385	493.41
445.825	381.07
446.265	486.39
446.706	470.01
447.146	472.35
447.586	502.78
448.026	455.97
448.466	451.28
448.906	462.99
449.346	509.8
449.786	465.33
450.225	484.05
450.665	439.58
451.105	444.26
451.544	378.73
451.984	427.88
452.424	441.92
452.863	390.43
453.302	472.35
453.742	444.26
454.181	423.2
454.62	439.58
455.059	399.79
455.499	397.45
455.938	383.41
456.377	411.5
456.816	399.79
457.254	376.39
457.693	439.58
458.132	357.66
458.571	381.07
459.01	324.9
459.448	467.67
459.887	381.07
460.325	411.5
460.764	381.07
461.202	371.71
461.641	413.84
462.079	376.39
462.517	352.98
462.955	446.6
463.393	395.11
463.832	402.13
464.27	430.22
464.708	324.9
465.145	432.56
465.583	378.73
466.021	348.3
466.459	381.07
466.897	409.15
467.334	369.37
467.772	355.32
468.209	374.05
468.647	329.58
469.084	371.71
469.522	322.56
469.959	395.11
470.396	282.77
470.833	360
471.271	371.71
471.708	355.32
472.145	369.37
472.582	374.05
473.019	322.56
473.456	338.94
473.892	348.3
474.329	392.77
474.766	381.07
475.202	299.15
475.639	327.24
476.076	327.24
476.512	362.34
476.949	404.47
477.385	357.66
477.821	301.49
478.258	376.39
478.694	348.3
479.13	345.96
479.566	378.73
480.002	392.77
480.438	341.28
480.874	374.05
481.31	324.9
481.746	388.09
482.181	441.92
482.617	345.96
483.053	385.75
483.488	418.52
483.924	392.77
484.36	308.51
484.795	352.98
485.23	453.63
485.666	441.92
486.101	385.75
486.536	399.79
486.971	371.71
487.407	392.77
487.842	406.81
488.277	416.18
488.712	362.34
489.146	395.11
489.581	427.88
490.016	364.68
490.451	364.68
490.885	441.92
491.32	444.26
491.755	465.33
492.189	376.39
492.624	432.56
493.058	383.41
493.492	360
493.927	352.98
494.361	350.64
494.795	439.58
495.229	352.98
495.663	477.03
496.097	427.88
496.531	364.68
496.965	352.98
497.399	306.17
497.833	381.07
498.266	385.75
498.7	329.58
499.134	399.79
499.567	413.84
500.001	409.15
500.434	364.68
500.868	355.32
501.301	310.85
501.734	397.45
502.168	367.03
502.601	423.2
503.034	254.68
503.467	374.05
503.9	430.22
504.333	327.24
504.766	360
505.199	383.41
505.632	338.94
506.064	376.39
506.497	376.39
506.93	322.56
507.362	338.94
507.795	355.32
508.227	392.77
508.66	416.18
509.092	369.37
509.524	411.5
509.956	404.47
510.389	446.6
510.821	336.6
511.253	420.86
511.685	352.98
512.117	369.37
512.549	395.11
512.981	343.62
513.412	381.07
513.844	343.62
514.276	355.32
514.707	453.63
515.139	390.43
515.571	395.11
516.002	409.15
516.433	367.03
516.865	406.81
517.296	315.53
517.727	411.5
518.159	385.75
518.59	336.6
519.021	331.92
519.452	357.66
519.883	362.34
520.314	313.19
520.744	390.43
521.175	388.09
521.606	383.41
522.037	399.79
522.467	406.81
522.898	334.26
523.328	345.96
523.759	320.21
524.189	371.71
524.62	434.9
525.05	390.43
525.48	437.24
525.91	327.24
526.341	413.84
526.771	481.71
527.201	427.88
527.631	404.47
528.061	432.56
528.49	383.41
528.92	425.54
529.35	441.92
529.78	406.81
530.209	383.41
530.639	315.53
531.068	383.41
531.498	388.09
531.927	360
532.357	470.01
532.786	404.47
533.215	423.2
533.644	378.73
534.074	364.68
534.503	374.05
534.932	444.26
535.361	402.13
535.79	364.68
536.218	418.52
536.647	423.2
537.076	388.09
537.505	395.11
537.933	338.94
538.362	301.49
538.79	434.9
539.219	458.31
539.647	551.93
540.076	430.22
540.504	486.39
540.932	542.57
541.36	587.04
541.788	671.29
542.217	722.79
542.645	704.06
543.073	629.17
543.5	736.83
543.928	671.29
544.356	659.59
544.784	697.04
545.211	687.68
545.639	633.85
546.067	633.85
546.494	608.1
546.922	589.38
547.349	565.97
547.776	535.54
548.204	385.75
548.631	521.5
549.058	502.78
549.485	448.94
549.912	444.26
550.339	397.45
550.766	507.46
551.193	470.01
551.62	427.88
552.047	420.86
552.474	439.58
552.9	505.12
553.327	439.58
553.754	413.84
554.18	446.6
554.607	362.34
555.033	371.71
555.459	418.52
555.886	420.86
556.312	385.75
556.738	446.6
557.164	381.07
557.59	334.26
558.016	399.79
558.442	420.86
558.868	381.07
559.294	409.15
559.72	390.43
560.145	390.43
560.571	385.75
560.997	437.24
561.422	418.52
561.848	409.15
562.273	395.11
562.699	369.37
563.124	352.98
563.549	385.75
563.974	320.21
564.4	345.96
564.825	434.9
565.25	367.03
565.675	374.05
566.1	341.28
566.525	338.94
566.95	383.41
567.374	425.54
567.799	404.47
568.224	397.45
568.648	350.64
569.073	413.84
569.497	369.37
569.922	364.68
570.346	406.81
570.771	406.81
571.195	411.5
571.619	364.68
572.043	390.43
572.467	406.81
572.891	360
573.315	376.39
573.739	357.66
574.163	301.49
574.587	388.09
575.011	369.37
575.435	331.92
575.858	322.56
576.282	388.09
576.705	369.37
577.129	322.56
577.552	355.32
577.976	425.54
578.399	416.18
578.822	425.54
579.245	364.68
579.669	348.3
580.092	360
580.515	425.54
580.938	439.58
581.361	390.43
581.784	448.94
582.206	402.13
582.629	430.22
583.052	385.75
583.474	404.47
583.897	441.92
584.32	460.65
584.742	385.75
585.165	397.45
585.587	434.9
586.009	388.09
586.431	406.81
586.854	420.86
587.276	434.9
587.698	434.9
588.12	374.05
588.542	420.86
588.964	413.84
589.386	416.18
589.807	383.41
590.229	409.15
590.651	409.15
591.073	402.13
591.494	350.64
591.916	395.11
592.337	418.52
592.759	399.79
593.18	343.62
593.601	406.81
594.022	406.81
594.444	357.66
594.865	376.39
595.286	404.47
595.707	397.45
596.128	383.41
596.549	369.37
596.97	388.09
597.39	416.18
597.811	364.68
598.232	367.03
598.652	383.41
599.073	350.64
599.494	411.5
599.914	362.34
600.334	322.56
600.755	362.34
601.175	402.13
601.595	367.03
602.015	399.79
602.436	345.96
602.856	493.41
603.276	306.17
603.696	374.05
604.115	376.39
604.535	320.21
604.955	376.39
605.375	371.71
605.794	395.11
606.214	406.81
606.634	402.13
607.053	411.5
607.473	338.94
607.892	411.5
608.311	420.86
608.731	390.43
609.15	535.54
609.569	528.52
609.988	601.08
610.407	760.24
610.826	816.41
611.245	790.66
611.664	771.94
612.083	673.64
612.501	612.78
612.92	537.88
613.339	608.1
613.757	589.38
614.176	521.5
614.594	505.12
615.013	453.63
615.431	479.37
615.85	441.92
616.268	381.07
616.686	385.75
617.104	350.64
617.522	341.28
617.94	374.05
618.358	371.71
618.776	467.67
619.194	439.58
619.612	360
620.03	348.3
620.447	404.47
620.865	441.92
621.282	371.71
621.7	425.54
622.117	285.11
622.535	444.26
622.952	411.5
623.369	334.26
623.787	350.64
624.204	374.05
624.621	327.24
625.038	343.62
625.455	324.9
625.872	350.64
626.289	385.75
626.706	362.34
627.123	399.79
627.539	343.62
627.956	383.41
628.373	322.56
628.789	381.07
629.206	352.98
629.622	371.71
630.038	357.66
630.455	345.96
630.871	413.84
631.287	404.47
631.703	324.9
632.12	355.32
632.536	352.98
632.952	350.64
633.368	388.09
633.783	376.39
634.199	315.53
634.615	320.21
635.031	355.32
635.446	308.51
635.862	350.64
636.277	324.9
636.693	308.51
637.108	376.39
637.524	390.43
637.939	322.56
638.354	264.04
638.77	278.08
639.185	336.6
639.6	338.94
640.015	336.6
640.43	313.19
640.845	348.3
641.259	399.79
641.674	289.79
642.089	334.26
642.504	336.6
642.918	280.43
643.333	343.62
643.747	310.85
644.162	306.17
644.576	338.94
644.991	348.3
645.405	329.58
645.819	322.56
646.233	367.03
646.647	313.19
647.061	336.6
647.475	369.37
647.889	266.38
648.303	336.6
648.717	257.02
649.131	320.21
649.545	336.6
649.958	331.92
650.372	357.66
650.785	364.68
651.199	355.32
651.612	264.04
652.026	313.19
652.439	303.83
652.852	287.45
653.266	254.68
653.679	327.24
654.092	313.19
654.505	374.05
654.918	310.85
655.331	331.92
655.744	282.77
656.156	345.96
656.569	338.94
656.982	285.11
657.394	285.11
657.807	313.19
658.22	301.49
658.632	322.56
659.044	313.19
659.457	406.81
659.869	322.56
660.281	299.15
660.693	285.11
661.106	336.6
661.518	317.87
661.93	289.79
662.342	338.94
662.754	345.96
663.165	296.81
663.577	352.98
663.989	306.17
664.401	369.37
664.812	324.9
665.224	343.62
665.635	273.4
666.047	320.21
666.458	308.51
666.869	320.21
667.281	329.58
667.692	313.19
668.103	257.02
668.514	292.13
668.925	350.64
669.336	308.51
669.747	313.19
670.158	299.15
670.569	313.19
670.979	336.6
671.39	306.17
671.801	331.92
672.211	301.49
672.622	317.87
673.032	310.85
673.443	315.53
673.853	341.28
674.263	322.56
674.674	338.94
675.084	355.32
675.494	320.21
675.904	266.38
676.314	275.74
676.724	317.87
677.134	310.85
677.544	313.19
677.953	341.28
678.363	355.32
678.773	329.58
679.182	280.43
679.592	261.7
680.001	289.79
680.411	254.68
680.82	303.83
681.23	296.81
681.639	338.94
682.048	329.58
682.457	317.87
682.866	327.24
683.275	338.94
683.684	327.24
684.093	383.41
684.502	367.03
684.911	282.77
685.32	327.24
685.728	306.17
686.137	310.85
686.546	275.74
686.954	327.24
687.363	334.26
687.771	310.85
688.179	336.6
688.588	360
688.996	306.17
689.404	287.45
689.812	327.24
690.22	413.84
690.628	303.83
691.036	329.58
691.444	395.11
691.852	306.17
692.26	331.92
692.667	369.37
693.075	331.92
693.483	275.74
693.89	278.08
694.298	285.11
694.705	289.79
695.112	275.74
695.52	308.51
695.927	310.85
696.334	374.05
696.741	338.94
697.148	313.19
697.555	278.08
697.962	289.79
698.369	301.49
698.776	308.51
699.183	289.79
699.59	343.62
699.996	315.53
700.403	285.11
700.81	296.81
701.216	357.66
701.623	273.4
702.029	287.45
702.435	331.92
702.842	296.81
703.248	341.28
703.654	252.34
704.06	334.26
704.466	336.6
704.872	287.45
705.278	289.79
705.684	306.17
706.09	301.49
706.496	320.21
706.901	334.26
707.307	264.04
707.712	320.21
708.118	313.19
708.523	364.68
708.929	348.3
709.334	271.06
709.74	294.47
710.145	327.24
710.55	338.94
710.955	369.37
711.36	310.85
711.765	280.43
712.17	334.26
712.575	336.6
712.98	1071.53
713.385	327.24
713.789	348.3
714.194	264.04
714.599	320.21
715.003	289.79
715.408	231.27
715.812	294.47
716.217	266.38
716.621	313.19
717.025	296.81
717.429	268.72
717.833	369.37
718.238	327.24
718.642	327.24
719.046	268.72
719.449	287.45
719.853	266.38
720.257	278.08
720.661	334.26
721.065	296.81
721.468	268.72
721.872	271.06
722.275	320.21
722.679	324.9
723.082	320.21
723.485	268.72
723.889	296.81
724.292	280.43
724.695	310.85
725.098	374.05
725.501	315.53
725.904	287.45
726.307	296.81
726.71	313.19
727.113	292.13
727.516	320.21
727.918	240.64
728.321	329.58
728.724	242.98
729.126	360
729.529	350.64
729.931	381.07
730.333	350.64
730.736	329.58
731.138	271.06
731.54	303.83
731.942	287.45
732.344	327.24
732.746	313.19
733.148	324.9
733.55	308.51
733.952	338.94
734.354	310.85
734.756	327.24
735.157	273.4
735.559	296.81
735.96	308.51
736.362	280.43
736.763	343.62
737.165	341.28
737.566	287.45
737.967	287.45
738.368	329.58
738.77	292.13
739.171	378.73
739.572	264.04
739.973	329.58
740.374	331.92
740.774	271.06
741.175	285.11
741.576	275.74
741.977	313.19
742.377	331.92
742.778	329.58
743.178	327.24
743.579	350.64
743.979	313.19
744.379	280.43
744.78	247.66
745.18	371.71
745.58	303.83
745.98	271.06
746.38	282.77
746.78	210.21
747.18	282.77
747.58	336.6
747.98	287.45
748.38	331.92
748.779	294.47
749.179	257.02
749.578	221.91
749.978	301.49
750.377	322.56
750.777	299.15
751.176	294.47
751.575	310.85
751.975	289.79
752.374	294.47
752.773	338.94
753.172	313.19
753.571	360
753.97	334.26
754.369	299.15
754.768	308.51
755.166	289.79
755.565	360
755.964	315.53
756.362	268.72
756.761	278.08
757.159	273.4
757.558	224.25
757.956	268.72
758.354	296.81
758.753	273.4
759.151	257.02
759.549	320.21
759.947	254.68
760.345	292.13
760.743	294.47
761.141	257.02
761.539	322.56
761.936	308.51
762.334	257.02
762.732	271.06
763.129	299.15
763.527	271.06
763.924	310.85
764.322	327.24
764.719	264.04
765.117	310.85
765.514	240.64
765.911	271.06
