Data from Al_FLMS009871__80__11-47-41-996.txt Node

Date: Fri Mar 08 11:47:41 CST 2024
User: pe5414po
Spectrometer: FLMS00987
Trigger mode: 0
Integration Time (sec): 1.000000E-1
Scans to average: 1
Electric dark correction enabled: true
Nonlinearity correction enabled: false
Boxcar width: 0
XAxis mode: Wavelengths
Number of Pixels in Spectrum: 2048
>>>>>Begin Spectral Data<<<<<
188.938	-50.18
189.409	-50.18
189.879	-50.18
190.349	-80.6
190.819	-106.35
191.29	-85.28
191.76	-127.41
192.23	-50.18
192.7	-94.65
193.17	-15.07
193.64	-68.9
194.109	-61.88
194.579	31.74
195.049	-3.36
195.519	59.83
195.988	3.66
196.458	36.42
196.927	41.11
197.397	59.83
197.866	120.68
198.336	153.45
198.805	127.71
199.274	162.81
199.744	158.13
200.213	179.2
200.682	176.86
201.151	223.67
201.62	261.12
202.089	282.18
202.558	197.92
203.027	254.09
203.495	338.35
203.964	319.63
204.433	230.69
204.902	310.27
205.37	291.54
205.839	310.27
206.307	263.46
206.776	275.16
207.244	291.54
207.712	328.99
208.181	282.18
208.649	319.63
209.117	298.56
209.585	258.78
210.053	314.95
210.521	230.69
210.989	230.69
211.457	263.46
211.925	270.48
212.393	233.03
212.861	270.48
213.328	326.65
213.796	244.73
214.264	254.09
214.731	324.31
215.199	300.91
215.666	310.27
216.133	240.05
216.601	291.54
217.068	209.62
217.535	272.82
218.003	300.91
218.47	237.71
218.937	291.54
219.404	242.39
219.871	258.78
220.338	305.59
220.805	275.16
221.271	263.46
221.738	286.86
222.205	275.16
222.671	237.71
223.138	186.22
223.605	244.73
224.071	279.84
224.538	326.65
225.004	218.99
225.47	216.65
225.937	207.28
226.403	244.73
226.869	310.27
227.335	237.71
227.801	286.86
228.267	272.82
228.733	282.18
229.199	254.09
229.665	298.56
230.131	261.12
230.597	314.95
231.062	249.41
231.528	343.03
231.994	254.09
232.459	310.27
232.925	256.43
233.39	237.71
233.856	228.35
234.321	277.5
234.786	216.65
235.252	303.25
235.717	195.58
236.182	251.75
236.647	284.52
237.112	291.54
237.577	275.16
238.042	371.12
238.507	235.37
238.972	284.52
239.436	249.41
239.901	307.93
240.366	251.75
240.83	240.05
241.295	228.35
241.76	265.8
242.224	296.22
242.688	277.5
243.153	242.39
243.617	247.07
244.081	228.35
244.545	279.84
245.01	312.61
245.474	254.09
245.938	312.61
246.402	261.12
246.866	291.54
247.33	270.48
247.793	343.03
248.257	204.94
248.721	263.46
249.185	272.82
249.648	310.27
250.112	195.58
250.575	230.69
251.039	310.27
251.502	240.05
251.965	286.86
252.429	244.73
252.892	336.01
253.355	305.59
253.818	214.31
254.281	298.56
254.744	272.82
255.207	263.46
255.67	256.43
256.133	324.31
256.596	240.05
257.059	272.82
257.522	277.5
257.984	275.16
258.447	317.29
258.909	279.84
259.372	333.67
259.834	317.29
260.297	233.03
260.759	277.5
261.221	263.46
261.684	331.33
262.146	319.63
262.608	291.54
263.07	265.8
263.532	300.91
263.994	233.03
264.456	263.46
264.918	277.5
265.38	261.12
265.842	268.14
266.303	352.4
266.765	277.5
267.227	284.52
267.688	319.63
268.15	345.38
268.611	298.56
269.072	237.71
269.534	251.75
269.995	310.27
270.456	300.91
270.918	300.91
271.379	326.65
271.84	277.5
272.301	296.22
272.762	300.91
273.223	310.27
273.684	310.27
274.144	261.12
274.605	321.97
275.066	296.22
275.527	263.46
275.987	221.33
276.448	291.54
276.908	247.07
277.369	298.56
277.829	296.22
278.289	340.69
278.75	352.4
279.21	275.16
279.67	263.46
280.13	307.93
280.59	275.16
281.05	336.01
281.51	307.93
281.97	286.86
282.43	268.14
282.89	270.48
283.35	296.22
283.809	343.03
284.269	233.03
284.729	265.8
285.188	268.14
285.648	233.03
286.107	279.84
286.567	352.4
287.026	312.61
287.485	331.33
287.944	314.95
288.404	282.18
288.863	237.71
289.322	298.56
289.781	368.78
290.24	378.14
290.699	338.35
291.158	354.74
291.616	254.09
292.075	326.65
292.534	321.97
292.992	338.35
293.451	319.63
293.91	319.63
294.368	300.91
294.827	317.29
295.285	300.91
295.743	226.01
296.202	296.22
296.66	338.35
297.118	277.5
297.576	277.5
298.034	235.37
298.492	284.52
298.95	300.91
299.408	331.33
299.866	321.97
300.324	357.08
300.781	307.93
301.239	314.95
301.697	340.69
302.154	261.12
302.612	305.59
303.069	291.54
303.527	270.48
303.984	275.16
304.441	300.91
304.899	270.48
305.356	319.63
305.813	197.92
306.27	303.25
306.727	291.54
307.184	240.05
307.641	291.54
308.098	254.09
308.555	279.84
309.012	249.41
309.468	321.97
309.925	282.18
310.382	347.72
310.838	305.59
311.295	336.01
311.751	340.69
312.208	310.27
312.664	291.54
313.12	284.52
313.577	300.91
314.033	289.2
314.489	291.54
314.945	254.09
315.401	303.25
315.857	282.18
316.313	286.86
316.769	375.8
317.225	286.86
317.681	312.61
318.136	300.91
318.592	275.16
319.048	305.59
319.503	303.25
319.959	279.84
320.414	333.67
320.869	373.46
321.325	261.12
321.78	321.97
322.235	277.5
322.691	326.65
323.146	338.35
323.601	244.73
324.056	317.29
324.511	284.52
324.966	272.82
325.421	305.59
325.875	263.46
326.33	258.78
326.785	331.33
327.24	333.67
327.694	298.56
328.149	254.09
328.603	307.93
329.058	317.29
329.512	228.35
329.966	277.5
330.421	300.91
330.875	296.22
331.329	328.99
331.783	336.01
332.237	303.25
332.691	310.27
333.145	321.97
333.599	286.86
334.053	357.08
334.507	303.25
334.96	263.46
335.414	359.42
335.868	275.16
336.321	361.76
336.775	298.56
337.228	324.31
337.682	340.69
338.135	275.16
338.588	368.78
339.042	366.44
339.495	284.52
339.948	303.25
340.401	354.74
340.854	279.84
341.307	343.03
341.76	364.1
342.213	289.2
342.666	385.16
343.119	333.67
343.571	307.93
344.024	328.99
344.477	357.08
344.929	286.86
345.382	275.16
345.834	310.27
346.287	268.14
346.739	296.22
347.191	307.93
347.644	326.65
348.096	380.48
348.548	279.84
349	275.16
349.452	282.18
349.904	347.72
350.356	298.56
350.808	343.03
351.26	336.01
351.711	263.46
352.163	328.99
352.615	324.31
353.066	350.06
353.518	291.54
353.969	357.08
354.421	249.41
354.872	312.61
355.324	387.5
355.775	263.46
356.226	291.54
356.677	251.75
357.128	307.93
357.579	275.16
358.03	226.01
358.481	319.63
358.932	249.41
359.383	324.31
359.834	317.29
360.285	296.22
360.735	333.67
361.186	345.38
361.637	270.48
362.087	371.12
362.538	321.97
362.988	321.97
363.438	366.44
363.889	296.22
364.339	326.65
364.789	359.42
365.239	340.69
365.689	361.76
366.139	350.06
366.589	333.67
367.039	270.48
367.489	321.97
367.939	298.56
368.389	354.74
368.839	251.75
369.288	249.41
369.738	279.84
370.187	347.72
370.637	366.44
371.086	357.08
371.536	321.97
371.985	338.35
372.434	314.95
372.884	286.86
373.333	268.14
373.782	317.29
374.231	343.03
374.68	340.69
375.129	289.2
375.578	303.25
376.027	272.82
376.475	326.65
376.924	340.69
377.373	375.8
377.822	331.33
378.27	357.08
378.719	286.86
379.167	331.33
379.616	282.18
380.064	345.38
380.512	296.22
380.961	336.01
381.409	312.61
381.857	282.18
382.305	343.03
382.753	354.74
383.201	249.41
383.649	340.69
384.097	310.27
384.545	279.84
384.992	282.18
385.44	279.84
385.888	368.78
386.335	319.63
386.783	347.72
387.231	282.18
387.678	277.5
388.125	340.69
388.573	314.95
389.02	328.99
389.467	310.27
389.914	387.5
390.362	345.38
390.809	289.2
391.256	296.22
391.703	240.05
392.15	359.42
392.596	324.31
393.043	361.76
393.49	223.67
393.937	382.82
394.383	359.42
394.83	350.06
395.276	317.29
395.723	314.95
396.169	282.18
396.616	307.93
397.062	350.06
397.508	324.31
397.954	293.88
398.401	305.59
398.847	389.85
399.293	256.43
399.739	345.38
400.185	401.55
400.631	223.67
401.076	382.82
401.522	321.97
401.968	380.48
402.414	300.91
402.859	300.91
403.305	399.21
403.75	415.59
404.196	345.38
404.641	361.76
405.086	413.25
405.532	354.74
405.977	368.78
406.422	272.82
406.867	336.01
407.312	371.12
407.757	333.67
408.202	345.38
408.647	366.44
409.092	282.18
409.537	378.14
409.982	415.59
410.426	352.4
410.871	328.99
411.316	352.4
411.76	396.87
412.205	326.65
412.649	331.33
413.093	272.82
413.538	256.43
413.982	289.2
414.426	272.82
414.87	293.88
415.314	300.91
415.758	307.93
416.202	300.91
416.646	319.63
417.09	289.2
417.534	333.67
417.978	291.54
418.421	324.31
418.865	305.59
419.309	343.03
419.752	247.07
420.196	277.5
420.639	331.33
421.083	317.29
421.526	289.2
421.969	326.65
422.412	410.91
422.856	368.78
423.299	324.31
423.742	286.86
424.185	319.63
424.628	347.72
425.071	336.01
425.513	373.46
425.956	387.5
426.399	375.8
426.842	319.63
427.284	380.48
427.727	375.8
428.169	312.61
428.612	375.8
429.054	389.85
429.497	307.93
429.939	366.44
430.381	382.82
430.823	389.85
431.265	350.06
431.707	352.4
432.149	357.08
432.591	436.66
433.033	443.68
433.475	350.06
433.917	331.33
434.359	436.66
434.8	490.49
435.242	560.7
435.684	471.76
436.125	439
436.567	513.89
437.008	457.72
437.449	413.25
437.891	424.95
438.332	483.47
438.773	427.29
439.214	436.66
439.656	478.79
440.097	462.4
440.538	490.49
440.978	453.04
441.419	462.4
441.86	446.02
442.301	429.63
442.742	410.91
443.182	499.85
443.623	467.08
444.063	495.17
444.504	441.34
444.944	464.74
445.385	448.36
445.825	539.64
446.265	506.87
446.706	492.83
447.146	485.81
447.586	520.92
448.026	527.94
448.466	502.19
448.906	495.17
449.346	446.02
449.786	495.17
450.225	467.08
450.665	424.95
451.105	422.61
451.544	467.08
451.984	464.74
452.424	483.47
452.863	485.81
453.302	441.34
453.742	422.61
454.181	462.4
454.62	471.76
455.059	460.06
455.499	436.66
455.938	511.55
456.377	424.95
456.816	453.04
457.254	417.93
457.693	476.45
458.132	406.23
458.571	387.5
459.01	392.19
459.448	387.5
459.887	375.8
460.325	439
460.764	429.63
461.202	347.72
461.641	410.91
462.079	455.38
462.517	394.53
462.955	399.21
463.393	446.02
463.832	408.57
464.27	378.14
464.708	441.34
465.145	354.74
465.583	373.46
466.021	396.87
466.459	326.65
466.897	385.16
467.334	361.76
467.772	385.16
468.209	317.29
468.647	413.25
469.084	347.72
469.522	378.14
469.959	375.8
470.396	361.76
470.833	394.53
471.271	319.63
471.708	453.04
472.145	366.44
472.582	378.14
473.019	328.99
473.456	352.4
473.892	354.74
474.329	324.31
474.766	368.78
475.202	314.95
475.639	387.5
476.076	366.44
476.512	317.29
476.949	392.19
477.385	336.01
477.821	373.46
478.258	324.31
478.694	403.89
479.13	343.03
479.566	394.53
480.002	361.76
480.438	350.06
480.874	338.35
481.31	336.01
481.746	375.8
482.181	359.42
482.617	424.95
483.053	408.57
483.488	380.48
483.924	408.57
484.36	364.1
484.795	387.5
485.23	410.91
485.666	396.87
486.101	415.59
486.536	474.1
486.971	439
487.407	394.53
487.842	462.4
488.277	410.91
488.712	415.59
489.146	427.29
489.581	446.02
490.016	439
490.451	413.25
490.885	396.87
491.32	434.32
491.755	481.13
492.189	361.76
492.624	380.48
493.058	382.82
493.492	410.91
493.927	443.68
494.361	439
494.795	406.23
495.229	352.4
495.663	403.89
496.097	396.87
496.531	436.66
496.965	359.42
497.399	420.27
497.833	403.89
498.266	378.14
498.7	382.82
499.134	406.23
499.567	343.03
500.001	408.57
500.434	364.1
500.868	399.21
501.301	368.78
501.734	392.19
502.168	401.55
502.601	399.21
503.034	368.78
503.467	382.82
503.9	375.8
504.333	436.66
504.766	392.19
505.199	392.19
505.632	282.18
506.064	347.72
506.497	359.42
506.93	352.4
507.362	427.29
507.795	366.44
508.227	394.53
508.66	406.23
509.092	401.55
509.524	424.95
509.956	399.21
510.389	375.8
510.821	410.91
511.253	385.16
511.685	368.78
512.117	392.19
512.549	361.76
512.981	441.34
513.412	389.85
513.844	439
514.276	413.25
514.707	364.1
515.139	389.85
515.571	410.91
516.002	399.21
516.433	305.59
516.865	389.85
517.296	406.23
517.727	399.21
518.159	429.63
518.59	382.82
519.021	406.23
519.452	420.27
519.883	364.1
520.314	417.93
520.744	343.03
521.175	387.5
521.606	413.25
522.037	427.29
522.467	443.68
522.898	424.95
523.328	396.87
523.759	469.42
524.189	434.32
524.62	378.14
525.05	448.36
525.48	443.68
525.91	403.89
526.341	462.4
526.771	401.55
527.201	347.72
527.631	359.42
528.061	361.76
528.49	401.55
528.92	347.72
529.35	422.61
529.78	439
530.209	415.59
530.639	361.76
531.068	408.57
531.498	375.8
531.927	366.44
532.357	350.06
532.786	392.19
533.215	396.87
533.644	394.53
534.074	403.89
534.503	429.63
534.932	497.51
535.361	415.59
535.79	446.02
536.218	399.21
536.647	366.44
537.076	431.98
537.505	462.4
537.933	476.45
538.362	424.95
538.79	417.93
539.219	469.42
539.647	434.32
540.076	492.83
540.504	584.11
540.932	584.11
541.36	670.71
541.788	607.52
542.217	626.24
542.645	630.92
543.073	696.46
543.5	635.6
543.928	708.16
544.356	740.93
544.784	715.18
545.211	733.9
545.639	670.71
546.067	687.09
546.494	642.62
546.922	551.34
547.349	560.7
547.776	574.75
548.204	429.63
548.631	410.91
549.058	450.7
549.485	478.79
549.912	453.04
550.339	469.42
550.766	450.7
551.193	389.85
551.62	455.38
552.047	504.53
552.474	427.29
552.9	394.53
553.327	410.91
553.754	434.32
554.18	380.48
554.607	392.19
555.033	455.38
555.459	441.34
555.886	448.36
556.312	443.68
556.738	371.12
557.164	382.82
557.59	497.51
558.016	469.42
558.442	396.87
558.868	476.45
559.294	417.93
559.72	357.08
560.145	375.8
560.571	429.63
560.997	371.12
561.422	373.46
561.848	394.53
562.273	408.57
562.699	431.98
563.124	429.63
563.549	417.93
563.974	347.72
564.4	410.91
564.825	427.29
565.25	431.98
565.675	392.19
566.1	446.02
566.525	413.25
566.95	406.23
567.374	380.48
567.799	417.93
568.224	382.82
568.648	371.12
569.073	424.95
569.497	364.1
569.922	396.87
570.346	408.57
570.771	429.63
571.195	392.19
571.619	422.61
572.043	373.46
572.467	401.55
572.891	347.72
573.315	422.61
573.739	422.61
574.163	394.53
574.587	375.8
575.011	403.89
575.435	385.16
575.858	450.7
576.282	464.74
576.705	460.06
577.129	474.1
577.552	361.76
577.976	488.15
578.399	401.55
578.822	422.61
579.245	457.72
579.669	429.63
580.092	422.61
580.515	436.66
580.938	446.02
581.361	506.87
581.784	375.8
582.206	394.53
582.629	457.72
583.052	401.55
583.474	488.15
583.897	385.16
584.32	413.25
584.742	347.72
585.165	469.42
585.587	399.21
586.009	497.51
586.431	455.38
586.854	488.15
587.276	497.51
587.698	415.59
588.12	520.92
588.542	439
588.964	403.89
589.386	375.8
589.807	406.23
590.229	415.59
590.651	450.7
591.073	399.21
591.494	408.57
591.916	373.46
592.337	354.74
592.759	347.72
593.18	354.74
593.601	336.01
594.022	385.16
594.444	469.42
594.865	380.48
595.286	366.44
595.707	371.12
596.128	361.76
596.549	394.53
596.97	439
597.39	408.57
597.811	373.46
598.232	387.5
598.652	371.12
599.073	436.66
599.494	387.5
599.914	469.42
600.334	457.72
600.755	410.91
601.175	261.12
601.595	406.23
602.015	371.12
602.436	403.89
602.856	553.68
603.276	366.44
603.696	364.1
604.115	396.87
604.535	422.61
604.955	333.67
605.375	375.8
605.794	375.8
606.214	387.5
606.634	450.7
607.053	345.38
607.473	399.21
607.892	403.89
608.311	406.23
608.731	366.44
609.15	427.29
609.569	574.75
609.988	698.8
610.407	710.5
610.826	792.42
611.245	827.53
611.664	719.86
612.083	743.27
612.501	633.26
612.92	560.7
613.339	584.11
613.757	544.32
614.176	518.57
614.594	434.32
615.013	460.06
615.431	485.81
615.85	469.42
616.268	429.63
616.686	392.19
617.104	413.25
617.522	427.29
617.94	399.21
618.358	361.76
618.776	403.89
619.194	436.66
619.612	481.13
620.03	401.55
620.447	364.1
620.865	422.61
621.282	457.72
621.7	336.01
622.117	431.98
622.535	422.61
622.952	343.03
623.369	417.93
623.787	413.25
624.204	403.89
624.621	399.21
625.038	359.42
625.455	392.19
625.872	366.44
626.289	366.44
626.706	396.87
627.123	303.25
627.539	371.12
627.956	389.85
628.373	375.8
628.789	373.46
629.206	326.65
629.622	359.42
630.038	387.5
630.455	338.35
630.871	375.8
631.287	431.98
631.703	336.01
632.12	368.78
632.536	389.85
632.952	366.44
633.368	352.4
633.783	394.53
634.199	331.33
634.615	382.82
635.031	361.76
635.446	387.5
635.862	333.67
636.277	387.5
636.693	305.59
637.108	382.82
637.524	350.06
637.939	340.69
638.354	340.69
638.77	312.61
639.185	333.67
639.6	392.19
640.015	387.5
640.43	378.14
640.845	401.55
641.259	359.42
641.674	286.86
642.089	345.38
642.504	354.74
642.918	352.4
643.333	350.06
643.747	387.5
644.162	361.76
644.576	328.99
644.991	312.61
645.405	354.74
645.819	373.46
646.233	303.25
646.647	347.72
647.061	307.93
647.475	417.93
647.889	347.72
648.303	420.27
648.717	333.67
649.131	338.35
649.545	345.38
649.958	291.54
650.372	394.53
650.785	289.2
651.199	366.44
651.612	380.48
652.026	366.44
652.439	305.59
652.852	333.67
653.266	300.91
653.679	312.61
654.092	328.99
654.505	350.06
654.918	382.82
655.331	328.99
655.744	270.48
656.156	291.54
656.569	270.48
656.982	328.99
657.394	328.99
657.807	394.53
658.22	328.99
658.632	385.16
659.044	389.85
659.457	319.63
659.869	310.27
660.281	319.63
660.693	324.31
661.106	298.56
661.518	296.22
661.93	338.35
662.342	347.72
662.754	364.1
663.165	352.4
663.577	340.69
663.989	305.59
664.401	263.46
664.812	324.31
665.224	373.46
665.635	326.65
666.047	382.82
666.458	394.53
666.869	364.1
667.281	310.27
667.692	310.27
668.103	343.03
668.514	319.63
668.925	347.72
669.336	352.4
669.747	268.14
670.158	289.2
670.569	371.12
670.979	333.67
671.39	270.48
671.801	293.88
672.211	305.59
672.622	284.52
673.032	303.25
673.443	296.22
673.853	392.19
674.263	331.33
674.674	326.65
675.084	340.69
675.494	364.1
675.904	300.91
676.314	345.38
676.724	357.08
677.134	321.97
677.544	338.35
677.953	338.35
678.363	328.99
678.773	352.4
679.182	326.65
679.592	291.54
680.001	300.91
680.411	357.08
680.82	270.48
681.23	357.08
681.639	343.03
682.048	319.63
682.457	300.91
682.866	324.31
683.275	357.08
683.684	284.52
684.093	286.86
684.502	361.76
684.911	242.39
685.32	314.95
685.728	326.65
686.137	303.25
686.546	298.56
686.954	310.27
687.363	284.52
687.771	399.21
688.179	364.1
688.588	310.27
688.996	314.95
689.404	336.01
689.812	354.74
690.22	366.44
690.628	361.76
691.036	307.93
691.444	300.91
691.852	375.8
692.26	328.99
692.667	368.78
693.075	385.16
693.483	333.67
693.89	314.95
694.298	319.63
694.705	350.06
695.112	352.4
695.52	396.87
695.927	364.1
696.334	357.08
696.741	434.32
697.148	289.2
697.555	434.32
697.962	319.63
698.369	300.91
698.776	373.46
699.183	305.59
699.59	293.88
699.996	328.99
700.403	338.35
700.81	296.22
701.216	382.82
701.623	321.97
702.029	347.72
702.435	352.4
702.842	326.65
703.248	310.27
703.654	298.56
704.06	347.72
704.466	350.06
704.872	343.03
705.278	333.67
705.684	328.99
706.09	263.46
706.496	293.88
706.901	378.14
707.307	354.74
707.712	286.86
708.118	286.86
708.523	293.88
708.929	373.46
709.334	324.31
709.74	354.74
710.145	354.74
710.55	312.61
710.955	305.59
711.36	350.06
711.765	352.4
712.17	282.18
712.575	321.97
712.98	982
713.385	424.95
713.789	265.8
714.194	286.86
714.599	303.25
715.003	380.48
715.408	317.29
715.812	350.06
716.217	336.01
716.621	279.84
717.025	307.93
717.429	268.14
717.833	284.52
718.238	328.99
718.642	314.95
719.046	394.53
719.449	373.46
719.853	303.25
720.257	361.76
720.661	326.65
721.065	286.86
721.468	319.63
721.872	350.06
722.275	331.33
722.679	319.63
723.082	312.61
723.485	226.01
723.889	326.65
724.292	350.06
724.695	291.54
725.098	284.52
725.501	226.01
725.904	277.5
726.307	321.97
726.71	268.14
727.113	401.55
727.516	319.63
727.918	359.42
728.321	317.29
728.724	354.74
729.126	324.31
729.529	282.18
729.931	307.93
730.333	333.67
730.736	286.86
731.138	345.38
731.54	272.82
731.942	366.44
732.344	284.52
732.746	317.29
733.148	282.18
733.55	272.82
733.952	333.67
734.354	321.97
734.756	333.67
735.157	263.46
735.559	286.86
735.96	321.97
736.362	312.61
736.763	326.65
737.165	319.63
737.566	270.48
737.967	336.01
738.368	336.01
738.77	328.99
739.171	254.09
739.572	268.14
739.973	282.18
740.374	324.31
740.774	399.21
741.175	305.59
741.576	289.2
741.977	310.27
742.377	350.06
742.778	368.78
743.178	340.69
743.579	361.76
743.979	286.86
744.379	336.01
744.78	270.48
745.18	303.25
745.58	312.61
745.98	293.88
746.38	352.4
746.78	310.27
747.18	336.01
747.58	270.48
747.98	289.2
748.38	303.25
748.779	300.91
749.179	333.67
749.578	328.99
749.978	296.22
750.377	340.69
750.777	305.59
751.176	373.46
751.575	333.67
751.975	350.06
752.374	270.48
752.773	336.01
753.172	268.14
753.571	237.71
753.97	317.29
754.369	324.31
754.768	324.31
755.166	345.38
755.565	312.61
755.964	305.59
756.362	340.69
756.761	326.65
757.159	361.76
757.558	317.29
757.956	350.06
758.354	303.25
758.753	286.86
759.151	354.74
759.549	333.67
759.947	293.88
760.345	298.56
760.743	242.39
761.141	310.27
761.539	293.88
761.936	298.56
762.334	352.4
762.732	291.54
763.129	272.82
763.527	392.19
763.924	357.08
764.322	270.48
764.719	366.44
765.117	268.14
765.514	352.4
