Data from Al_FLMS009871__1166__16-38-02-487.txt Node

Date: Fri Mar 08 16:38:02 CST 2024
User: pe5414po
Spectrometer: FLMS00987
Trigger mode: 0
Integration Time (sec): 1.000000E-1
Scans to average: 1
Electric dark correction enabled: true
Nonlinearity correction enabled: false
Boxcar width: 0
XAxis mode: Wavelengths
Number of Pixels in Spectrum: 2048
>>>>>Begin Spectral Data<<<<<
188.938	-111.76
189.409	-111.76
189.879	-111.76
190.349	-46.23
190.819	-69.63
191.29	-78.99
191.76	-156.23
192.23	-15.8
192.7	-74.31
193.17	-53.25
193.64	-86.01
194.109	28.67
194.579	-8.78
195.049	-22.82
195.519	38.03
195.988	2.93
196.458	47.4
196.927	98.89
197.397	49.74
197.866	141.02
198.336	89.53
198.805	141.02
199.274	152.72
199.744	178.47
200.213	262.73
200.682	222.94
201.151	229.96
201.62	201.87
202.089	201.87
202.558	244
203.027	236.98
203.495	185.49
203.964	265.07
204.433	241.66
204.902	276.77
205.37	267.41
205.839	269.75
206.307	323.58
206.776	255.7
207.244	321.24
207.712	251.02
208.181	279.11
208.649	260.38
209.117	295.49
209.585	267.41
210.053	321.24
210.521	269.75
210.989	255.7
211.457	255.7
211.925	255.7
212.393	248.68
212.861	274.43
213.328	272.09
213.796	267.41
214.264	361.03
214.731	311.88
215.199	258.04
215.666	281.45
216.133	232.3
216.601	232.3
217.068	253.36
217.535	302.51
218.003	229.96
218.47	227.62
218.937	265.07
219.404	276.77
219.871	258.04
220.338	293.15
220.805	258.04
221.271	244
221.738	204.21
222.205	190.17
222.671	253.36
223.138	269.75
223.605	248.68
224.071	251.02
224.538	225.28
225.004	211.23
225.47	251.02
225.937	293.15
226.403	321.24
226.869	286.13
227.335	241.66
227.801	246.34
228.267	276.77
228.733	295.49
229.199	316.56
229.665	232.3
230.131	244
230.597	288.47
231.062	260.38
231.528	246.34
231.994	302.51
232.459	262.73
232.925	232.3
233.39	325.92
233.856	234.64
234.321	346.98
234.786	215.91
235.252	251.02
235.717	279.11
236.182	304.85
236.647	290.81
237.112	314.22
237.577	255.7
238.042	241.66
238.507	269.75
238.972	239.32
239.436	283.79
239.901	295.49
240.366	283.79
240.83	297.83
241.295	222.94
241.76	286.13
242.224	246.34
242.688	253.36
243.153	246.34
243.617	265.07
244.081	260.38
244.545	234.64
245.01	281.45
245.474	281.45
245.938	215.91
246.402	311.88
246.866	346.98
247.33	276.77
247.793	197.19
248.257	272.09
248.721	229.96
249.185	290.81
249.648	246.34
250.112	229.96
250.575	244
251.039	293.15
251.502	323.58
251.965	300.17
252.429	274.43
252.892	234.64
253.355	262.73
253.818	279.11
254.281	328.26
254.744	286.13
255.207	229.96
255.67	253.36
256.133	251.02
256.596	314.22
257.059	269.75
257.522	246.34
257.984	295.49
258.447	232.3
258.909	307.2
259.372	307.2
259.834	314.22
260.297	307.2
260.759	325.92
261.221	391.45
261.684	307.2
262.146	232.3
262.608	251.02
263.07	274.43
263.532	260.38
263.994	283.79
264.456	269.75
264.918	283.79
265.38	286.13
265.842	325.92
266.303	323.58
266.765	260.38
267.227	318.9
267.688	218.25
268.15	297.83
268.611	316.56
269.072	274.43
269.534	239.32
269.995	248.68
270.456	232.3
270.918	260.38
271.379	295.49
271.84	335.28
272.301	279.11
272.762	279.11
273.223	302.51
273.684	232.3
274.144	274.43
274.605	274.43
275.066	283.79
275.527	234.64
275.987	251.02
276.448	290.81
276.908	314.22
277.369	253.36
277.829	253.36
278.289	251.02
278.75	337.62
279.21	241.66
279.67	258.04
280.13	295.49
280.59	227.62
281.05	276.77
281.51	251.02
281.97	288.47
282.43	288.47
282.89	258.04
283.35	311.88
283.809	316.56
284.269	349.32
284.729	241.66
285.188	218.25
285.648	239.32
286.107	302.51
286.567	314.22
287.026	321.24
287.485	290.81
287.944	288.47
288.404	201.87
288.863	307.2
289.322	290.81
289.781	342.3
290.24	274.43
290.699	255.7
291.158	288.47
291.616	229.96
292.075	293.15
292.534	258.04
292.992	286.13
293.451	283.79
293.91	354.01
294.368	262.73
294.827	265.07
295.285	368.05
295.743	225.28
296.202	265.07
296.66	290.81
297.118	328.26
297.576	295.49
298.034	239.32
298.492	281.45
298.95	244
299.408	346.98
299.866	325.92
300.324	321.24
300.781	295.49
301.239	323.58
301.697	272.09
302.154	288.47
302.612	332.94
303.069	325.92
303.527	288.47
303.984	304.85
304.441	283.79
304.899	297.83
305.356	339.96
305.813	307.2
306.27	279.11
306.727	304.85
307.184	269.75
307.641	300.17
308.098	293.15
308.555	288.47
309.012	330.6
309.468	349.32
309.925	318.9
310.382	314.22
310.838	311.88
311.295	239.32
311.751	276.77
312.208	351.67
312.664	222.94
313.12	346.98
313.577	297.83
314.033	325.92
314.489	255.7
314.945	335.28
315.401	281.45
315.857	311.88
316.313	260.38
316.769	290.81
317.225	344.64
317.681	309.54
318.136	300.17
318.592	307.2
319.048	276.77
319.503	279.11
319.959	384.43
320.414	262.73
320.869	297.83
321.325	330.6
321.78	279.11
322.235	309.54
322.691	286.13
323.146	321.24
323.601	295.49
324.056	251.02
324.511	248.68
324.966	344.64
325.421	253.36
325.875	307.2
326.33	269.75
326.785	344.64
327.24	349.32
327.694	309.54
328.149	335.28
328.603	288.47
329.058	339.96
329.512	346.98
329.966	384.43
330.421	274.43
330.875	316.56
331.329	323.58
331.783	244
332.237	318.9
332.691	262.73
333.145	311.88
333.599	311.88
334.053	304.85
334.507	290.81
334.96	342.3
335.414	365.71
335.868	323.58
336.321	354.01
336.775	375.07
337.228	255.7
337.682	346.98
338.135	316.56
338.588	321.24
339.042	351.67
339.495	309.54
339.948	281.45
340.401	335.28
340.854	309.54
341.307	330.6
341.76	361.03
342.213	290.81
342.666	321.24
343.119	295.49
343.571	351.67
344.024	302.51
344.477	295.49
344.929	375.07
345.382	377.41
345.834	255.7
346.287	258.04
346.739	269.75
347.191	300.17
347.644	178.47
348.096	272.09
348.548	307.2
349	302.51
349.452	300.17
349.904	361.03
350.356	342.3
350.808	325.92
351.26	295.49
351.711	267.41
352.163	335.28
352.615	307.2
353.066	316.56
353.518	358.69
353.969	354.01
354.421	232.3
354.872	330.6
355.324	279.11
355.775	356.35
356.226	368.05
356.677	311.88
357.128	398.48
357.579	283.79
358.03	281.45
358.481	234.64
358.932	239.32
359.383	251.02
359.834	286.13
360.285	318.9
360.735	346.98
361.186	297.83
361.637	335.28
362.087	307.2
362.538	276.77
362.988	342.3
363.438	321.24
363.889	354.01
364.339	307.2
364.789	307.2
365.239	269.75
365.689	253.36
366.139	363.37
366.589	330.6
367.039	293.15
367.489	325.92
367.939	286.13
368.389	311.88
368.839	309.54
369.288	281.45
369.738	283.79
370.187	274.43
370.637	309.54
371.086	286.13
371.536	281.45
371.985	375.07
372.434	286.13
372.884	389.11
373.333	330.6
373.782	286.13
374.231	295.49
374.68	255.7
375.129	269.75
375.578	309.54
376.027	307.2
376.475	274.43
376.924	342.3
377.373	279.11
377.822	244
378.27	269.75
378.719	346.98
379.167	349.32
379.616	335.28
380.064	342.3
380.512	222.94
380.961	253.36
381.409	276.77
381.857	325.92
382.305	297.83
382.753	368.05
383.201	304.85
383.649	297.83
384.097	363.37
384.545	325.92
384.992	379.75
385.44	311.88
385.888	274.43
386.335	302.51
386.783	274.43
387.231	288.47
387.678	370.39
388.125	314.22
388.573	234.64
389.02	342.3
389.467	382.09
389.914	265.07
390.362	321.24
390.809	290.81
391.256	260.38
391.703	279.11
392.15	197.19
392.596	318.9
393.043	248.68
393.49	241.66
393.937	302.51
394.383	295.49
394.83	332.94
395.276	358.69
395.723	293.15
396.169	346.98
396.616	354.01
397.062	283.79
397.508	318.9
397.954	365.71
398.401	318.9
398.847	316.56
399.293	361.03
399.739	370.39
400.185	290.81
400.631	328.26
401.076	377.41
401.522	274.43
401.968	344.64
402.414	253.36
402.859	304.85
403.305	300.17
403.75	295.49
404.196	297.83
404.641	276.77
405.086	335.28
405.532	281.45
405.977	265.07
406.422	293.15
406.867	307.2
407.312	335.28
407.757	318.9
408.202	286.13
408.647	290.81
409.092	293.15
409.537	255.7
409.982	300.17
410.426	255.7
410.871	309.54
411.316	267.41
411.76	318.9
412.205	295.49
412.649	300.17
413.093	346.98
413.538	302.51
413.982	323.58
414.426	358.69
414.87	286.13
415.314	337.62
415.758	337.62
416.202	396.14
416.646	356.35
417.09	283.79
417.534	398.48
417.978	342.3
418.421	318.9
418.865	332.94
419.309	234.64
419.752	344.64
420.196	354.01
420.639	379.75
421.083	302.51
421.526	304.85
421.969	330.6
422.412	293.15
422.856	269.75
423.299	300.17
423.742	302.51
424.185	286.13
424.628	262.73
425.071	311.88
425.513	323.58
425.956	318.9
426.399	325.92
426.842	314.22
427.284	300.17
427.727	265.07
428.169	295.49
428.612	307.2
429.054	349.32
429.497	262.73
429.939	286.13
430.381	246.34
430.823	283.79
431.265	248.68
431.707	309.54
432.149	297.83
432.591	239.32
433.033	314.22
433.475	316.56
433.917	389.11
434.359	307.2
434.8	260.38
435.242	354.01
435.684	251.02
436.125	293.15
436.567	297.83
437.008	288.47
437.449	274.43
437.891	288.47
438.332	309.54
438.773	335.28
439.214	311.88
439.656	314.22
440.097	363.37
440.538	314.22
440.978	288.47
441.419	304.85
441.86	302.51
442.301	335.28
442.742	302.51
443.182	279.11
443.623	288.47
444.063	304.85
444.504	297.83
444.944	323.58
445.385	297.83
445.825	302.51
446.265	307.2
446.706	316.56
447.146	307.2
447.586	335.28
448.026	272.09
448.466	311.88
448.906	302.51
449.346	302.51
449.786	325.92
450.225	337.62
450.665	351.67
451.105	304.85
451.544	337.62
451.984	325.92
452.424	309.54
452.863	311.88
453.302	325.92
453.742	262.73
454.181	260.38
454.62	286.13
455.059	361.03
455.499	349.32
455.938	258.04
456.377	307.2
456.816	283.79
457.254	391.45
457.693	384.43
458.132	339.96
458.571	321.24
459.01	248.68
459.448	293.15
459.887	323.58
460.325	328.26
460.764	314.22
461.202	335.28
461.641	267.41
462.079	377.41
462.517	295.49
462.955	307.2
463.393	307.2
463.832	311.88
464.27	192.51
464.708	311.88
465.145	302.51
465.583	307.2
466.021	323.58
466.459	316.56
466.897	332.94
467.334	328.26
467.772	307.2
468.209	311.88
468.647	368.05
469.084	316.56
469.522	262.73
469.959	302.51
470.396	290.81
470.833	323.58
471.271	358.69
471.708	281.45
472.145	314.22
472.582	323.58
473.019	302.51
473.456	300.17
473.892	304.85
474.329	330.6
474.766	288.47
475.202	304.85
475.639	309.54
476.076	339.96
476.512	323.58
476.949	283.79
477.385	354.01
477.821	318.9
478.258	351.67
478.694	288.47
479.13	323.58
479.566	316.56
480.002	281.45
480.438	311.88
480.874	307.2
481.31	279.11
481.746	325.92
482.181	356.35
482.617	286.13
483.053	368.05
483.488	269.75
483.924	316.56
484.36	337.62
484.795	269.75
485.23	314.22
485.666	293.15
486.101	335.28
486.536	332.94
486.971	265.07
487.407	349.32
487.842	309.54
488.277	335.28
488.712	321.24
489.146	323.58
489.581	337.62
490.016	346.98
490.451	307.2
490.885	346.98
491.32	293.15
491.755	328.26
492.189	361.03
492.624	368.05
493.058	337.62
493.492	314.22
493.927	286.13
494.361	307.2
494.795	267.41
495.229	295.49
495.663	382.09
496.097	354.01
496.531	335.28
496.965	330.6
497.399	330.6
497.833	349.32
498.266	297.83
498.7	358.69
499.134	300.17
499.567	351.67
500.001	323.58
500.434	297.83
500.868	286.13
501.301	281.45
501.734	321.24
502.168	288.47
502.601	354.01
503.034	307.2
503.467	290.81
503.9	272.09
504.333	297.83
504.766	316.56
505.199	391.45
505.632	314.22
506.064	286.13
506.497	302.51
506.93	274.43
507.362	358.69
507.795	321.24
508.227	344.64
508.66	314.22
509.092	314.22
509.524	300.17
509.956	290.81
510.389	288.47
510.821	302.51
511.253	349.32
511.685	370.39
512.117	290.81
512.549	321.24
512.981	244
513.412	346.98
513.844	325.92
514.276	281.45
514.707	309.54
515.139	351.67
515.571	379.75
516.002	293.15
516.433	318.9
516.865	281.45
517.296	316.56
517.727	302.51
518.159	318.9
518.59	337.62
519.021	356.35
519.452	293.15
519.883	286.13
520.314	267.41
520.744	351.67
521.175	323.58
521.606	304.85
522.037	316.56
522.467	302.51
522.898	279.11
523.328	302.51
523.759	325.92
524.189	335.28
524.62	314.22
525.05	358.69
525.48	389.11
525.91	339.96
526.341	339.96
526.771	368.05
527.201	295.49
527.631	269.75
528.061	346.98
528.49	258.04
528.92	314.22
529.35	283.79
529.78	246.34
530.209	309.54
530.639	335.28
531.068	222.94
531.498	314.22
531.927	300.17
532.357	342.3
532.786	358.69
533.215	311.88
533.644	363.37
534.074	328.26
534.503	283.79
534.932	304.85
535.361	375.07
535.79	260.38
536.218	318.9
536.647	281.45
537.076	311.88
537.505	323.58
537.933	251.02
538.362	342.3
538.79	286.13
539.219	393.8
539.647	293.15
540.076	349.32
540.504	274.43
540.932	321.24
541.36	300.17
541.788	295.49
542.217	281.45
542.645	276.77
543.073	314.22
543.5	304.85
543.928	344.64
544.356	295.49
544.784	297.83
545.211	311.88
545.639	274.43
546.067	251.02
546.494	274.43
546.922	377.41
547.349	318.9
547.776	281.45
548.204	251.02
548.631	309.54
549.058	309.54
549.485	309.54
549.912	276.77
550.339	307.2
550.766	258.04
551.193	290.81
551.62	314.22
552.047	339.96
552.474	307.2
552.9	339.96
553.327	332.94
553.754	307.2
554.18	258.04
554.607	302.51
555.033	309.54
555.459	307.2
555.886	316.56
556.312	372.73
556.738	309.54
557.164	361.03
557.59	311.88
558.016	354.01
558.442	279.11
558.868	318.9
559.294	321.24
559.72	375.07
560.145	293.15
560.571	339.96
560.997	276.77
561.422	337.62
561.848	375.07
562.273	300.17
562.699	272.09
563.124	400.82
563.549	346.98
563.974	318.9
564.4	318.9
564.825	267.41
565.25	311.88
565.675	272.09
566.1	375.07
566.525	258.04
566.95	339.96
567.374	365.71
567.799	276.77
568.224	361.03
568.648	255.7
569.073	234.64
569.497	351.67
569.922	307.2
570.346	255.7
570.771	323.58
571.195	323.58
571.619	330.6
572.043	325.92
572.467	318.9
572.891	307.2
573.315	316.56
573.739	318.9
574.163	274.43
574.587	332.94
575.011	297.83
575.435	302.51
575.858	262.73
576.282	304.85
576.705	325.92
577.129	260.38
577.552	300.17
577.976	276.77
578.399	265.07
578.822	335.28
579.245	293.15
579.669	361.03
580.092	297.83
580.515	323.58
580.938	279.11
581.361	276.77
581.784	330.6
582.206	330.6
582.629	316.56
583.052	325.92
583.474	349.32
583.897	361.03
584.32	318.9
584.742	344.64
585.165	255.7
585.587	314.22
586.009	302.51
586.431	290.81
586.854	339.96
587.276	304.85
587.698	339.96
588.12	300.17
588.542	309.54
588.964	318.9
589.386	316.56
589.807	309.54
590.229	342.3
590.651	304.85
591.073	300.17
591.494	386.77
591.916	332.94
592.337	330.6
592.759	316.56
593.18	314.22
593.601	365.71
594.022	330.6
594.444	300.17
594.865	283.79
595.286	339.96
595.707	295.49
596.128	300.17
596.549	328.26
596.97	286.13
597.39	304.85
597.811	321.24
598.232	314.22
598.652	318.9
599.073	232.3
599.494	386.77
599.914	276.77
600.334	288.47
600.755	318.9
601.175	297.83
601.595	286.13
602.015	302.51
602.436	325.92
602.856	389.11
603.276	321.24
603.696	293.15
604.115	304.85
604.535	288.47
604.955	274.43
605.375	314.22
605.794	342.3
606.214	354.01
606.634	311.88
607.053	314.22
607.473	344.64
607.892	274.43
608.311	358.69
608.731	365.71
609.15	349.32
609.569	288.47
609.988	276.77
610.407	286.13
610.826	323.58
611.245	276.77
611.664	297.83
612.083	354.01
612.501	335.28
612.92	302.51
613.339	344.64
613.757	274.43
614.176	288.47
614.594	297.83
615.013	361.03
615.431	293.15
615.85	328.26
616.268	325.92
616.686	316.56
617.104	354.01
617.522	318.9
617.94	337.62
618.358	288.47
618.776	274.43
619.194	311.88
619.612	337.62
620.03	342.3
620.447	269.75
620.865	361.03
621.282	342.3
621.7	295.49
622.117	255.7
622.535	269.75
622.952	358.69
623.369	330.6
623.787	260.38
624.204	318.9
624.621	330.6
625.038	337.62
625.455	323.58
625.872	349.32
626.289	309.54
626.706	309.54
627.123	281.45
627.539	316.56
627.956	276.77
628.373	304.85
628.789	300.17
629.206	300.17
629.622	302.51
630.038	339.96
630.455	297.83
630.871	323.58
631.287	337.62
631.703	276.77
632.12	253.36
632.536	288.47
632.952	325.92
633.368	304.85
633.783	391.45
634.199	346.98
634.615	321.24
635.031	344.64
635.446	297.83
635.862	330.6
636.277	286.13
636.693	272.09
637.108	339.96
637.524	311.88
637.939	290.81
638.354	321.24
638.77	346.98
639.185	276.77
639.6	337.62
640.015	309.54
640.43	304.85
640.845	342.3
641.259	265.07
641.674	234.64
642.089	286.13
642.504	321.24
642.918	316.56
643.333	272.09
643.747	262.73
644.162	316.56
644.576	309.54
644.991	316.56
645.405	295.49
645.819	309.54
646.233	316.56
646.647	253.36
647.061	335.28
647.475	279.11
647.889	342.3
648.303	311.88
648.717	342.3
649.131	316.56
649.545	269.75
649.958	255.7
650.372	267.41
650.785	330.6
651.199	307.2
651.612	344.64
652.026	375.07
652.439	255.7
652.852	332.94
653.266	344.64
653.679	372.73
654.092	328.26
654.505	351.67
654.918	307.2
655.331	307.2
655.744	302.51
656.156	328.26
656.569	316.56
656.982	311.88
657.394	339.96
657.807	295.49
658.22	286.13
658.632	302.51
659.044	328.26
659.457	332.94
659.869	302.51
660.281	311.88
660.693	314.22
661.106	342.3
661.518	330.6
661.93	332.94
662.342	309.54
662.754	302.51
663.165	302.51
663.577	332.94
663.989	307.2
664.401	262.73
664.812	272.09
665.224	356.35
665.635	269.75
666.047	297.83
666.458	248.68
666.869	332.94
667.281	318.9
667.692	335.28
668.103	293.15
668.514	316.56
668.925	269.75
669.336	276.77
669.747	307.2
670.158	300.17
670.569	307.2
670.979	279.11
671.39	321.24
671.801	325.92
672.211	365.71
672.622	302.51
673.032	311.88
673.443	323.58
673.853	283.79
674.263	300.17
674.674	253.36
675.084	346.98
675.494	321.24
675.904	342.3
676.314	356.35
676.724	314.22
677.134	309.54
677.544	290.81
677.953	269.75
678.363	309.54
678.773	307.2
679.182	309.54
679.592	351.67
680.001	307.2
680.411	276.77
680.82	307.2
681.23	290.81
681.639	297.83
682.048	274.43
682.457	358.69
682.866	325.92
683.275	314.22
683.684	311.88
684.093	342.3
684.502	239.32
684.911	311.88
685.32	279.11
685.728	300.17
686.137	339.96
686.546	288.47
686.954	351.67
687.363	297.83
687.771	309.54
688.179	290.81
688.588	246.34
688.996	382.09
689.404	321.24
689.812	323.58
690.22	253.36
690.628	342.3
691.036	321.24
691.444	304.85
691.852	372.73
692.26	328.26
692.667	307.2
693.075	258.04
693.483	307.2
693.89	316.56
694.298	332.94
694.705	321.24
695.112	335.28
695.52	288.47
695.927	311.88
696.334	386.77
696.741	281.45
697.148	293.15
697.555	321.24
697.962	337.62
698.369	314.22
698.776	262.73
699.183	309.54
699.59	318.9
699.996	318.9
700.403	349.32
700.81	295.49
701.216	286.13
701.623	361.03
702.029	323.58
702.435	290.81
702.842	335.28
703.248	297.83
703.654	274.43
704.06	297.83
704.466	361.03
704.872	335.28
705.278	293.15
705.684	309.54
706.09	288.47
706.496	344.64
706.901	307.2
707.307	262.73
707.712	304.85
708.118	307.2
708.523	321.24
708.929	316.56
709.334	267.41
709.74	386.77
710.145	321.24
710.55	290.81
710.955	316.56
711.36	321.24
711.765	361.03
712.17	342.3
712.575	295.49
712.98	868.92
713.385	379.75
713.789	293.15
714.194	321.24
714.599	358.69
715.003	335.28
715.408	368.05
715.812	318.9
716.217	375.07
716.621	304.85
717.025	363.37
717.429	286.13
717.833	351.67
718.238	342.3
718.642	325.92
719.046	321.24
719.449	321.24
719.853	274.43
720.257	297.83
720.661	321.24
721.065	323.58
721.468	300.17
721.872	258.04
722.275	372.73
722.679	318.9
723.082	321.24
723.485	262.73
723.889	293.15
724.292	363.37
724.695	323.58
725.098	309.54
725.501	337.62
725.904	262.73
726.307	311.88
726.71	325.92
727.113	323.58
727.516	286.13
727.918	309.54
728.321	290.81
728.724	330.6
729.126	293.15
729.529	316.56
729.931	290.81
730.333	328.26
730.736	318.9
731.138	379.75
731.54	344.64
731.942	272.09
732.344	365.71
732.746	286.13
733.148	311.88
733.55	218.25
733.952	295.49
734.354	318.9
734.756	321.24
735.157	295.49
735.559	309.54
735.96	265.07
736.362	318.9
736.763	318.9
737.165	274.43
737.566	300.17
737.967	304.85
738.368	253.36
738.77	295.49
739.171	314.22
739.572	328.26
739.973	339.96
740.374	337.62
740.774	260.38
741.175	414.86
741.576	267.41
741.977	286.13
742.377	286.13
742.778	297.83
743.178	314.22
743.579	344.64
743.979	297.83
744.379	297.83
744.78	279.11
745.18	265.07
745.58	344.64
745.98	288.47
746.38	307.2
746.78	283.79
747.18	342.3
747.58	358.69
747.98	260.38
748.38	335.28
748.779	253.36
749.179	283.79
749.578	272.09
749.978	354.01
750.377	311.88
750.777	286.13
751.176	328.26
751.575	295.49
751.975	307.2
752.374	323.58
752.773	269.75
753.172	229.96
753.571	279.11
753.97	321.24
754.369	325.92
754.768	279.11
755.166	339.96
755.565	339.96
755.964	258.04
756.362	274.43
756.761	339.96
757.159	239.32
757.558	332.94
757.956	386.77
758.354	300.17
758.753	356.35
759.151	269.75
759.549	339.96
759.947	356.35
760.345	272.09
760.743	286.13
761.141	339.96
761.539	276.77
761.936	342.3
762.334	267.41
762.732	321.24
763.129	332.94
763.527	316.56
763.924	344.64
764.322	293.15
764.719	370.39
765.117	354.01
765.514	307.2
765.911	344.64
766.308	318.9
766.705	260.38
