Data from Al_FLMS009871__1160__16-38-01-887.txt Node

Date: Fri Mar 08 16:38:01 CST 2024
User: pe5414po
Spectrometer: FLMS00987
Trigger mode: 0
Integration Time (sec): 1.000000E-1
Scans to average: 1
Electric dark correction enabled: true
Nonlinearity correction enabled: false
Boxcar width: 0
XAxis mode: Wavelengths
Number of Pixels in Spectrum: 2048
>>>>>Begin Spectral Data<<<<<
188.938	-52.08
189.409	-52.08
189.879	-52.08
190.349	-131.66
190.819	-56.76
191.29	-119.95
191.76	-91.87
192.23	-94.21
192.7	-61.44
193.17	-112.93
193.64	-7.61
194.109	-12.29
194.579	-14.63
195.049	-16.97
195.519	13.46
195.988	1.76
196.458	-19.31
196.927	90.7
197.397	128.14
197.866	151.55
198.336	165.59
198.805	191.34
199.274	186.66
199.744	144.53
200.213	259.21
200.682	210.06
201.151	198.36
201.62	303.68
202.089	207.72
202.558	224.11
203.027	249.85
203.495	263.9
203.964	291.98
204.433	310.71
204.902	294.32
205.37	336.45
205.839	338.79
206.307	287.3
206.776	320.07
207.244	245.17
207.712	266.24
208.181	320.07
208.649	308.37
209.117	366.88
209.585	310.71
210.053	273.26
210.521	320.07
210.989	275.6
211.457	249.85
211.925	320.07
212.393	268.58
212.861	385.6
213.328	320.07
213.796	242.83
214.264	282.62
214.731	313.05
215.199	296.66
215.666	291.98
216.133	280.28
216.601	263.9
217.068	226.45
217.535	289.64
218.003	338.79
218.47	242.83
218.937	217.08
219.404	287.3
219.871	280.28
220.338	235.81
220.805	270.92
221.271	268.58
221.738	322.41
222.205	252.19
222.671	235.81
223.138	238.15
223.605	224.11
224.071	240.49
224.538	242.83
225.004	277.94
225.47	315.39
225.937	280.28
226.403	284.96
226.869	294.32
227.335	317.73
227.801	289.64
228.267	280.28
228.733	301.34
229.199	263.9
229.665	284.96
230.131	252.19
230.597	327.09
231.062	249.85
231.528	306.03
231.994	324.75
232.459	280.28
232.925	238.15
233.39	280.28
233.856	317.73
234.321	322.41
234.786	275.6
235.252	268.58
235.717	308.37
236.182	270.92
236.647	310.71
237.112	282.62
237.577	299
238.042	256.87
238.507	331.77
238.972	310.71
239.436	282.62
239.901	247.51
240.366	282.62
240.83	235.81
241.295	263.9
241.76	249.85
242.224	315.39
242.688	268.58
243.153	263.9
243.617	277.94
244.081	242.83
244.545	289.64
245.01	284.96
245.474	212.4
245.938	256.87
246.402	228.79
246.866	284.96
247.33	282.62
247.793	289.64
248.257	249.85
248.721	259.21
249.185	273.26
249.648	315.39
250.112	242.83
250.575	299
251.039	261.55
251.502	296.66
251.965	294.32
252.429	322.41
252.892	341.13
253.355	313.05
253.818	280.28
254.281	362.2
254.744	282.62
255.207	245.17
255.67	296.66
256.133	303.68
256.596	327.09
257.059	310.71
257.522	315.39
257.984	341.13
258.447	329.43
258.909	350.5
259.372	263.9
259.834	317.73
260.297	277.94
260.759	282.62
261.221	306.03
261.684	296.66
262.146	359.86
262.608	247.51
263.07	273.26
263.532	308.37
263.994	303.68
264.456	291.98
264.918	221.77
265.38	310.71
265.842	308.37
266.303	287.3
266.765	366.88
267.227	284.96
267.688	282.62
268.15	275.6
268.611	242.83
269.072	263.9
269.534	296.66
269.995	291.98
270.456	329.43
270.918	289.64
271.379	259.21
271.84	280.28
272.301	268.58
272.762	338.79
273.223	256.87
273.684	294.32
274.144	280.28
274.605	317.73
275.066	315.39
275.527	268.58
275.987	291.98
276.448	299
276.908	299
277.369	350.5
277.829	294.32
278.289	362.2
278.75	294.32
279.21	308.37
279.67	291.98
280.13	291.98
280.59	327.09
281.05	306.03
281.51	313.05
281.97	310.71
282.43	287.3
282.89	294.32
283.35	294.32
283.809	245.17
284.269	310.71
284.729	313.05
285.188	310.71
285.648	287.3
286.107	226.45
286.567	306.03
287.026	343.47
287.485	296.66
287.944	350.5
288.404	343.47
288.863	345.81
289.322	350.5
289.781	313.05
290.24	315.39
290.699	317.73
291.158	331.77
291.616	240.49
292.075	310.71
292.534	327.09
292.992	345.81
293.451	231.13
293.91	322.41
294.368	268.58
294.827	299
295.285	355.18
295.743	200.7
296.202	334.11
296.66	303.68
297.118	327.09
297.576	369.22
298.034	320.07
298.492	336.45
298.95	268.58
299.408	308.37
299.866	338.79
300.324	371.56
300.781	322.41
301.239	327.09
301.697	299
302.154	320.07
302.612	341.13
303.069	240.49
303.527	284.96
303.984	341.13
304.441	324.75
304.899	306.03
305.356	322.41
305.813	329.43
306.27	306.03
306.727	369.22
307.184	322.41
307.641	301.34
308.098	343.47
308.555	327.09
309.012	291.98
309.468	282.62
309.925	282.62
310.382	299
310.838	294.32
311.295	320.07
311.751	268.58
312.208	277.94
312.664	294.32
313.12	334.11
313.577	352.84
314.033	308.37
314.489	336.45
314.945	301.34
315.401	270.92
315.857	313.05
316.313	355.18
316.769	308.37
317.225	277.94
317.681	294.32
318.136	245.17
318.592	313.05
319.048	242.83
319.503	350.5
319.959	320.07
320.414	254.53
320.869	306.03
321.325	299
321.78	249.85
322.235	273.26
322.691	306.03
323.146	327.09
323.601	289.64
324.056	266.24
324.511	334.11
324.966	303.68
325.421	317.73
325.875	313.05
326.33	291.98
326.785	299
327.24	366.88
327.694	341.13
328.149	263.9
328.603	291.98
329.058	387.94
329.512	259.21
329.966	306.03
330.421	301.34
330.875	310.71
331.329	310.71
331.783	313.05
332.237	313.05
332.691	324.75
333.145	287.3
333.599	301.34
334.053	385.6
334.507	287.3
334.96	266.24
335.414	331.77
335.868	282.62
336.321	343.47
336.775	308.37
337.228	259.21
337.682	352.84
338.135	301.34
338.588	317.73
339.042	364.54
339.495	294.32
339.948	284.96
340.401	343.47
340.854	303.68
341.307	266.24
341.76	371.56
342.213	324.75
342.666	275.6
343.119	291.98
343.571	306.03
344.024	313.05
344.477	308.37
344.929	277.94
345.382	390.28
345.834	359.86
346.287	329.43
346.739	303.68
347.191	331.77
347.644	299
348.096	254.53
348.548	259.21
349	259.21
349.452	306.03
349.904	284.96
350.356	306.03
350.808	317.73
351.26	345.81
351.711	299
352.163	329.43
352.615	364.54
353.066	387.94
353.518	261.55
353.969	364.54
354.421	301.34
354.872	345.81
355.324	357.52
355.775	313.05
356.226	294.32
356.677	329.43
357.128	299
357.579	273.26
358.03	324.75
358.481	310.71
358.932	343.47
359.383	303.68
359.834	366.88
360.285	299
360.735	315.39
361.186	331.77
361.637	306.03
362.087	310.71
362.538	289.64
362.988	359.86
363.438	282.62
363.889	345.81
364.339	306.03
364.789	317.73
365.239	329.43
365.689	315.39
366.139	294.32
366.589	317.73
367.039	341.13
367.489	334.11
367.939	341.13
368.389	273.26
368.839	322.41
369.288	338.79
369.738	299
370.187	343.47
370.637	310.71
371.086	240.49
371.536	306.03
371.985	322.41
372.434	303.68
372.884	385.6
373.333	345.81
373.782	364.54
374.231	338.79
374.68	282.62
375.129	301.34
375.578	289.64
376.027	303.68
376.475	320.07
376.924	273.26
377.373	357.52
377.822	284.96
378.27	362.2
378.719	291.98
379.167	315.39
379.616	348.15
380.064	329.43
380.512	373.9
380.961	409.01
381.409	355.18
381.857	315.39
382.305	310.71
382.753	284.96
383.201	294.32
383.649	313.05
384.097	345.81
384.545	357.52
384.992	394.97
385.44	338.79
385.888	362.2
386.335	270.92
386.783	329.43
387.231	287.3
387.678	306.03
388.125	313.05
388.573	345.81
389.02	301.34
389.467	341.13
389.914	317.73
390.362	352.84
390.809	313.05
391.256	254.53
391.703	259.21
392.15	284.96
392.596	303.68
393.043	254.53
393.49	306.03
393.937	341.13
394.383	334.11
394.83	371.56
395.276	273.26
395.723	275.6
396.169	329.43
396.616	317.73
397.062	317.73
397.508	296.66
397.954	277.94
398.401	390.28
398.847	284.96
399.293	317.73
399.739	299
400.185	350.5
400.631	299
401.076	310.71
401.522	327.09
401.968	345.81
402.414	306.03
402.859	369.22
403.305	282.62
403.75	317.73
404.196	266.24
404.641	299
405.086	315.39
405.532	320.07
405.977	284.96
406.422	376.24
406.867	284.96
407.312	369.22
407.757	343.47
408.202	390.28
408.647	376.24
409.092	277.94
409.537	343.47
409.982	355.18
410.426	327.09
410.871	348.15
411.316	341.13
411.76	327.09
412.205	322.41
412.649	350.5
413.093	366.88
413.538	306.03
413.982	299
414.426	338.79
414.87	352.84
415.314	371.56
415.758	322.41
416.202	275.6
416.646	287.3
417.09	317.73
417.534	322.41
417.978	394.97
418.421	287.3
418.865	289.64
419.309	336.45
419.752	329.43
420.196	287.3
420.639	275.6
421.083	322.41
421.526	364.54
421.969	306.03
422.412	336.45
422.856	273.26
423.299	338.79
423.742	350.5
424.185	373.9
424.628	317.73
425.071	296.66
425.513	352.84
425.956	376.24
426.399	308.37
426.842	303.68
427.284	336.45
427.727	331.77
428.169	362.2
428.612	313.05
429.054	254.53
429.497	359.86
429.939	362.2
430.381	322.41
430.823	287.3
431.265	334.11
431.707	348.15
432.149	359.86
432.591	376.24
433.033	341.13
433.475	256.87
433.917	338.79
434.359	394.97
434.8	357.52
435.242	306.03
435.684	329.43
436.125	343.47
436.567	329.43
437.008	329.43
437.449	313.05
437.891	338.79
438.332	331.77
438.773	306.03
439.214	338.79
439.656	338.79
440.097	371.56
440.538	338.79
440.978	392.62
441.419	324.75
441.86	291.98
442.301	331.77
442.742	324.75
443.182	355.18
443.623	308.37
444.063	324.75
444.504	296.66
444.944	303.68
445.385	289.64
445.825	303.68
446.265	266.24
446.706	317.73
447.146	348.15
447.586	345.81
448.026	334.11
448.466	348.15
448.906	289.64
449.346	334.11
449.786	299
450.225	364.54
450.665	301.34
451.105	252.19
451.544	364.54
451.984	350.5
452.424	327.09
452.863	338.79
453.302	284.96
453.742	224.11
454.181	315.39
454.62	284.96
455.059	390.28
455.499	282.62
455.938	336.45
456.377	299
456.816	362.2
457.254	350.5
457.693	343.47
458.132	270.92
458.571	289.64
459.01	327.09
459.448	338.79
459.887	299
460.325	359.86
460.764	289.64
461.202	299
461.641	249.85
462.079	373.9
462.517	329.43
462.955	336.45
463.393	345.81
463.832	322.41
464.27	308.37
464.708	277.94
465.145	303.68
465.583	387.94
466.021	362.2
466.459	350.5
466.897	284.96
467.334	371.56
467.772	296.66
468.209	350.5
468.647	334.11
469.084	320.07
469.522	317.73
469.959	284.96
470.396	320.07
470.833	280.28
471.271	301.34
471.708	317.73
472.145	320.07
472.582	306.03
473.019	364.54
473.456	315.39
473.892	327.09
474.329	287.3
474.766	336.45
475.202	331.77
475.639	355.18
476.076	336.45
476.512	299
476.949	336.45
477.385	357.52
477.821	364.54
478.258	299
478.694	322.41
479.13	284.96
479.566	301.34
480.002	261.55
480.438	308.37
480.874	315.39
481.31	301.34
481.746	329.43
482.181	331.77
482.617	364.54
483.053	313.05
483.488	324.75
483.924	306.03
484.36	315.39
484.795	294.32
485.23	296.66
485.666	299
486.101	322.41
486.536	355.18
486.971	320.07
487.407	345.81
487.842	317.73
488.277	324.75
488.712	331.77
489.146	329.43
489.581	284.96
490.016	331.77
490.451	341.13
490.885	329.43
491.32	366.88
491.755	348.15
492.189	226.45
492.624	334.11
493.058	291.98
493.492	315.39
493.927	329.43
494.361	357.52
494.795	308.37
495.229	296.66
495.663	345.81
496.097	380.92
496.531	329.43
496.965	322.41
497.399	355.18
497.833	322.41
498.266	322.41
498.7	348.15
499.134	404.33
499.567	364.54
500.001	352.84
500.434	324.75
500.868	315.39
501.301	306.03
501.734	289.64
502.168	313.05
502.601	345.81
503.034	322.41
503.467	341.13
503.9	317.73
504.333	352.84
504.766	303.68
505.199	357.52
505.632	315.39
506.064	322.41
506.497	331.77
506.93	324.75
507.362	324.75
507.795	392.62
508.227	310.71
508.66	287.3
509.092	378.58
509.524	313.05
509.956	322.41
510.389	268.58
510.821	308.37
511.253	277.94
511.685	235.81
512.117	324.75
512.549	275.6
512.981	345.81
513.412	327.09
513.844	282.62
514.276	345.81
514.707	320.07
515.139	327.09
515.571	336.45
516.002	352.84
516.433	336.45
516.865	366.88
517.296	322.41
517.727	313.05
518.159	327.09
518.59	341.13
519.021	306.03
519.452	338.79
519.883	385.6
520.314	359.86
520.744	320.07
521.175	359.86
521.606	343.47
522.037	348.15
522.467	301.34
522.898	296.66
523.328	315.39
523.759	345.81
524.189	301.34
524.62	310.71
525.05	289.64
525.48	331.77
525.91	345.81
526.341	366.88
526.771	338.79
527.201	275.6
527.631	357.52
528.061	280.28
528.49	348.15
528.92	273.26
529.35	362.2
529.78	357.52
530.209	373.9
530.639	277.94
531.068	329.43
531.498	261.55
531.927	362.2
532.357	411.35
532.786	313.05
533.215	301.34
533.644	331.77
534.074	313.05
534.503	317.73
534.932	334.11
535.361	320.07
535.79	320.07
536.218	334.11
536.647	294.32
537.076	364.54
537.505	348.15
537.933	371.56
538.362	345.81
538.79	268.58
539.219	317.73
539.647	366.88
540.076	308.37
540.504	355.18
540.932	299
541.36	327.09
541.788	357.52
542.217	303.68
542.645	303.68
543.073	369.22
543.5	383.26
543.928	329.43
544.356	273.26
544.784	371.56
545.211	320.07
545.639	308.37
546.067	334.11
546.494	385.6
546.922	397.31
547.349	254.53
547.776	299
548.204	322.41
548.631	362.2
549.058	320.07
549.485	324.75
549.912	299
550.339	348.15
550.766	308.37
551.193	338.79
551.62	284.96
552.047	322.41
552.474	315.39
552.9	350.5
553.327	343.47
553.754	371.56
554.18	306.03
554.607	364.54
555.033	320.07
555.459	289.64
555.886	355.18
556.312	350.5
556.738	294.32
557.164	348.15
557.59	364.54
558.016	341.13
558.442	338.79
558.868	254.53
559.294	380.92
559.72	317.73
560.145	371.56
560.571	282.62
560.997	259.21
561.422	341.13
561.848	294.32
562.273	280.28
562.699	366.88
563.124	401.99
563.549	282.62
563.974	362.2
564.4	313.05
564.825	315.39
565.25	355.18
565.675	362.2
566.1	313.05
566.525	366.88
566.95	331.77
567.374	327.09
567.799	289.64
568.224	329.43
568.648	348.15
569.073	338.79
569.497	406.67
569.922	294.32
570.346	287.3
570.771	320.07
571.195	324.75
571.619	343.47
572.043	287.3
572.467	256.87
572.891	310.71
573.315	350.5
573.739	331.77
574.163	266.24
574.587	324.75
575.011	282.62
575.435	291.98
575.858	320.07
576.282	301.34
576.705	341.13
577.129	263.9
577.552	362.2
577.976	432.41
578.399	282.62
578.822	362.2
579.245	343.47
579.669	303.68
580.092	324.75
580.515	376.24
580.938	270.92
581.361	341.13
581.784	376.24
582.206	303.68
582.629	310.71
583.052	308.37
583.474	324.75
583.897	310.71
584.32	277.94
584.742	324.75
585.165	284.96
585.587	308.37
586.009	399.65
586.431	373.9
586.854	359.86
587.276	315.39
587.698	327.09
588.12	327.09
588.542	331.77
588.964	306.03
589.386	355.18
589.807	303.68
590.229	331.77
590.651	376.24
591.073	355.18
591.494	313.05
591.916	287.3
592.337	320.07
592.759	235.81
593.18	317.73
593.601	343.47
594.022	270.92
594.444	315.39
594.865	306.03
595.286	392.62
595.707	341.13
596.128	331.77
596.549	308.37
596.97	392.62
597.39	284.96
597.811	320.07
598.232	324.75
598.652	401.99
599.073	345.81
599.494	301.34
599.914	310.71
600.334	341.13
600.755	327.09
601.175	378.58
601.595	301.34
602.015	324.75
602.436	296.66
602.856	444.12
603.276	357.52
603.696	352.84
604.115	327.09
604.535	308.37
604.955	338.79
605.375	301.34
605.794	299
606.214	303.68
606.634	420.71
607.053	329.43
607.473	287.3
607.892	331.77
608.311	310.71
608.731	359.86
609.15	301.34
609.569	275.6
609.988	320.07
610.407	371.56
610.826	324.75
611.245	315.39
611.664	320.07
612.083	296.66
612.501	294.32
612.92	345.81
613.339	369.22
613.757	357.52
614.176	322.41
614.594	329.43
615.013	327.09
615.431	352.84
615.85	291.98
616.268	291.98
616.686	338.79
617.104	284.96
617.522	327.09
617.94	338.79
618.358	315.39
618.776	287.3
619.194	343.47
619.612	322.41
620.03	338.79
620.447	275.6
620.865	322.41
621.282	336.45
621.7	291.98
622.117	310.71
622.535	366.88
622.952	399.65
623.369	303.68
623.787	343.47
624.204	291.98
624.621	320.07
625.038	355.18
625.455	366.88
625.872	303.68
626.289	390.28
626.706	329.43
627.123	345.81
627.539	263.9
627.956	352.84
628.373	256.87
628.789	282.62
629.206	313.05
629.622	329.43
630.038	336.45
630.455	310.71
630.871	296.66
631.287	352.84
631.703	291.98
632.12	294.32
632.536	268.58
632.952	341.13
633.368	322.41
633.783	380.92
634.199	352.84
634.615	345.81
635.031	296.66
635.446	277.94
635.862	345.81
636.277	313.05
636.693	331.77
637.108	247.51
637.524	331.77
637.939	373.9
638.354	310.71
638.77	371.56
639.185	282.62
639.6	334.11
640.015	313.05
640.43	287.3
640.845	289.64
641.259	329.43
641.674	327.09
642.089	296.66
642.504	308.37
642.918	317.73
643.333	366.88
643.747	341.13
644.162	345.81
644.576	317.73
644.991	289.64
645.405	320.07
645.819	348.15
646.233	303.68
646.647	327.09
647.061	359.86
647.475	334.11
647.889	291.98
648.303	348.15
648.717	303.68
649.131	366.88
649.545	284.96
649.958	287.3
650.372	352.84
650.785	268.58
651.199	352.84
651.612	310.71
652.026	355.18
652.439	247.51
652.852	322.41
653.266	299
653.679	366.88
654.092	341.13
654.505	291.98
654.918	310.71
655.331	341.13
655.744	348.15
656.156	315.39
656.569	338.79
656.982	291.98
657.394	324.75
657.807	310.71
658.22	392.62
658.632	362.2
659.044	329.43
659.457	387.94
659.869	320.07
660.281	299
660.693	294.32
661.106	334.11
661.518	282.62
661.93	315.39
662.342	299
662.754	334.11
663.165	280.28
663.577	329.43
663.989	383.26
664.401	345.81
664.812	299
665.224	284.96
665.635	343.47
666.047	336.45
666.458	261.55
666.869	345.81
667.281	394.97
667.692	317.73
668.103	252.19
668.514	341.13
668.925	303.68
669.336	329.43
669.747	364.54
670.158	369.22
670.569	329.43
670.979	366.88
671.39	343.47
671.801	303.68
672.211	287.3
672.622	320.07
673.032	306.03
673.443	299
673.853	376.24
674.263	350.5
674.674	334.11
675.084	299
675.494	247.51
675.904	352.84
676.314	394.97
676.724	317.73
677.134	317.73
677.544	343.47
677.953	341.13
678.363	376.24
678.773	341.13
679.182	261.55
679.592	299
680.001	329.43
680.411	366.88
680.82	306.03
681.23	266.24
681.639	341.13
682.048	348.15
682.457	324.75
682.866	355.18
683.275	348.15
683.684	352.84
684.093	310.71
684.502	345.81
684.911	299
685.32	348.15
685.728	275.6
686.137	343.47
686.546	294.32
686.954	294.32
687.363	357.52
687.771	376.24
688.179	341.13
688.588	394.97
688.996	343.47
689.404	357.52
689.812	296.66
690.22	315.39
690.628	296.66
691.036	275.6
691.444	320.07
691.852	303.68
692.26	345.81
692.667	383.26
693.075	301.34
693.483	338.79
693.89	334.11
694.298	373.9
694.705	294.32
695.112	343.47
695.52	296.66
695.927	336.45
696.334	369.22
696.741	334.11
697.148	336.45
697.555	327.09
697.962	397.31
698.369	390.28
698.776	341.13
699.183	336.45
699.59	387.94
699.996	329.43
700.403	303.68
700.81	301.34
701.216	350.5
701.623	320.07
702.029	315.39
702.435	348.15
702.842	287.3
703.248	376.24
703.654	296.66
704.06	373.9
704.466	343.47
704.872	397.31
705.278	301.34
705.684	355.18
706.09	336.45
706.496	341.13
706.901	357.52
707.307	343.47
707.712	397.31
708.118	341.13
708.523	366.88
708.929	352.84
709.334	350.5
709.74	334.11
710.145	324.75
710.55	352.84
710.955	322.41
711.36	380.92
711.765	350.5
712.17	313.05
712.575	303.68
712.98	914.56
713.385	359.86
713.789	348.15
714.194	329.43
714.599	306.03
715.003	341.13
715.408	343.47
715.812	376.24
716.217	343.47
716.621	401.99
717.025	352.84
717.429	294.32
717.833	366.88
718.238	345.81
718.642	331.77
719.046	299
719.449	338.79
719.853	320.07
720.257	345.81
720.661	320.07
721.065	373.9
721.468	329.43
721.872	357.52
722.275	327.09
722.679	315.39
723.082	294.32
723.485	366.88
723.889	296.66
724.292	359.86
724.695	303.68
725.098	357.52
725.501	334.11
725.904	350.5
726.307	329.43
726.71	263.9
727.113	306.03
727.516	345.81
727.918	357.52
728.321	329.43
728.724	287.3
729.126	364.54
729.529	364.54
729.931	301.34
730.333	366.88
730.736	308.37
731.138	270.92
731.54	397.31
731.942	334.11
732.344	404.33
732.746	373.9
733.148	308.37
733.55	324.75
733.952	294.32
734.354	310.71
734.756	317.73
735.157	270.92
735.559	294.32
735.96	376.24
736.362	310.71
736.763	280.28
737.165	303.68
737.566	334.11
737.967	310.71
738.368	338.79
738.77	303.68
739.171	273.26
739.572	289.64
739.973	348.15
740.374	334.11
740.774	324.75
741.175	357.52
741.576	313.05
741.977	324.75
742.377	350.5
742.778	322.41
743.178	329.43
743.579	306.03
743.979	247.51
744.379	352.84
744.78	357.52
745.18	329.43
745.58	359.86
745.98	277.94
746.38	378.58
746.78	273.26
747.18	287.3
747.58	338.79
747.98	411.35
748.38	329.43
748.779	296.66
749.179	341.13
749.578	362.2
749.978	336.45
750.377	310.71
750.777	308.37
751.176	334.11
751.575	289.64
751.975	322.41
752.374	291.98
752.773	289.64
753.172	294.32
753.571	341.13
753.97	259.21
754.369	338.79
754.768	266.24
755.166	296.66
755.565	362.2
755.964	317.73
756.362	296.66
756.761	338.79
757.159	247.51
757.558	331.77
757.956	331.77
758.354	387.94
758.753	306.03
759.151	277.94
759.549	343.47
759.947	315.39
760.345	301.34
760.743	341.13
761.141	303.68
761.539	345.81
761.936	280.28
762.334	324.75
762.732	334.11
763.129	315.39
763.527	289.64
763.924	280.28
764.322	322.41
764.719	238.15
765.117	355.18
765.514	303.68
765.911	350.5
766.308	282.62
766.705	315.39
767.102	252.19
767.499	310.71
