Data from Al_FLMS009871__1177__16-38-03-587.txt Node

Date: Fri Mar 08 16:38:03 CST 2024
User: pe5414po
Spectrometer: FLMS00987
Trigger mode: 0
Integration Time (sec): 1.000000E-1
Scans to average: 1
Electric dark correction enabled: true
Nonlinearity correction enabled: false
Boxcar width: 0
XAxis mode: Wavelengths
Number of Pixels in Spectrum: 2048
>>>>>Begin Spectral Data<<<<<
188.938	-111.91
189.409	-111.91
189.879	-111.91
190.349	-76.8
190.819	-95.52
191.29	-107.23
191.76	-104.89
192.23	-67.44
192.7	-86.16
193.17	-62.76
193.64	16.82
194.109	-48.71
194.579	-86.16
195.049	-15.94
195.519	37.89
195.988	40.23
196.458	44.91
196.927	119.81
197.397	70.65
197.866	173.64
198.336	75.34
198.805	143.21
199.274	152.57
199.744	250.88
200.213	250.88
200.682	206.41
201.151	248.54
201.62	276.62
202.089	204.07
202.558	288.32
203.027	183
203.495	264.92
203.964	232.15
204.433	297.69
204.902	208.75
205.37	321.09
205.839	290.67
206.307	330.45
206.776	283.64
207.244	215.77
207.712	262.58
208.181	285.98
208.649	309.39
209.117	271.94
209.585	300.03
210.053	281.3
210.521	293.01
210.989	304.71
211.457	267.26
211.925	257.9
212.393	318.75
212.861	295.35
213.328	344.5
213.796	293.01
214.264	260.24
214.731	295.35
215.199	250.88
215.666	302.37
216.133	262.58
216.601	250.88
217.068	288.32
217.535	232.15
218.003	248.54
218.47	271.94
218.937	204.07
219.404	269.6
219.871	274.28
220.338	278.96
220.805	276.62
221.271	264.92
221.738	311.73
222.205	290.67
222.671	227.47
223.138	157.25
223.605	257.9
224.071	267.26
224.538	220.45
225.004	276.62
225.47	208.75
225.937	236.83
226.403	283.64
226.869	147.89
227.335	283.64
227.801	253.22
228.267	229.81
228.733	234.49
229.199	288.32
229.665	257.9
230.131	248.54
230.597	260.24
231.062	323.43
231.528	344.5
231.994	255.56
232.459	321.09
232.925	278.96
233.39	293.01
233.856	255.56
234.321	318.75
234.786	323.43
235.252	241.51
235.717	253.22
236.182	290.67
236.647	243.85
237.112	246.2
237.577	335.14
238.042	257.9
238.507	201.72
238.972	314.07
239.436	290.67
239.901	278.96
240.366	330.45
240.83	288.32
241.295	250.88
241.76	314.07
242.224	311.73
242.688	300.03
243.153	325.77
243.617	241.51
244.081	288.32
244.545	328.11
245.01	262.58
245.474	293.01
245.938	250.88
246.402	302.37
246.866	262.58
247.33	285.98
247.793	225.13
248.257	283.64
248.721	290.67
249.185	220.45
249.648	274.28
250.112	285.98
250.575	234.49
251.039	356.2
251.502	213.43
251.965	243.85
252.429	236.83
252.892	271.94
253.355	248.54
253.818	302.37
254.281	309.39
254.744	253.22
255.207	253.22
255.67	302.37
256.133	300.03
256.596	257.9
257.059	304.71
257.522	304.71
257.984	220.45
258.447	229.81
258.909	311.73
259.372	349.18
259.834	269.6
260.297	293.01
260.759	358.54
261.221	323.43
261.684	201.72
262.146	288.32
262.608	314.07
263.07	318.75
263.532	302.37
263.994	353.86
264.456	372.58
264.918	302.37
265.38	295.35
265.842	342.16
266.303	316.41
266.765	321.09
267.227	393.65
267.688	311.73
268.15	325.77
268.611	288.32
269.072	300.03
269.534	328.11
269.995	332.79
270.456	335.14
270.918	222.79
271.379	276.62
271.84	300.03
272.301	321.09
272.762	297.69
273.223	283.64
273.684	293.01
274.144	295.35
274.605	290.67
275.066	297.69
275.527	257.9
275.987	257.9
276.448	330.45
276.908	262.58
277.369	274.28
277.829	283.64
278.289	302.37
278.75	300.03
279.21	229.81
279.67	346.84
280.13	314.07
280.59	309.39
281.05	328.11
281.51	335.14
281.97	328.11
282.43	339.82
282.89	314.07
283.35	276.62
283.809	325.77
284.269	323.43
284.729	285.98
285.188	283.64
285.648	250.88
286.107	321.09
286.567	405.35
287.026	302.37
287.485	243.85
287.944	250.88
288.404	285.98
288.863	370.24
289.322	300.03
289.781	332.79
290.24	293.01
290.699	330.45
291.158	278.96
291.616	295.35
292.075	288.32
292.534	314.07
292.992	267.26
293.451	311.73
293.91	321.09
294.368	269.6
294.827	278.96
295.285	339.82
295.743	239.17
296.202	300.03
296.66	344.5
297.118	302.37
297.576	229.81
298.034	255.56
298.492	328.11
298.95	255.56
299.408	318.75
299.866	260.24
300.324	337.48
300.781	304.71
301.239	323.43
301.697	300.03
302.154	283.64
302.612	276.62
303.069	316.41
303.527	302.37
303.984	300.03
304.441	360.88
304.899	274.28
305.356	250.88
305.813	332.79
306.27	328.11
306.727	264.92
307.184	309.39
307.641	349.18
308.098	302.37
308.555	257.9
309.012	234.49
309.468	276.62
309.925	318.75
310.382	276.62
310.838	283.64
311.295	351.52
311.751	297.69
312.208	384.29
312.664	316.41
313.12	309.39
313.577	307.05
314.033	311.73
314.489	276.62
314.945	269.6
315.401	328.11
315.857	325.77
316.313	267.26
316.769	321.09
317.225	227.47
317.681	314.07
318.136	297.69
318.592	302.37
319.048	323.43
319.503	309.39
319.959	274.28
320.414	386.63
320.869	328.11
321.325	264.92
321.78	332.79
322.235	314.07
322.691	398.33
323.146	318.75
323.601	281.3
324.056	330.45
324.511	311.73
324.966	335.14
325.421	295.35
325.875	285.98
326.33	295.35
326.785	276.62
327.24	302.37
327.694	353.86
328.149	311.73
328.603	325.77
329.058	307.05
329.512	271.94
329.966	278.96
330.421	290.67
330.875	297.69
331.329	232.15
331.783	290.67
332.237	349.18
332.691	290.67
333.145	293.01
333.599	339.82
334.053	309.39
334.507	342.16
334.96	271.94
335.414	318.75
335.868	318.75
336.321	267.26
336.775	288.32
337.228	309.39
337.682	342.16
338.135	225.13
338.588	349.18
339.042	325.77
339.495	323.43
339.948	335.14
340.401	337.48
340.854	290.67
341.307	278.96
341.76	363.22
342.213	302.37
342.666	271.94
343.119	267.26
343.571	307.05
344.024	278.96
344.477	309.39
344.929	267.26
345.382	325.77
345.834	311.73
346.287	349.18
346.739	309.39
347.191	297.69
347.644	269.6
348.096	337.48
348.548	285.98
349	295.35
349.452	395.99
349.904	264.92
350.356	309.39
350.808	255.56
351.26	269.6
351.711	300.03
352.163	267.26
352.615	300.03
353.066	342.16
353.518	311.73
353.969	356.2
354.421	311.73
354.872	332.79
355.324	335.14
355.775	332.79
356.226	337.48
356.677	300.03
357.128	293.01
357.579	311.73
358.03	325.77
358.481	351.52
358.932	285.98
359.383	295.35
359.834	309.39
360.285	311.73
360.735	250.88
361.186	339.82
361.637	335.14
362.087	262.58
362.538	337.48
362.988	227.47
363.438	309.39
363.889	335.14
364.339	243.85
364.789	328.11
365.239	290.67
365.689	271.94
366.139	330.45
366.589	309.39
367.039	300.03
367.489	295.35
367.939	337.48
368.389	318.75
368.839	318.75
369.288	239.17
369.738	302.37
370.187	300.03
370.637	295.35
371.086	295.35
371.536	302.37
371.985	290.67
372.434	314.07
372.884	330.45
373.333	307.05
373.782	290.67
374.231	304.71
374.68	307.05
375.129	309.39
375.578	335.14
376.027	360.88
376.475	297.69
376.924	335.14
377.373	309.39
377.822	363.22
378.27	344.5
378.719	302.37
379.167	302.37
379.616	304.71
380.064	307.05
380.512	297.69
380.961	290.67
381.409	276.62
381.857	264.92
382.305	307.05
382.753	335.14
383.201	337.48
383.649	349.18
384.097	337.48
384.545	297.69
384.992	307.05
385.44	276.62
385.888	295.35
386.335	300.03
386.783	307.05
387.231	283.64
387.678	278.96
388.125	372.58
388.573	323.43
389.02	321.09
389.467	323.43
389.914	274.28
390.362	283.64
390.809	283.64
391.256	323.43
391.703	283.64
392.15	328.11
392.596	323.43
393.043	332.79
393.49	367.9
393.937	300.03
394.383	318.75
394.83	339.82
395.276	302.37
395.723	370.24
396.169	337.48
396.616	285.98
397.062	328.11
397.508	337.48
397.954	325.77
398.401	309.39
398.847	255.56
399.293	323.43
399.739	346.84
400.185	353.86
400.631	290.67
401.076	281.3
401.522	325.77
401.968	285.98
402.414	297.69
402.859	253.22
403.305	304.71
403.75	386.63
404.196	283.64
404.641	363.22
405.086	314.07
405.532	339.82
405.977	342.16
406.422	365.56
406.867	311.73
407.312	325.77
407.757	360.88
408.202	241.51
408.647	351.52
409.092	314.07
409.537	325.77
409.982	330.45
410.426	293.01
410.871	307.05
411.316	335.14
411.76	321.09
412.205	356.2
412.649	356.2
413.093	372.58
413.538	321.09
413.982	342.16
414.426	295.35
414.87	328.11
415.314	288.32
415.758	267.26
416.202	358.54
416.646	325.77
417.09	342.16
417.534	330.45
417.978	330.45
418.421	267.26
418.865	344.5
419.309	344.5
419.752	328.11
420.196	309.39
420.639	344.5
421.083	274.28
421.526	353.86
421.969	328.11
422.412	318.75
422.856	339.82
423.299	332.79
423.742	358.54
424.185	304.71
424.628	285.98
425.071	323.43
425.513	363.22
425.956	351.52
426.399	316.41
426.842	325.77
427.284	278.96
427.727	358.54
428.169	344.5
428.612	255.56
429.054	311.73
429.497	358.54
429.939	328.11
430.381	269.6
430.823	295.35
431.265	337.48
431.707	300.03
432.149	314.07
432.591	311.73
433.033	274.28
433.475	332.79
433.917	365.56
434.359	344.5
434.8	290.67
435.242	388.97
435.684	288.32
436.125	332.79
436.567	241.51
437.008	426.42
437.449	339.82
437.891	269.6
438.332	283.64
438.773	297.69
439.214	321.09
439.656	267.26
440.097	321.09
440.538	346.84
440.978	335.14
441.419	290.67
441.86	297.69
442.301	360.88
442.742	332.79
443.182	381.95
443.623	314.07
444.063	321.09
444.504	293.01
444.944	321.09
445.385	363.22
445.825	311.73
446.265	229.81
446.706	267.26
447.146	271.94
447.586	269.6
448.026	346.84
448.466	274.28
448.906	386.63
449.346	337.48
449.786	302.37
450.225	295.35
450.665	276.62
451.105	267.26
451.544	365.56
451.984	285.98
452.424	227.47
452.863	288.32
453.302	316.41
453.742	328.11
454.181	358.54
454.62	290.67
455.059	293.01
455.499	297.69
455.938	300.03
456.377	267.26
456.816	314.07
457.254	351.52
457.693	330.45
458.132	285.98
458.571	349.18
459.01	297.69
459.448	325.77
459.887	318.75
460.325	302.37
460.764	328.11
461.202	349.18
461.641	307.05
462.079	328.11
462.517	318.75
462.955	332.79
463.393	323.43
463.832	339.82
464.27	309.39
464.708	314.07
465.145	330.45
465.583	325.77
466.021	365.56
466.459	323.43
466.897	311.73
467.334	281.3
467.772	353.86
468.209	337.48
468.647	302.37
469.084	360.88
469.522	398.33
469.959	283.64
470.396	318.75
470.833	332.79
471.271	377.27
471.708	288.32
472.145	304.71
472.582	323.43
473.019	283.64
473.456	379.61
473.892	339.82
474.329	335.14
474.766	297.69
475.202	328.11
475.639	330.45
476.076	281.3
476.512	274.28
476.949	269.6
477.385	342.16
477.821	379.61
478.258	360.88
478.694	388.97
479.13	377.27
479.566	297.69
480.002	358.54
480.438	381.95
480.874	335.14
481.31	271.94
481.746	325.77
482.181	309.39
482.617	330.45
483.053	307.05
483.488	356.2
483.924	311.73
484.36	332.79
484.795	285.98
485.23	283.64
485.666	281.3
486.101	314.07
486.536	321.09
486.971	321.09
487.407	365.56
487.842	342.16
488.277	344.5
488.712	328.11
489.146	314.07
489.581	281.3
490.016	358.54
490.451	325.77
490.885	304.71
491.32	353.86
491.755	374.92
492.189	285.98
492.624	316.41
493.058	307.05
493.492	316.41
493.927	351.52
494.361	311.73
494.795	269.6
495.229	274.28
495.663	381.95
496.097	344.5
496.531	342.16
496.965	358.54
497.399	300.03
497.833	302.37
498.266	278.96
498.7	297.69
499.134	243.85
499.567	285.98
500.001	323.43
500.434	311.73
500.868	330.45
501.301	262.58
501.734	325.77
502.168	381.95
502.601	318.75
503.034	342.16
503.467	351.52
503.9	274.28
504.333	297.69
504.766	374.92
505.199	339.82
505.632	297.69
506.064	374.92
506.497	293.01
506.93	346.84
507.362	300.03
507.795	311.73
508.227	281.3
508.66	332.79
509.092	332.79
509.524	370.24
509.956	351.52
510.389	346.84
510.821	302.37
511.253	274.28
511.685	367.9
512.117	250.88
512.549	304.71
512.981	220.45
513.412	295.35
513.844	388.97
514.276	339.82
514.707	316.41
515.139	288.32
515.571	278.96
516.002	363.22
516.433	309.39
516.865	353.86
517.296	307.05
517.727	353.86
518.159	330.45
518.59	318.75
519.021	367.9
519.452	381.95
519.883	330.45
520.314	356.2
520.744	365.56
521.175	314.07
521.606	311.73
522.037	300.03
522.467	374.92
522.898	295.35
523.328	278.96
523.759	318.75
524.189	267.26
524.62	379.61
525.05	255.56
525.48	307.05
525.91	290.67
526.341	325.77
526.771	353.86
527.201	365.56
527.631	358.54
528.061	290.67
528.49	255.56
528.92	330.45
529.35	332.79
529.78	314.07
530.209	337.48
530.639	346.84
531.068	314.07
531.498	344.5
531.927	330.45
532.357	300.03
532.786	309.39
533.215	316.41
533.644	260.24
534.074	351.52
534.503	332.79
534.932	314.07
535.361	339.82
535.79	349.18
536.218	391.31
536.647	316.41
537.076	339.82
537.505	356.2
537.933	295.35
538.362	325.77
538.79	321.09
539.219	337.48
539.647	342.16
540.076	330.45
540.504	325.77
540.932	318.75
541.36	304.71
541.788	283.64
542.217	281.3
542.645	339.82
543.073	262.58
543.5	311.73
543.928	323.43
544.356	379.61
544.784	328.11
545.211	384.29
545.639	370.24
546.067	311.73
546.494	297.69
546.922	290.67
547.349	304.71
547.776	302.37
548.204	295.35
548.631	349.18
549.058	332.79
549.485	288.32
549.912	374.92
550.339	283.64
550.766	290.67
551.193	264.92
551.62	307.05
552.047	356.2
552.474	323.43
552.9	332.79
553.327	346.84
553.754	283.64
554.18	285.98
554.607	339.82
555.033	344.5
555.459	276.62
555.886	328.11
556.312	274.28
556.738	328.11
557.164	339.82
557.59	367.9
558.016	328.11
558.442	328.11
558.868	314.07
559.294	276.62
559.72	384.29
560.145	318.75
560.571	295.35
560.997	339.82
561.422	316.41
561.848	300.03
562.273	285.98
562.699	307.05
563.124	309.39
563.549	288.32
563.974	276.62
564.4	339.82
564.825	288.32
565.25	370.24
565.675	339.82
566.1	330.45
566.525	360.88
566.95	353.86
567.374	316.41
567.799	342.16
568.224	271.94
568.648	293.01
569.073	307.05
569.497	311.73
569.922	381.95
570.346	304.71
570.771	300.03
571.195	302.37
571.619	374.92
572.043	335.14
572.467	353.86
572.891	332.79
573.315	314.07
573.739	342.16
574.163	316.41
574.587	288.32
575.011	325.77
575.435	321.09
575.858	353.86
576.282	293.01
576.705	274.28
577.129	269.6
577.552	281.3
577.976	274.28
578.399	323.43
578.822	276.62
579.245	358.54
579.669	323.43
580.092	351.52
580.515	330.45
580.938	293.01
581.361	346.84
581.784	302.37
582.206	330.45
582.629	332.79
583.052	332.79
583.474	323.43
583.897	398.33
584.32	304.71
584.742	311.73
585.165	353.86
585.587	311.73
586.009	250.88
586.431	307.05
586.854	351.52
587.276	372.58
587.698	351.52
588.12	293.01
588.542	353.86
588.964	353.86
589.386	325.77
589.807	288.32
590.229	309.39
590.651	274.28
591.073	307.05
591.494	307.05
591.916	264.92
592.337	309.39
592.759	309.39
593.18	335.14
593.601	363.22
594.022	271.94
594.444	332.79
594.865	337.48
595.286	339.82
595.707	316.41
596.128	318.75
596.549	381.95
596.97	295.35
597.39	337.48
597.811	307.05
598.232	388.97
598.652	311.73
599.073	297.69
599.494	337.48
599.914	302.37
600.334	307.05
600.755	365.56
601.175	260.24
601.595	281.3
602.015	337.48
602.436	349.18
602.856	449.82
603.276	363.22
603.696	295.35
604.115	309.39
604.535	342.16
604.955	370.24
605.375	288.32
605.794	349.18
606.214	323.43
606.634	297.69
607.053	335.14
607.473	325.77
607.892	314.07
608.311	353.86
608.731	311.73
609.15	278.96
609.569	297.69
609.988	335.14
610.407	358.54
610.826	309.39
611.245	325.77
611.664	330.45
612.083	297.69
612.501	346.84
612.92	346.84
613.339	316.41
613.757	323.43
614.176	316.41
614.594	328.11
615.013	346.84
615.431	372.58
615.85	335.14
616.268	321.09
616.686	323.43
617.104	323.43
617.522	353.86
617.94	349.18
618.358	332.79
618.776	363.22
619.194	321.09
619.612	293.01
620.03	318.75
620.447	353.86
620.865	344.5
621.282	309.39
621.7	374.92
622.117	342.16
622.535	288.32
622.952	377.27
623.369	300.03
623.787	356.2
624.204	339.82
624.621	344.5
625.038	271.94
625.455	379.61
625.872	342.16
626.289	304.71
626.706	349.18
627.123	328.11
627.539	353.86
627.956	307.05
628.373	316.41
628.789	328.11
629.206	309.39
629.622	367.9
630.038	330.45
630.455	316.41
630.871	318.75
631.287	314.07
631.703	290.67
632.12	379.61
632.536	321.09
632.952	328.11
633.368	363.22
633.783	318.75
634.199	307.05
634.615	318.75
635.031	276.62
635.446	330.45
635.862	318.75
636.277	330.45
636.693	388.97
637.108	330.45
637.524	346.84
637.939	309.39
638.354	309.39
638.77	330.45
639.185	342.16
639.6	356.2
640.015	370.24
640.43	318.75
640.845	365.56
641.259	274.28
641.674	290.67
642.089	335.14
642.504	332.79
642.918	351.52
643.333	365.56
643.747	318.75
644.162	311.73
644.576	349.18
644.991	288.32
645.405	328.11
645.819	253.22
646.233	276.62
646.647	304.71
647.061	358.54
647.475	295.35
647.889	314.07
648.303	255.56
648.717	335.14
649.131	403.01
649.545	321.09
649.958	335.14
650.372	281.3
650.785	372.58
651.199	328.11
651.612	318.75
652.026	339.82
652.439	300.03
652.852	339.82
653.266	309.39
653.679	342.16
654.092	262.58
654.505	304.71
654.918	295.35
655.331	332.79
655.744	293.01
656.156	304.71
656.569	335.14
656.982	335.14
657.394	316.41
657.807	323.43
658.22	330.45
658.632	316.41
659.044	307.05
659.457	316.41
659.869	302.37
660.281	346.84
660.693	307.05
661.106	321.09
661.518	278.96
661.93	267.26
662.342	304.71
662.754	283.64
663.165	314.07
663.577	358.54
663.989	353.86
664.401	283.64
664.812	300.03
665.224	316.41
665.635	239.17
666.047	349.18
666.458	360.88
666.869	304.71
667.281	264.92
667.692	316.41
668.103	285.98
668.514	349.18
668.925	302.37
669.336	300.03
669.747	325.77
670.158	278.96
670.569	253.22
670.979	248.54
671.39	328.11
671.801	395.99
672.211	344.5
672.622	337.48
673.032	283.64
673.443	281.3
673.853	304.71
674.263	278.96
674.674	309.39
675.084	314.07
675.494	314.07
675.904	297.69
676.314	372.58
676.724	295.35
677.134	344.5
677.544	316.41
677.953	339.82
678.363	293.01
678.773	321.09
679.182	330.45
679.592	278.96
680.001	295.35
680.411	290.67
680.82	304.71
681.23	360.88
681.639	316.41
682.048	325.77
682.457	365.56
682.866	386.63
683.275	358.54
683.684	297.69
684.093	307.05
684.502	314.07
684.911	328.11
685.32	379.61
685.728	316.41
686.137	325.77
686.546	335.14
686.954	318.75
687.363	358.54
687.771	283.64
688.179	260.24
688.588	358.54
688.996	271.94
689.404	267.26
689.812	314.07
690.22	269.6
690.628	337.48
691.036	407.69
691.444	330.45
691.852	283.64
692.26	367.9
692.667	384.29
693.075	246.2
693.483	328.11
693.89	374.92
694.298	351.52
694.705	332.79
695.112	337.48
695.52	276.62
695.927	225.13
696.334	339.82
696.741	311.73
697.148	318.75
697.555	335.14
697.962	295.35
698.369	351.52
698.776	300.03
699.183	337.48
699.59	377.27
699.996	278.96
700.403	330.45
700.81	276.62
701.216	365.56
701.623	332.79
702.029	316.41
702.435	332.79
702.842	316.41
703.248	328.11
703.654	330.45
704.06	307.05
704.466	316.41
704.872	302.37
705.278	351.52
705.684	262.58
706.09	344.5
706.496	264.92
706.901	328.11
707.307	274.28
707.712	309.39
708.118	302.37
708.523	328.11
708.929	309.39
709.334	323.43
709.74	337.48
710.145	271.94
710.55	328.11
710.955	342.16
711.36	283.64
711.765	332.79
712.17	300.03
712.575	243.85
712.98	850.05
713.385	374.92
713.789	344.5
714.194	276.62
714.599	318.75
715.003	293.01
715.408	290.67
715.812	353.86
716.217	367.9
716.621	248.54
717.025	314.07
717.429	304.71
717.833	297.69
718.238	328.11
718.642	372.58
719.046	297.69
719.449	321.09
719.853	339.82
720.257	370.24
720.661	330.45
721.065	339.82
721.468	370.24
721.872	332.79
722.275	353.86
722.679	300.03
723.082	351.52
723.485	316.41
723.889	311.73
724.292	321.09
724.695	374.92
725.098	307.05
725.501	321.09
725.904	295.35
726.307	300.03
726.71	295.35
727.113	274.28
727.516	314.07
727.918	372.58
728.321	304.71
728.724	321.09
729.126	304.71
729.529	344.5
729.931	363.22
730.333	278.96
730.736	253.22
731.138	349.18
731.54	283.64
731.942	307.05
732.344	335.14
732.746	342.16
733.148	384.29
733.55	318.75
733.952	330.45
734.354	204.07
734.756	339.82
735.157	318.75
735.559	309.39
735.96	290.67
736.362	386.63
736.763	342.16
737.165	318.75
737.566	318.75
737.967	323.43
738.368	323.43
738.77	283.64
739.171	285.98
739.572	393.65
739.973	321.09
740.374	377.27
740.774	356.2
741.175	283.64
741.576	337.48
741.977	318.75
742.377	337.48
742.778	318.75
743.178	337.48
743.579	276.62
743.979	342.16
744.379	271.94
744.78	267.26
745.18	323.43
745.58	274.28
745.98	325.77
746.38	370.24
746.78	325.77
747.18	311.73
747.58	295.35
747.98	316.41
748.38	321.09
748.779	297.69
749.179	346.84
749.578	372.58
749.978	307.05
750.377	323.43
750.777	250.88
751.176	370.24
751.575	325.77
751.975	335.14
752.374	321.09
752.773	321.09
753.172	278.96
753.571	288.32
753.97	307.05
754.369	276.62
754.768	267.26
755.166	325.77
755.565	255.56
755.964	311.73
756.362	353.86
756.761	260.24
757.159	325.77
757.558	314.07
757.956	300.03
758.354	330.45
758.753	316.41
759.151	274.28
759.549	260.24
759.947	314.07
760.345	360.88
760.743	335.14
761.141	271.94
761.539	339.82
761.936	344.5
762.334	321.09
762.732	349.18
763.129	267.26
763.527	379.61
