Data from Al_FLMS009871__1175__16-38-03-387.txt Node

Date: Fri Mar 08 16:38:03 CST 2024
User: pe5414po
Spectrometer: FLMS00987
Trigger mode: 0
Integration Time (sec): 1.000000E-1
Scans to average: 1
Electric dark correction enabled: true
Nonlinearity correction enabled: false
Boxcar width: 0
XAxis mode: Wavelengths
Number of Pixels in Spectrum: 2048
>>>>>Begin Spectral Data<<<<<
188.938	-82.21
189.409	-82.21
189.879	-82.21
190.349	-140.72
190.819	-98.6
191.29	-147.75
191.76	-117.32
192.23	-114.98
192.7	-12
193.17	-9.65
193.64	-40.08
194.109	-14.34
194.579	-4.97
195.049	-51.78
195.519	25.45
195.988	37.16
196.458	46.52
196.927	126.1
197.397	23.11
197.866	172.91
198.336	81.63
198.805	142.48
199.274	224.4
199.744	177.59
200.213	172.91
200.682	186.95
201.151	208.02
201.62	179.93
202.089	231.42
202.558	243.12
203.027	222.06
203.495	250.14
203.964	311
204.433	327.38
204.902	259.51
205.37	280.57
205.839	289.93
206.307	231.42
206.776	287.59
207.244	308.66
207.712	259.51
208.181	259.51
208.649	299.3
209.117	200.99
209.585	268.87
210.053	229.08
210.521	238.44
210.989	264.19
211.457	243.12
211.925	303.98
212.393	229.08
212.861	233.76
213.328	287.59
213.796	254.83
214.264	308.66
214.731	285.25
215.199	301.64
215.666	233.76
216.133	217.38
216.601	254.83
217.068	247.8
217.535	329.72
218.003	217.38
218.47	226.74
218.937	254.83
219.404	252.49
219.871	301.64
220.338	278.23
220.805	273.55
221.271	278.23
221.738	184.61
222.205	245.46
222.671	294.61
223.138	208.02
223.605	271.21
224.071	332.06
224.538	236.1
225.004	205.67
225.47	245.46
225.937	273.55
226.403	247.8
226.869	254.83
227.335	240.78
227.801	320.36
228.267	226.74
228.733	313.34
229.199	348.45
229.665	336.74
230.131	320.36
230.597	250.14
231.062	271.21
231.528	212.7
231.994	245.46
232.459	245.46
232.925	299.3
233.39	231.42
233.856	289.93
234.321	301.64
234.786	282.91
235.252	311
235.717	303.98
236.182	273.55
236.647	287.59
237.112	264.19
237.577	240.78
238.042	229.08
238.507	245.46
238.972	327.38
239.436	292.27
239.901	252.49
240.366	238.44
240.83	334.4
241.295	226.74
241.76	250.14
242.224	306.32
242.688	299.3
243.153	266.53
243.617	240.78
244.081	233.76
244.545	224.4
245.01	278.23
245.474	318.02
245.938	247.8
246.402	236.1
246.866	259.51
247.33	266.53
247.793	165.89
248.257	308.66
248.721	311
249.185	247.8
249.648	266.53
250.112	280.57
250.575	203.33
251.039	268.87
251.502	233.76
251.965	299.3
252.429	282.91
252.892	261.85
253.355	308.66
253.818	282.91
254.281	226.74
254.744	250.14
255.207	236.1
255.67	339.09
256.133	334.4
256.596	250.14
257.059	350.79
257.522	264.19
257.984	250.14
258.447	341.43
258.909	341.43
259.372	233.76
259.834	259.51
260.297	196.31
260.759	271.21
261.221	205.67
261.684	264.19
262.146	266.53
262.608	231.42
263.07	301.64
263.532	339.09
263.994	245.46
264.456	327.38
264.918	303.98
265.38	236.1
265.842	236.1
266.303	311
266.765	287.59
267.227	303.98
267.688	259.51
268.15	329.72
268.611	329.72
269.072	285.25
269.534	303.98
269.995	271.21
270.456	325.04
270.918	273.55
271.379	285.25
271.84	280.57
272.301	259.51
272.762	266.53
273.223	254.83
273.684	266.53
274.144	343.77
274.605	289.93
275.066	332.06
275.527	311
275.987	289.93
276.448	257.17
276.908	268.87
277.369	275.89
277.829	250.14
278.289	278.23
278.75	322.7
279.21	252.49
279.67	285.25
280.13	261.85
280.59	280.57
281.05	275.89
281.51	278.23
281.97	294.61
282.43	287.59
282.89	254.83
283.35	224.4
283.809	261.85
284.269	374.19
284.729	224.4
285.188	254.83
285.648	296.96
286.107	329.72
286.567	311
287.026	240.78
287.485	296.96
287.944	271.21
288.404	236.1
288.863	339.09
289.322	285.25
289.781	224.4
290.24	306.32
290.699	292.27
291.158	311
291.616	285.25
292.075	315.68
292.534	271.21
292.992	278.23
293.451	296.96
293.91	313.34
294.368	346.11
294.827	273.55
295.285	280.57
295.743	388.24
296.202	308.66
296.66	301.64
297.118	301.64
297.576	315.68
298.034	383.56
298.492	306.32
298.95	278.23
299.408	278.23
299.866	271.21
300.324	268.87
300.781	285.25
301.239	336.74
301.697	308.66
302.154	268.87
302.612	289.93
303.069	261.85
303.527	320.36
303.984	222.06
304.441	294.61
304.899	296.96
305.356	306.32
305.813	315.68
306.27	289.93
306.727	308.66
307.184	303.98
307.641	285.25
308.098	318.02
308.555	334.4
309.012	301.64
309.468	341.43
309.925	285.25
310.382	301.64
310.838	280.57
311.295	273.55
311.751	257.17
312.208	252.49
312.664	282.91
313.12	301.64
313.577	231.42
314.033	285.25
314.489	296.96
314.945	343.77
315.401	273.55
315.857	383.56
316.313	322.7
316.769	350.79
317.225	327.38
317.681	278.23
318.136	301.64
318.592	243.12
319.048	332.06
319.503	296.96
319.959	252.49
320.414	301.64
320.869	306.32
321.325	303.98
321.78	341.43
322.235	292.27
322.691	301.64
323.146	341.43
323.601	275.89
324.056	285.25
324.511	278.23
324.966	254.83
325.421	266.53
325.875	238.44
326.33	299.3
326.785	266.53
327.24	226.74
327.694	308.66
328.149	341.43
328.603	339.09
329.058	318.02
329.512	296.96
329.966	357.81
330.421	266.53
330.875	292.27
331.329	193.97
331.783	303.98
332.237	296.96
332.691	313.34
333.145	273.55
333.599	275.89
334.053	303.98
334.507	355.47
334.96	275.89
335.414	339.09
335.868	299.3
336.321	233.76
336.775	320.36
337.228	229.08
337.682	301.64
338.135	301.64
338.588	339.09
339.042	357.81
339.495	327.38
339.948	282.91
340.401	306.32
340.854	296.96
341.307	296.96
341.76	292.27
342.213	334.4
342.666	327.38
343.119	369.51
343.571	280.57
344.024	301.64
344.477	336.74
344.929	311
345.382	360.15
345.834	311
346.287	268.87
346.739	264.19
347.191	306.32
347.644	336.74
348.096	292.27
348.548	369.51
349	311
349.452	289.93
349.904	282.91
350.356	306.32
350.808	313.34
351.26	287.59
351.711	278.23
352.163	301.64
352.615	341.43
353.066	341.43
353.518	285.25
353.969	299.3
354.421	287.59
354.872	299.3
355.324	332.06
355.775	299.3
356.226	250.14
356.677	266.53
357.128	250.14
357.579	350.79
358.03	292.27
358.481	308.66
358.932	299.3
359.383	271.21
359.834	332.06
360.285	287.59
360.735	231.42
361.186	287.59
361.637	301.64
362.087	219.72
362.538	318.02
362.988	289.93
363.438	285.25
363.889	343.77
364.339	374.19
364.789	296.96
365.239	278.23
365.689	341.43
366.139	257.17
366.589	320.36
367.039	266.53
367.489	336.74
367.939	303.98
368.389	332.06
368.839	362.49
369.288	252.49
369.738	343.77
370.187	229.08
370.637	322.7
371.086	243.12
371.536	306.32
371.985	289.93
372.434	266.53
372.884	318.02
373.333	301.64
373.782	332.06
374.231	348.45
374.68	308.66
375.129	357.81
375.578	343.77
376.027	299.3
376.475	268.87
376.924	329.72
377.373	278.23
377.822	257.17
378.27	320.36
378.719	360.15
379.167	287.59
379.616	308.66
380.064	299.3
380.512	362.49
380.961	275.89
381.409	252.49
381.857	306.32
382.305	268.87
382.753	341.43
383.201	261.85
383.649	339.09
384.097	289.93
384.545	327.38
384.992	313.34
385.44	334.4
385.888	329.72
386.335	268.87
386.783	296.96
387.231	341.43
387.678	289.93
388.125	273.55
388.573	308.66
389.02	374.19
389.467	355.47
389.914	268.87
390.362	292.27
390.809	315.68
391.256	339.09
391.703	329.72
392.15	289.93
392.596	325.04
393.043	285.25
393.49	296.96
393.937	343.77
394.383	245.46
394.83	388.24
395.276	350.79
395.723	299.3
396.169	327.38
396.616	264.19
397.062	219.72
397.508	313.34
397.954	287.59
398.401	296.96
398.847	320.36
399.293	308.66
399.739	378.87
400.185	336.74
400.631	341.43
401.076	287.59
401.522	367.17
401.968	350.79
402.414	315.68
402.859	369.51
403.305	313.34
403.75	301.64
404.196	322.7
404.641	299.3
405.086	374.19
405.532	308.66
405.977	362.49
406.422	378.87
406.867	259.51
407.312	240.78
407.757	306.32
408.202	308.66
408.647	275.89
409.092	266.53
409.537	280.57
409.982	280.57
410.426	306.32
410.871	327.38
411.316	327.38
411.76	292.27
412.205	329.72
412.649	257.17
413.093	311
413.538	287.59
413.982	254.83
414.426	315.68
414.87	289.93
415.314	259.51
415.758	313.34
416.202	399.94
416.646	332.06
417.09	320.36
417.534	271.21
417.978	294.61
418.421	318.02
418.865	336.74
419.309	367.17
419.752	325.04
420.196	336.74
420.639	320.36
421.083	320.36
421.526	306.32
421.969	318.02
422.412	334.4
422.856	329.72
423.299	240.78
423.742	247.8
424.185	315.68
424.628	238.44
425.071	278.23
425.513	346.11
425.956	313.34
426.399	299.3
426.842	313.34
427.284	341.43
427.727	282.91
428.169	308.66
428.612	329.72
429.054	285.25
429.497	360.15
429.939	282.91
430.381	264.19
430.823	278.23
431.265	322.7
431.707	318.02
432.149	306.32
432.591	240.78
433.033	341.43
433.475	364.83
433.917	306.32
434.359	364.83
434.8	308.66
435.242	322.7
435.684	254.83
436.125	332.06
436.567	287.59
437.008	301.64
437.449	327.38
437.891	334.4
438.332	257.17
438.773	322.7
439.214	306.32
439.656	367.17
440.097	275.89
440.538	364.83
440.978	247.8
441.419	299.3
441.86	339.09
442.301	327.38
442.742	287.59
443.182	313.34
443.623	301.64
444.063	259.51
444.504	329.72
444.944	280.57
445.385	299.3
445.825	325.04
446.265	327.38
446.706	348.45
447.146	278.23
447.586	282.91
448.026	303.98
448.466	278.23
448.906	311
449.346	332.06
449.786	273.55
450.225	303.98
450.665	303.98
451.105	343.77
451.544	327.38
451.984	343.77
452.424	322.7
452.863	369.51
453.302	299.3
453.742	311
454.181	303.98
454.62	374.19
455.059	322.7
455.499	353.13
455.938	357.81
456.377	336.74
456.816	320.36
457.254	336.74
457.693	332.06
458.132	273.55
458.571	301.64
459.01	301.64
459.448	315.68
459.887	257.17
460.325	292.27
460.764	362.49
461.202	306.32
461.641	308.66
462.079	346.11
462.517	278.23
462.955	369.51
463.393	406.96
463.832	329.72
464.27	226.74
464.708	313.34
465.145	299.3
465.583	299.3
466.021	278.23
466.459	306.32
466.897	327.38
467.334	334.4
467.772	292.27
468.209	374.19
468.647	266.53
469.084	325.04
469.522	275.89
469.959	311
470.396	367.17
470.833	233.76
471.271	299.3
471.708	313.34
472.145	357.81
472.582	296.96
473.019	306.32
473.456	296.96
473.892	341.43
474.329	301.64
474.766	346.11
475.202	271.21
475.639	318.02
476.076	322.7
476.512	282.91
476.949	254.83
477.385	268.87
477.821	320.36
478.258	327.38
478.694	325.04
479.13	268.87
479.566	285.25
480.002	231.42
480.438	334.4
480.874	346.11
481.31	360.15
481.746	336.74
482.181	332.06
482.617	364.83
483.053	268.87
483.488	383.56
483.924	343.77
484.36	341.43
484.795	306.32
485.23	318.02
485.666	399.94
486.101	289.93
486.536	271.21
486.971	271.21
487.407	264.19
487.842	308.66
488.277	376.53
488.712	259.51
489.146	343.77
489.581	348.45
490.016	301.64
490.451	306.32
490.885	261.85
491.32	294.61
491.755	296.96
492.189	362.49
492.624	397.6
493.058	334.4
493.492	285.25
493.927	327.38
494.361	303.98
494.795	322.7
495.229	280.57
495.663	313.34
496.097	320.36
496.531	285.25
496.965	280.57
497.399	301.64
497.833	299.3
498.266	343.77
498.7	341.43
499.134	282.91
499.567	315.68
500.001	301.64
500.434	252.49
500.868	313.34
501.301	329.72
501.734	257.17
502.168	311
502.601	273.55
503.034	299.3
503.467	296.96
503.9	308.66
504.333	292.27
504.766	311
505.199	367.17
505.632	341.43
506.064	334.4
506.497	343.77
506.93	367.17
507.362	222.06
507.795	275.89
508.227	313.34
508.66	327.38
509.092	376.53
509.524	360.15
509.956	318.02
510.389	364.83
510.821	385.9
511.253	268.87
511.685	322.7
512.117	245.46
512.549	390.58
512.981	315.68
513.412	280.57
513.844	327.38
514.276	325.04
514.707	327.38
515.139	294.61
515.571	315.68
516.002	315.68
516.433	285.25
516.865	348.45
517.296	327.38
517.727	332.06
518.159	285.25
518.59	313.34
519.021	339.09
519.452	311
519.883	308.66
520.314	294.61
520.744	247.8
521.175	287.59
521.606	282.91
522.037	367.17
522.467	224.4
522.898	308.66
523.328	303.98
523.759	292.27
524.189	273.55
524.62	259.51
525.05	245.46
525.48	313.34
525.91	339.09
526.341	334.4
526.771	322.7
527.201	292.27
527.631	313.34
528.061	268.87
528.49	341.43
528.92	332.06
529.35	287.59
529.78	322.7
530.209	313.34
530.639	435.05
531.068	275.89
531.498	332.06
531.927	303.98
532.357	355.47
532.786	285.25
533.215	318.02
533.644	327.38
534.074	308.66
534.503	320.36
534.932	360.15
535.361	334.4
535.79	325.04
536.218	273.55
536.647	357.81
537.076	374.19
537.505	327.38
537.933	266.53
538.362	264.19
538.79	273.55
539.219	311
539.647	254.83
540.076	346.11
540.504	320.36
540.932	301.64
541.36	320.36
541.788	287.59
542.217	264.19
542.645	278.23
543.073	357.81
543.5	315.68
543.928	252.49
544.356	259.51
544.784	350.79
545.211	315.68
545.639	322.7
546.067	306.32
546.494	303.98
546.922	261.85
547.349	266.53
547.776	261.85
548.204	289.93
548.631	275.89
549.058	301.64
549.485	280.57
549.912	292.27
550.339	320.36
550.766	261.85
551.193	306.32
551.62	301.64
552.047	343.77
552.474	250.14
552.9	296.96
553.327	257.17
553.754	278.23
554.18	289.93
554.607	285.25
555.033	289.93
555.459	318.02
555.886	280.57
556.312	362.49
556.738	364.83
557.164	296.96
557.59	339.09
558.016	348.45
558.442	299.3
558.868	264.19
559.294	313.34
559.72	254.83
560.145	385.9
560.571	296.96
560.997	301.64
561.422	303.98
561.848	339.09
562.273	268.87
562.699	308.66
563.124	311
563.549	369.51
563.974	376.53
564.4	294.61
564.825	301.64
565.25	334.4
565.675	322.7
566.1	273.55
566.525	313.34
566.95	381.21
567.374	289.93
567.799	341.43
568.224	320.36
568.648	266.53
569.073	346.11
569.497	348.45
569.922	318.02
570.346	292.27
570.771	285.25
571.195	353.13
571.619	287.59
572.043	325.04
572.467	320.36
572.891	252.49
573.315	261.85
573.739	313.34
574.163	313.34
574.587	362.49
575.011	329.72
575.435	282.91
575.858	327.38
576.282	299.3
576.705	308.66
577.129	264.19
577.552	306.32
577.976	353.13
578.399	334.4
578.822	329.72
579.245	306.32
579.669	318.02
580.092	313.34
580.515	322.7
580.938	296.96
581.361	299.3
581.784	343.77
582.206	341.43
582.629	341.43
583.052	322.7
583.474	287.59
583.897	360.15
584.32	313.34
584.742	341.43
585.165	388.24
585.587	355.47
586.009	336.74
586.431	271.21
586.854	322.7
587.276	294.61
587.698	222.06
588.12	296.96
588.542	282.91
588.964	378.87
589.386	369.51
589.807	355.47
590.229	332.06
590.651	296.96
591.073	308.66
591.494	299.3
591.916	306.32
592.337	327.38
592.759	261.85
593.18	339.09
593.601	236.1
594.022	318.02
594.444	320.36
594.865	268.87
595.286	287.59
595.707	306.32
596.128	371.85
596.549	325.04
596.97	332.06
597.39	318.02
597.811	313.34
598.232	364.83
598.652	299.3
599.073	299.3
599.494	292.27
599.914	308.66
600.334	282.91
600.755	315.68
601.175	311
601.595	292.27
602.015	329.72
602.436	325.04
602.856	411.64
603.276	245.46
603.696	273.55
604.115	296.96
604.535	275.89
604.955	371.85
605.375	282.91
605.794	301.64
606.214	299.3
606.634	360.15
607.053	318.02
607.473	343.77
607.892	292.27
608.311	334.4
608.731	318.02
609.15	339.09
609.569	346.11
609.988	306.32
610.407	318.02
610.826	320.36
611.245	306.32
611.664	353.13
612.083	336.74
612.501	329.72
612.92	296.96
613.339	294.61
613.757	332.06
614.176	315.68
614.594	315.68
615.013	303.98
615.431	285.25
615.85	285.25
616.268	308.66
616.686	313.34
617.104	322.7
617.522	341.43
617.94	303.98
618.358	292.27
618.776	266.53
619.194	322.7
619.612	308.66
620.03	355.47
620.447	367.17
620.865	322.7
621.282	308.66
621.7	390.58
622.117	264.19
622.535	306.32
622.952	285.25
623.369	282.91
623.787	299.3
624.204	273.55
624.621	308.66
625.038	280.57
625.455	306.32
625.872	282.91
626.289	292.27
626.706	325.04
627.123	273.55
627.539	416.32
627.956	301.64
628.373	264.19
628.789	355.47
629.206	371.85
629.622	322.7
630.038	325.04
630.455	292.27
630.871	343.77
631.287	341.43
631.703	313.34
632.12	186.95
632.536	292.27
632.952	313.34
633.368	332.06
633.783	318.02
634.199	264.19
634.615	325.04
635.031	374.19
635.446	346.11
635.862	282.91
636.277	311
636.693	285.25
637.108	278.23
637.524	404.62
637.939	268.87
638.354	287.59
638.77	360.15
639.185	285.25
639.6	334.4
640.015	280.57
640.43	252.49
640.845	313.34
641.259	303.98
641.674	332.06
642.089	264.19
642.504	343.77
642.918	289.93
643.333	275.89
643.747	252.49
644.162	292.27
644.576	271.21
644.991	296.96
645.405	261.85
645.819	296.96
646.233	296.96
646.647	329.72
647.061	336.74
647.475	357.81
647.889	322.7
648.303	355.47
648.717	320.36
649.131	325.04
649.545	287.59
649.958	280.57
650.372	296.96
650.785	240.78
651.199	266.53
651.612	346.11
652.026	362.49
652.439	275.89
652.852	322.7
653.266	243.12
653.679	278.23
654.092	332.06
654.505	336.74
654.918	275.89
655.331	339.09
655.744	308.66
656.156	360.15
656.569	268.87
656.982	332.06
657.394	273.55
657.807	292.27
658.22	299.3
658.632	257.17
659.044	299.3
659.457	292.27
659.869	273.55
660.281	362.49
660.693	313.34
661.106	320.36
661.518	320.36
661.93	296.96
662.342	257.17
662.754	280.57
663.165	264.19
663.577	292.27
663.989	299.3
664.401	313.34
664.812	292.27
665.224	254.83
665.635	268.87
666.047	315.68
666.458	285.25
666.869	343.77
667.281	362.49
667.692	285.25
668.103	336.74
668.514	289.93
668.925	388.24
669.336	294.61
669.747	303.98
670.158	311
670.569	315.68
670.979	299.3
671.39	341.43
671.801	289.93
672.211	278.23
672.622	303.98
673.032	264.19
673.443	285.25
673.853	311
674.263	318.02
674.674	327.38
675.084	343.77
675.494	303.98
675.904	320.36
676.314	329.72
676.724	264.19
677.134	313.34
677.544	313.34
677.953	311
678.363	362.49
678.773	362.49
679.182	303.98
679.592	289.93
680.001	296.96
680.411	257.17
680.82	313.34
681.23	238.44
681.639	329.72
682.048	308.66
682.457	308.66
682.866	285.25
683.275	261.85
683.684	296.96
684.093	315.68
684.502	325.04
684.911	299.3
685.32	334.4
685.728	285.25
686.137	257.17
686.546	322.7
686.954	329.72
687.363	374.19
687.771	327.38
688.179	369.51
688.588	369.51
688.996	264.19
689.404	311
689.812	315.68
690.22	308.66
690.628	322.7
691.036	325.04
691.444	315.68
691.852	369.51
692.26	329.72
692.667	275.89
693.075	308.66
693.483	378.87
693.89	332.06
694.298	329.72
694.705	336.74
695.112	371.85
695.52	205.67
695.927	257.17
696.334	287.59
696.741	343.77
697.148	303.98
697.555	315.68
697.962	327.38
698.369	219.72
698.776	271.21
699.183	271.21
699.59	322.7
699.996	311
700.403	285.25
700.81	367.17
701.216	287.59
701.623	308.66
702.029	381.21
702.435	303.98
702.842	329.72
703.248	346.11
703.654	212.7
704.06	327.38
704.466	318.02
704.872	268.87
705.278	339.09
705.684	266.53
706.09	311
706.496	273.55
706.901	313.34
707.307	292.27
707.712	397.6
708.118	357.81
708.523	301.64
708.929	336.74
709.334	203.33
709.74	350.79
710.145	353.13
710.55	306.32
710.955	334.4
711.36	280.57
711.765	280.57
712.17	332.06
712.575	336.74
712.98	907.84
713.385	329.72
713.789	329.72
714.194	289.93
714.599	315.68
715.003	212.7
715.408	367.17
715.812	311
716.217	301.64
716.621	285.25
717.025	266.53
717.429	273.55
717.833	306.32
718.238	278.23
718.642	285.25
719.046	313.34
719.449	282.91
719.853	336.74
720.257	313.34
720.661	275.89
721.065	243.12
721.468	311
721.872	320.36
722.275	275.89
722.679	261.85
723.082	329.72
723.485	362.49
723.889	325.04
724.292	318.02
724.695	315.68
725.098	334.4
725.501	322.7
725.904	294.61
726.307	292.27
726.71	252.49
727.113	252.49
727.516	247.8
727.918	280.57
728.321	296.96
728.724	315.68
729.126	320.36
729.529	275.89
729.931	311
730.333	219.72
730.736	285.25
731.138	315.68
731.54	196.31
731.942	301.64
732.344	308.66
732.746	425.68
733.148	280.57
733.55	301.64
733.952	254.83
734.354	287.59
734.756	243.12
735.157	325.04
735.559	278.23
735.96	306.32
736.362	322.7
736.763	339.09
737.165	275.89
737.566	252.49
737.967	252.49
738.368	327.38
738.77	306.32
739.171	285.25
739.572	292.27
739.973	325.04
740.374	296.96
740.774	313.34
741.175	266.53
741.576	315.68
741.977	318.02
742.377	271.21
742.778	322.7
743.178	341.43
743.579	318.02
743.979	278.23
744.379	357.81
744.78	285.25
745.18	252.49
745.58	259.51
745.98	327.38
746.38	296.96
746.78	383.56
747.18	296.96
747.58	378.87
747.98	287.59
748.38	327.38
748.779	329.72
749.179	289.93
749.578	303.98
749.978	271.21
750.377	339.09
750.777	325.04
751.176	343.77
751.575	233.76
751.975	315.68
752.374	264.19
752.773	289.93
753.172	266.53
753.571	259.51
753.97	369.51
754.369	296.96
754.768	268.87
755.166	332.06
755.565	322.7
755.964	341.43
756.362	299.3
756.761	303.98
757.159	266.53
757.558	285.25
757.956	341.43
758.354	315.68
758.753	280.57
759.151	318.02
759.549	289.93
759.947	313.34
760.345	299.3
760.743	311
761.141	296.96
761.539	273.55
761.936	355.47
762.334	296.96
762.732	325.04
763.129	308.66
763.527	329.72
763.924	329.72
764.322	346.11
764.719	318.02
765.117	325.04
765.514	245.46
765.911	320.36
766.308	278.23
766.705	273.55
767.102	299.3
