Data from Al_FLMS009871__1171__16-38-02-989.txt Node

Date: Fri Mar 08 16:38:02 CST 2024
User: pe5414po
Spectrometer: FLMS00987
Trigger mode: 0
Integration Time (sec): 1.000000E-1
Scans to average: 1
Electric dark correction enabled: true
Nonlinearity correction enabled: false
Boxcar width: 0
XAxis mode: Wavelengths
Number of Pixels in Spectrum: 2048
>>>>>Begin Spectral Data<<<<<
188.938	-51.49
189.409	-51.49
189.879	-51.49
190.349	-152.13
190.819	-119.37
191.29	-105.32
191.76	-112.35
192.23	-124.05
192.7	-35.11
193.17	-32.77
193.64	-100.64
194.109	23.41
194.579	11.7
195.049	32.77
195.519	-25.75
195.988	28.09
196.458	21.06
196.927	32.77
197.397	124.05
197.866	102.98
198.336	159.16
198.805	117.03
199.274	100.64
199.744	168.52
200.213	220.01
200.682	294.91
201.151	156.82
201.62	222.35
202.089	215.33
202.558	227.03
203.027	301.93
203.495	292.57
203.964	227.03
204.433	290.23
204.902	271.5
205.37	280.86
205.839	308.95
206.307	276.18
206.776	290.23
207.244	308.95
207.712	238.73
208.181	266.82
208.649	283.2
209.117	308.95
209.585	271.5
210.053	287.89
210.521	297.25
210.989	285.55
211.457	205.97
211.925	322.99
212.393	292.57
212.861	311.29
213.328	273.84
213.796	332.36
214.264	297.25
214.731	266.82
215.199	294.91
215.666	210.65
216.133	269.16
216.601	311.29
217.068	278.52
217.535	222.35
218.003	297.25
218.47	330.02
218.937	257.46
219.404	301.93
219.871	264.48
220.338	255.12
220.805	262.14
221.271	283.2
221.738	205.97
222.205	276.18
222.671	290.23
223.138	285.55
223.605	252.78
224.071	318.31
224.538	198.95
225.004	252.78
225.47	287.89
225.937	229.37
226.403	257.46
226.869	205.97
227.335	257.46
227.801	334.7
228.267	236.39
228.733	255.12
229.199	276.18
229.665	236.39
230.131	297.25
230.597	337.04
231.062	276.18
231.528	222.35
231.994	285.55
232.459	273.84
232.925	248.1
233.39	245.76
233.856	311.29
234.321	259.8
234.786	271.5
235.252	269.16
235.717	290.23
236.182	252.78
236.647	301.93
237.112	271.5
237.577	241.08
238.042	220.01
238.507	313.63
238.972	290.23
239.436	229.37
239.901	306.61
240.366	301.93
240.83	301.93
241.295	308.95
241.76	250.44
242.224	292.57
242.688	271.5
243.153	285.55
243.617	308.95
244.081	269.16
244.545	304.27
245.01	257.46
245.474	311.29
245.938	327.67
246.402	287.89
246.866	273.84
247.33	278.52
247.793	243.42
248.257	262.14
248.721	283.2
249.185	346.4
249.648	269.16
250.112	257.46
250.575	322.99
251.039	290.23
251.502	280.86
251.965	227.03
252.429	297.25
252.892	259.8
253.355	304.27
253.818	332.36
254.281	337.04
254.744	334.7
255.207	320.65
255.67	273.84
256.133	330.02
256.596	304.27
257.059	297.25
257.522	327.67
257.984	280.86
258.447	332.36
258.909	283.2
259.372	222.35
259.834	224.69
260.297	262.14
260.759	311.29
261.221	346.4
261.684	283.2
262.146	365.12
262.608	243.42
263.07	299.59
263.532	290.23
263.994	332.36
264.456	290.23
264.918	285.55
265.38	318.31
265.842	276.18
266.303	301.93
266.765	327.67
267.227	245.76
267.688	285.55
268.15	283.2
268.611	313.63
269.072	332.36
269.534	243.42
269.995	367.46
270.456	304.27
270.918	330.02
271.379	372.15
271.84	341.72
272.301	313.63
272.762	278.52
273.223	332.36
273.684	325.33
274.144	348.74
274.605	306.61
275.066	292.57
275.527	311.29
275.987	330.02
276.448	365.12
276.908	325.33
277.369	355.76
277.829	365.12
278.289	285.55
278.75	318.31
279.21	372.15
279.67	313.63
280.13	243.42
280.59	306.61
281.05	294.91
281.51	320.65
281.97	344.06
282.43	262.14
282.89	353.42
283.35	325.33
283.809	248.1
284.269	358.1
284.729	257.46
285.188	245.76
285.648	297.25
286.107	283.2
286.567	257.46
287.026	320.65
287.485	341.72
287.944	334.7
288.404	332.36
288.863	344.06
289.322	262.14
289.781	278.52
290.24	306.61
290.699	287.89
291.158	278.52
291.616	360.44
292.075	325.33
292.534	358.1
292.992	292.57
293.451	315.97
293.91	348.74
294.368	301.93
294.827	285.55
295.285	327.67
295.743	301.93
296.202	337.04
296.66	290.23
297.118	301.93
297.576	299.59
298.034	294.91
298.492	280.86
298.95	313.63
299.408	280.86
299.866	304.27
300.324	287.89
300.781	318.31
301.239	362.78
301.697	266.82
302.154	297.25
302.612	330.02
303.069	271.5
303.527	278.52
303.984	212.99
304.441	278.52
304.899	257.46
305.356	332.36
305.813	297.25
306.27	245.76
306.727	306.61
307.184	250.44
307.641	287.89
308.098	301.93
308.555	285.55
309.012	311.29
309.468	367.46
309.925	320.65
310.382	322.99
310.838	287.89
311.295	322.99
311.751	257.46
312.208	280.86
312.664	311.29
313.12	320.65
313.577	241.08
314.033	311.29
314.489	271.5
314.945	360.44
315.401	369.8
315.857	362.78
316.313	280.86
316.769	285.55
317.225	334.7
317.681	283.2
318.136	255.12
318.592	285.55
319.048	320.65
319.503	250.44
319.959	280.86
320.414	271.5
320.869	311.29
321.325	290.23
321.78	287.89
322.235	299.59
322.691	318.31
323.146	337.04
323.601	337.04
324.056	353.42
324.511	351.08
324.966	304.27
325.421	346.4
325.875	308.95
326.33	311.29
326.785	325.33
327.24	390.87
327.694	294.91
328.149	243.42
328.603	369.8
329.058	287.89
329.512	367.46
329.966	311.29
330.421	332.36
330.875	273.84
331.329	306.61
331.783	290.23
332.237	285.55
332.691	315.97
333.145	327.67
333.599	306.61
334.053	327.67
334.507	311.29
334.96	339.38
335.414	327.67
335.868	320.65
336.321	308.95
336.775	308.95
337.228	327.67
337.682	337.04
338.135	290.23
338.588	341.72
339.042	332.36
339.495	276.18
339.948	365.12
340.401	341.72
340.854	315.97
341.307	255.12
341.76	283.2
342.213	318.31
342.666	306.61
343.119	334.7
343.571	294.91
344.024	318.31
344.477	248.1
344.929	376.83
345.382	344.06
345.834	259.8
346.287	369.8
346.739	353.42
347.191	322.99
347.644	306.61
348.096	259.8
348.548	320.65
349	292.57
349.452	320.65
349.904	264.48
350.356	297.25
350.808	351.08
351.26	322.99
351.711	280.86
352.163	271.5
352.615	273.84
353.066	339.38
353.518	348.74
353.969	337.04
354.421	397.89
354.872	290.23
355.324	327.67
355.775	313.63
356.226	299.59
356.677	353.42
357.128	360.44
357.579	322.99
358.03	362.78
358.481	355.76
358.932	423.64
359.383	358.1
359.834	400.23
360.285	292.57
360.735	290.23
361.186	327.67
361.637	290.23
362.087	311.29
362.538	299.59
362.988	294.91
363.438	285.55
363.889	332.36
364.339	337.04
364.789	304.27
365.239	315.97
365.689	362.78
366.139	334.7
366.589	327.67
367.039	390.87
367.489	367.46
367.939	334.7
368.389	273.84
368.839	262.14
369.288	283.2
369.738	299.59
370.187	278.52
370.637	304.27
371.086	318.31
371.536	313.63
371.985	266.82
372.434	315.97
372.884	283.2
373.333	327.67
373.782	348.74
374.231	330.02
374.68	325.33
375.129	313.63
375.578	271.5
376.027	322.99
376.475	308.95
376.924	325.33
377.373	283.2
377.822	337.04
378.27	283.2
378.719	360.44
379.167	358.1
379.616	322.99
380.064	299.59
380.512	262.14
380.961	287.89
381.409	322.99
381.857	344.06
382.305	308.95
382.753	299.59
383.201	292.57
383.649	348.74
384.097	259.8
384.545	299.59
384.992	346.4
385.44	341.72
385.888	351.08
386.335	320.65
386.783	290.23
387.231	290.23
387.678	344.06
388.125	236.39
388.573	299.59
389.02	341.72
389.467	318.31
389.914	320.65
390.362	276.18
390.809	313.63
391.256	283.2
391.703	337.04
392.15	374.49
392.596	339.38
393.043	292.57
393.49	313.63
393.937	337.04
394.383	304.27
394.83	313.63
395.276	294.91
395.723	311.29
396.169	322.99
396.616	358.1
397.062	311.29
397.508	339.38
397.954	304.27
398.401	297.25
398.847	341.72
399.293	304.27
399.739	313.63
400.185	353.42
400.631	292.57
401.076	325.33
401.522	348.74
401.968	330.02
402.414	334.7
402.859	313.63
403.305	330.02
403.75	276.18
404.196	299.59
404.641	297.25
405.086	320.65
405.532	337.04
405.977	269.16
406.422	299.59
406.867	325.33
407.312	318.31
407.757	327.67
408.202	311.29
408.647	299.59
409.092	325.33
409.537	351.08
409.982	341.72
410.426	318.31
410.871	304.27
411.316	358.1
411.76	315.97
412.205	334.7
412.649	421.3
413.093	315.97
413.538	322.99
413.982	320.65
414.426	330.02
414.87	337.04
415.314	400.23
415.758	315.97
416.202	360.44
416.646	299.59
417.09	346.4
417.534	325.33
417.978	301.93
418.421	325.33
418.865	299.59
419.309	355.76
419.752	395.55
420.196	374.49
420.639	325.33
421.083	393.21
421.526	252.78
421.969	322.99
422.412	276.18
422.856	315.97
423.299	360.44
423.742	238.73
424.185	273.84
424.628	358.1
425.071	330.02
425.513	301.93
425.956	386.19
426.399	337.04
426.842	299.59
427.284	313.63
427.727	313.63
428.169	346.4
428.612	299.59
429.054	322.99
429.497	255.12
429.939	278.52
430.381	355.76
430.823	332.36
431.265	334.7
431.707	276.18
432.149	330.02
432.591	346.4
433.033	315.97
433.475	297.25
433.917	292.57
434.359	308.95
434.8	308.95
435.242	344.06
435.684	315.97
436.125	294.91
436.567	332.36
437.008	393.21
437.449	339.38
437.891	325.33
438.332	255.12
438.773	334.7
439.214	313.63
439.656	299.59
440.097	339.38
440.538	308.95
440.978	315.97
441.419	301.93
441.86	299.59
442.301	308.95
442.742	276.18
443.182	330.02
443.623	360.44
444.063	308.95
444.504	234.05
444.944	283.2
445.385	308.95
445.825	292.57
446.265	351.08
446.706	346.4
447.146	337.04
447.586	322.99
448.026	332.36
448.466	386.19
448.906	322.99
449.346	332.36
449.786	292.57
450.225	311.29
450.665	327.67
451.105	306.61
451.544	334.7
451.984	318.31
452.424	299.59
452.863	266.82
453.302	301.93
453.742	255.12
454.181	332.36
454.62	355.76
455.059	344.06
455.499	257.46
455.938	337.04
456.377	372.15
456.816	332.36
457.254	362.78
457.693	292.57
458.132	351.08
458.571	287.89
459.01	306.61
459.448	344.06
459.887	280.86
460.325	367.46
460.764	348.74
461.202	273.84
461.641	390.87
462.079	318.31
462.517	304.27
462.955	294.91
463.393	294.91
463.832	306.61
464.27	285.55
464.708	311.29
465.145	306.61
465.583	315.97
466.021	344.06
466.459	334.7
466.897	355.76
467.334	273.84
467.772	353.42
468.209	353.42
468.647	292.57
469.084	341.72
469.522	337.04
469.959	348.74
470.396	273.84
470.833	341.72
471.271	311.29
471.708	322.99
472.145	355.76
472.582	294.91
473.019	301.93
473.456	294.91
473.892	344.06
474.329	318.31
474.766	353.42
475.202	285.55
475.639	330.02
476.076	315.97
476.512	393.21
476.949	264.48
477.385	372.15
477.821	280.86
478.258	315.97
478.694	294.91
479.13	318.31
479.566	297.25
480.002	346.4
480.438	339.38
480.874	362.78
481.31	346.4
481.746	348.74
482.181	308.95
482.617	337.04
483.053	339.38
483.488	285.55
483.924	351.08
484.36	322.99
484.795	369.8
485.23	294.91
485.666	362.78
486.101	348.74
486.536	287.89
486.971	259.8
487.407	259.8
487.842	301.93
488.277	332.36
488.712	325.33
489.146	344.06
489.581	339.38
490.016	351.08
490.451	315.97
490.885	362.78
491.32	334.7
491.755	308.95
492.189	297.25
492.624	325.33
493.058	292.57
493.492	292.57
493.927	355.76
494.361	297.25
494.795	353.42
495.229	294.91
495.663	346.4
496.097	351.08
496.531	381.51
496.965	292.57
497.399	320.65
497.833	285.55
498.266	287.89
498.7	367.46
499.134	299.59
499.567	304.27
500.001	278.52
500.434	358.1
500.868	351.08
501.301	374.49
501.734	344.06
502.168	344.06
502.601	332.36
503.034	358.1
503.467	262.14
503.9	292.57
504.333	320.65
504.766	264.48
505.199	346.4
505.632	313.63
506.064	313.63
506.497	294.91
506.93	327.67
507.362	369.8
507.795	311.29
508.227	325.33
508.66	386.19
509.092	313.63
509.524	283.2
509.956	322.99
510.389	315.97
510.821	337.04
511.253	283.2
511.685	332.36
512.117	320.65
512.549	376.83
512.981	365.12
513.412	421.3
513.844	287.89
514.276	276.18
514.707	294.91
515.139	271.5
515.571	383.85
516.002	311.29
516.433	330.02
516.865	325.33
517.296	337.04
517.727	355.76
518.159	355.76
518.59	346.4
519.021	367.46
519.452	355.76
519.883	341.72
520.314	238.73
520.744	271.5
521.175	304.27
521.606	341.72
522.037	269.16
522.467	367.46
522.898	294.91
523.328	273.84
523.759	386.19
524.189	292.57
524.62	346.4
525.05	330.02
525.48	402.57
525.91	360.44
526.341	337.04
526.771	360.44
527.201	416.62
527.631	271.5
528.061	362.78
528.49	407.25
528.92	287.89
529.35	358.1
529.78	346.4
530.209	306.61
530.639	269.16
531.068	334.7
531.498	299.59
531.927	271.5
532.357	325.33
532.786	273.84
533.215	315.97
533.644	374.49
534.074	341.72
534.503	381.51
534.932	341.72
535.361	311.29
535.79	351.08
536.218	301.93
536.647	334.7
537.076	390.87
537.505	304.27
537.933	297.25
538.362	337.04
538.79	273.84
539.219	292.57
539.647	325.33
540.076	320.65
540.504	308.95
540.932	271.5
541.36	346.4
541.788	306.61
542.217	332.36
542.645	355.76
543.073	365.12
543.5	308.95
543.928	269.16
544.356	273.84
544.784	280.86
545.211	332.36
545.639	318.31
546.067	330.02
546.494	341.72
546.922	262.14
547.349	231.71
547.776	299.59
548.204	327.67
548.631	339.38
549.058	374.49
549.485	297.25
549.912	332.36
550.339	308.95
550.766	304.27
551.193	355.76
551.62	301.93
552.047	306.61
552.474	290.23
552.9	320.65
553.327	280.86
553.754	257.46
554.18	269.16
554.607	388.53
555.033	360.44
555.459	294.91
555.886	390.87
556.312	400.23
556.738	330.02
557.164	339.38
557.59	362.78
558.016	339.38
558.442	381.51
558.868	308.95
559.294	318.31
559.72	315.97
560.145	276.18
560.571	386.19
560.997	285.55
561.422	388.53
561.848	259.8
562.273	297.25
562.699	280.86
563.124	311.29
563.549	348.74
563.974	301.93
564.4	334.7
564.825	322.99
565.25	341.72
565.675	360.44
566.1	337.04
566.525	395.55
566.95	306.61
567.374	297.25
567.799	348.74
568.224	337.04
568.648	379.17
569.073	287.89
569.497	358.1
569.922	313.63
570.346	351.08
570.771	297.25
571.195	283.2
571.619	238.73
572.043	339.38
572.467	348.74
572.891	339.38
573.315	341.72
573.739	255.12
574.163	383.85
574.587	318.31
575.011	322.99
575.435	339.38
575.858	299.59
576.282	351.08
576.705	346.4
577.129	259.8
577.552	337.04
577.976	388.53
578.399	245.76
578.822	229.37
579.245	287.89
579.669	332.36
580.092	358.1
580.515	299.59
580.938	287.89
581.361	320.65
581.784	418.96
582.206	308.95
582.629	421.3
583.052	278.52
583.474	360.44
583.897	348.74
584.32	318.31
584.742	313.63
585.165	325.33
585.587	344.06
586.009	351.08
586.431	365.12
586.854	348.74
587.276	283.2
587.698	320.65
588.12	292.57
588.542	341.72
588.964	308.95
589.386	346.4
589.807	299.59
590.229	322.99
590.651	344.06
591.073	374.49
591.494	346.4
591.916	322.99
592.337	334.7
592.759	292.57
593.18	266.82
593.601	411.93
594.022	306.61
594.444	348.74
594.865	346.4
595.286	325.33
595.707	337.04
596.128	339.38
596.549	299.59
596.97	322.99
597.39	344.06
597.811	318.31
598.232	294.91
598.652	341.72
599.073	311.29
599.494	339.38
599.914	327.67
600.334	241.08
600.755	311.29
601.175	322.99
601.595	346.4
602.015	322.99
602.436	287.89
602.856	477.47
603.276	320.65
603.696	318.31
604.115	297.25
604.535	325.33
604.955	332.36
605.375	304.27
605.794	337.04
606.214	358.1
606.634	273.84
607.053	315.97
607.473	334.7
607.892	257.46
608.311	322.99
608.731	337.04
609.15	311.29
609.569	339.38
609.988	269.16
610.407	348.74
610.826	337.04
611.245	383.85
611.664	322.99
612.083	306.61
612.501	290.23
612.92	365.12
613.339	299.59
613.757	283.2
614.176	330.02
614.594	294.91
615.013	337.04
615.431	337.04
615.85	318.31
616.268	280.86
616.686	348.74
617.104	308.95
617.522	360.44
617.94	374.49
618.358	355.76
618.776	337.04
619.194	308.95
619.612	325.33
620.03	313.63
620.447	327.67
620.865	355.76
621.282	318.31
621.7	297.25
622.117	311.29
622.535	327.67
622.952	238.73
623.369	332.36
623.787	320.65
624.204	322.99
624.621	351.08
625.038	301.93
625.455	306.61
625.872	351.08
626.289	344.06
626.706	292.57
627.123	332.36
627.539	372.15
627.956	311.29
628.373	325.33
628.789	327.67
629.206	320.65
629.622	287.89
630.038	365.12
630.455	311.29
630.871	299.59
631.287	285.55
631.703	334.7
632.12	304.27
632.536	290.23
632.952	294.91
633.368	297.25
633.783	353.42
634.199	362.78
634.615	313.63
635.031	381.51
635.446	367.46
635.862	301.93
636.277	315.97
636.693	353.42
637.108	259.8
637.524	425.98
637.939	299.59
638.354	287.89
638.77	278.52
639.185	325.33
639.6	297.25
640.015	346.4
640.43	311.29
640.845	367.46
641.259	283.2
641.674	311.29
642.089	360.44
642.504	313.63
642.918	346.4
643.333	266.82
643.747	313.63
644.162	362.78
644.576	283.2
644.991	374.49
645.405	344.06
645.819	339.38
646.233	367.46
646.647	304.27
647.061	290.23
647.475	344.06
647.889	351.08
648.303	280.86
648.717	344.06
649.131	355.76
649.545	339.38
649.958	358.1
650.372	351.08
650.785	362.78
651.199	374.49
651.612	327.67
652.026	332.36
652.439	325.33
652.852	325.33
653.266	318.31
653.679	355.76
654.092	330.02
654.505	278.52
654.918	325.33
655.331	304.27
655.744	304.27
656.156	351.08
656.569	320.65
656.982	306.61
657.394	381.51
657.807	297.25
658.22	320.65
658.632	341.72
659.044	292.57
659.457	273.84
659.869	339.38
660.281	341.72
660.693	330.02
661.106	294.91
661.518	346.4
661.93	374.49
662.342	301.93
662.754	327.67
663.165	301.93
663.577	337.04
663.989	327.67
664.401	308.95
664.812	322.99
665.224	257.46
665.635	365.12
666.047	304.27
666.458	341.72
666.869	358.1
667.281	395.55
667.692	313.63
668.103	330.02
668.514	344.06
668.925	243.42
669.336	299.59
669.747	325.33
670.158	280.86
670.569	330.02
670.979	332.36
671.39	299.59
671.801	325.33
672.211	304.27
672.622	294.91
673.032	306.61
673.443	304.27
673.853	339.38
674.263	358.1
674.674	344.06
675.084	334.7
675.494	278.52
675.904	360.44
676.314	299.59
676.724	269.16
677.134	325.33
677.544	358.1
677.953	273.84
678.363	294.91
678.773	400.23
679.182	344.06
679.592	285.55
680.001	285.55
680.411	344.06
680.82	348.74
681.23	325.33
681.639	255.12
682.048	334.7
682.457	325.33
682.866	346.4
683.275	273.84
683.684	360.44
684.093	301.93
684.502	311.29
684.911	332.36
685.32	327.67
685.728	297.25
686.137	351.08
686.546	388.53
686.954	348.74
687.363	266.82
687.771	301.93
688.179	292.57
688.588	278.52
688.996	379.17
689.404	269.16
689.812	290.23
690.22	322.99
690.628	367.46
691.036	292.57
691.444	400.23
691.852	341.72
692.26	311.29
692.667	313.63
693.075	276.18
693.483	306.61
693.89	315.97
694.298	351.08
694.705	320.65
695.112	250.44
695.52	348.74
695.927	358.1
696.334	334.7
696.741	290.23
697.148	353.42
697.555	341.72
697.962	308.95
698.369	367.46
698.776	299.59
699.183	325.33
699.59	320.65
699.996	304.27
700.403	294.91
700.81	318.31
701.216	306.61
701.623	313.63
702.029	334.7
702.435	339.38
702.842	294.91
703.248	372.15
703.654	320.65
704.06	353.42
704.466	308.95
704.872	362.78
705.278	372.15
705.684	304.27
706.09	358.1
706.496	332.36
706.901	306.61
707.307	330.02
707.712	255.12
708.118	318.31
708.523	344.06
708.929	348.74
709.334	313.63
709.74	360.44
710.145	276.18
710.55	287.89
710.955	327.67
711.36	339.38
711.765	325.33
712.17	287.89
712.575	297.25
712.98	903.45
713.385	346.4
713.789	348.74
714.194	287.89
714.599	320.65
715.003	292.57
715.408	313.63
715.812	304.27
716.217	334.7
716.621	346.4
717.025	318.31
717.429	339.38
717.833	325.33
718.238	348.74
718.642	360.44
719.046	280.86
719.449	276.18
719.853	320.65
720.257	365.12
720.661	344.06
721.065	327.67
721.468	330.02
721.872	294.91
722.275	365.12
722.679	330.02
723.082	304.27
723.485	294.91
723.889	306.61
724.292	407.25
724.695	299.59
725.098	283.2
725.501	273.84
725.904	292.57
726.307	348.74
726.71	299.59
727.113	379.17
727.516	393.21
727.918	346.4
728.321	318.31
728.724	308.95
729.126	362.78
729.529	322.99
729.931	379.17
730.333	351.08
730.736	313.63
731.138	287.89
731.54	278.52
731.942	287.89
732.344	292.57
732.746	348.74
733.148	306.61
733.55	358.1
733.952	311.29
734.354	327.67
734.756	304.27
735.157	287.89
735.559	294.91
735.96	383.85
736.362	369.8
736.763	287.89
737.165	320.65
737.566	269.16
737.967	271.5
738.368	339.38
738.77	395.55
739.171	360.44
739.572	353.42
739.973	304.27
740.374	351.08
740.774	332.36
741.175	339.38
741.576	330.02
741.977	315.97
742.377	372.15
742.778	315.97
743.178	290.23
743.579	374.49
743.979	264.48
744.379	395.55
744.78	311.29
745.18	341.72
745.58	351.08
745.98	332.36
746.38	322.99
746.78	337.04
747.18	325.33
747.58	330.02
747.98	292.57
748.38	311.29
748.779	318.31
749.179	315.97
749.578	341.72
749.978	355.76
750.377	271.5
750.777	332.36
751.176	330.02
751.575	348.74
751.975	327.67
752.374	299.59
752.773	339.38
753.172	266.82
753.571	360.44
753.97	337.04
754.369	262.14
754.768	308.95
755.166	315.97
755.565	273.84
755.964	294.91
756.362	337.04
756.761	313.63
757.159	292.57
757.558	322.99
757.956	301.93
758.354	374.49
758.753	325.33
759.151	327.67
759.549	353.42
759.947	322.99
760.345	322.99
760.743	292.57
761.141	313.63
761.539	315.97
761.936	348.74
762.334	339.38
762.732	351.08
763.129	339.38
763.527	330.02
763.924	383.85
764.322	313.63
764.719	330.02
765.117	327.67
