Data from Al_FLMS009871__53__11-30-40-524.txt Node

Date: Fri Mar 08 11:30:40 CST 2024
User: pe5414po
Spectrometer: FLMS00987
Trigger mode: 0
Integration Time (sec): 1.000000E-1
Scans to average: 1
Electric dark correction enabled: true
Nonlinearity correction enabled: false
Boxcar width: 0
XAxis mode: Wavelengths
Number of Pixels in Spectrum: 2048
>>>>>Begin Spectral Data<<<<<
188.938	-79.87
189.409	-79.87
189.879	-79.87
190.349	-112.64
190.819	-84.55
191.29	-112.64
191.76	-112.64
192.23	-12
192.7	-110.3
193.17	-124.34
193.64	6.73
194.109	-68.17
194.579	-9.65
195.049	2.05
195.519	9.07
195.988	93.33
196.458	13.75
196.927	58.22
197.397	100.35
197.866	142.48
198.336	123.76
198.805	154.18
199.274	198.65
199.744	186.95
200.213	193.97
200.682	156.52
201.151	257.17
201.62	217.38
202.089	245.46
202.558	313.34
203.027	233.76
203.495	275.89
203.964	357.81
204.433	315.68
204.902	191.63
205.37	296.96
205.839	313.34
206.307	301.64
206.776	313.34
207.244	299.3
207.712	313.34
208.181	313.34
208.649	282.91
209.117	318.02
209.585	301.64
210.053	280.57
210.521	308.66
210.989	278.23
211.457	306.32
211.925	315.68
212.393	353.13
212.861	329.72
213.328	252.49
213.796	294.61
214.264	257.17
214.731	294.61
215.199	357.81
215.666	259.51
216.133	289.93
216.601	294.61
217.068	318.02
217.535	306.32
218.003	285.25
218.47	320.36
218.937	280.57
219.404	287.59
219.871	257.17
220.338	224.4
220.805	301.64
221.271	315.68
221.738	257.17
222.205	303.98
222.671	236.1
223.138	287.59
223.605	294.61
224.071	261.85
224.538	257.17
225.004	315.68
225.47	285.25
225.937	224.4
226.403	296.96
226.869	294.61
227.335	275.89
227.801	294.61
228.267	301.64
228.733	280.57
229.199	285.25
229.665	252.49
230.131	285.25
230.597	301.64
231.062	334.4
231.528	318.02
231.994	268.87
232.459	266.53
232.925	343.77
233.39	280.57
233.856	311
234.321	308.66
234.786	327.38
235.252	289.93
235.717	278.23
236.182	334.4
236.647	292.27
237.112	320.36
237.577	250.14
238.042	233.76
238.507	294.61
238.972	306.32
239.436	282.91
239.901	271.21
240.366	212.7
240.83	303.98
241.295	257.17
241.76	362.49
242.224	268.87
242.688	318.02
243.153	247.8
243.617	266.53
244.081	322.7
244.545	341.43
245.01	329.72
245.474	327.38
245.938	350.79
246.402	266.53
246.866	261.85
247.33	268.87
247.793	292.27
248.257	364.83
248.721	313.34
249.185	292.27
249.648	299.3
250.112	306.32
250.575	311
251.039	303.98
251.502	250.14
251.965	245.46
252.429	346.11
252.892	334.4
253.355	346.11
253.818	327.38
254.281	325.04
254.744	329.72
255.207	247.8
255.67	315.68
256.133	292.27
256.596	313.34
257.059	329.72
257.522	289.93
257.984	257.17
258.447	282.91
258.909	374.19
259.372	348.45
259.834	311
260.297	261.85
260.759	282.91
261.221	287.59
261.684	292.27
262.146	301.64
262.608	334.4
263.07	329.72
263.532	280.57
263.994	329.72
264.456	292.27
264.918	289.93
265.38	287.59
265.842	226.74
266.303	329.72
266.765	282.91
267.227	296.96
267.688	280.57
268.15	282.91
268.611	357.81
269.072	348.45
269.534	275.89
269.995	339.09
270.456	320.36
270.918	292.27
271.379	371.85
271.84	327.38
272.301	329.72
272.762	292.27
273.223	282.91
273.684	318.02
274.144	325.04
274.605	348.45
275.066	339.09
275.527	296.96
275.987	329.72
276.448	327.38
276.908	315.68
277.369	334.4
277.829	299.3
278.289	264.19
278.75	268.87
279.21	233.76
279.67	360.15
280.13	301.64
280.59	264.19
281.05	378.87
281.51	296.96
281.97	289.93
282.43	329.72
282.89	334.4
283.35	355.47
283.809	243.12
284.269	306.32
284.729	311
285.188	346.11
285.648	357.81
286.107	367.17
286.567	308.66
287.026	357.81
287.485	334.4
287.944	301.64
288.404	334.4
288.863	367.17
289.322	329.72
289.781	332.06
290.24	278.23
290.699	364.83
291.158	264.19
291.616	315.68
292.075	289.93
292.534	332.06
292.992	301.64
293.451	311
293.91	308.66
294.368	329.72
294.827	336.74
295.285	282.91
295.743	278.23
296.202	320.36
296.66	348.45
297.118	292.27
297.576	268.87
298.034	336.74
298.492	325.04
298.95	334.4
299.408	301.64
299.866	280.57
300.324	278.23
300.781	364.83
301.239	332.06
301.697	329.72
302.154	254.83
302.612	294.61
303.069	278.23
303.527	318.02
303.984	287.59
304.441	301.64
304.899	280.57
305.356	308.66
305.813	306.32
306.27	308.66
306.727	282.91
307.184	287.59
307.641	343.77
308.098	355.47
308.555	296.96
309.012	329.72
309.468	364.83
309.925	332.06
310.382	339.09
310.838	252.49
311.295	296.96
311.751	315.68
312.208	289.93
312.664	282.91
313.12	325.04
313.577	299.3
314.033	346.11
314.489	296.96
314.945	357.81
315.401	341.43
315.857	250.14
316.313	245.46
316.769	364.83
317.225	329.72
317.681	275.89
318.136	355.47
318.592	292.27
319.048	278.23
319.503	292.27
319.959	318.02
320.414	282.91
320.869	264.19
321.325	346.11
321.78	306.32
322.235	301.64
322.691	315.68
323.146	357.81
323.601	311
324.056	364.83
324.511	329.72
324.966	364.83
325.421	296.96
325.875	329.72
326.33	254.83
326.785	296.96
327.24	390.58
327.694	350.79
328.149	320.36
328.603	320.36
329.058	336.74
329.512	346.11
329.966	355.47
330.421	315.68
330.875	357.81
331.329	357.81
331.783	325.04
332.237	320.36
332.691	294.61
333.145	296.96
333.599	282.91
334.053	332.06
334.507	320.36
334.96	346.11
335.414	350.79
335.868	357.81
336.321	374.19
336.775	301.64
337.228	334.4
337.682	285.25
338.135	306.32
338.588	325.04
339.042	381.21
339.495	364.83
339.948	289.93
340.401	360.15
340.854	280.57
341.307	336.74
341.76	282.91
342.213	348.45
342.666	303.98
343.119	320.36
343.571	226.74
344.024	292.27
344.477	325.04
344.929	336.74
345.382	339.09
345.834	367.17
346.287	348.45
346.739	266.53
347.191	306.32
347.644	315.68
348.096	399.94
348.548	357.81
349	289.93
349.452	313.34
349.904	313.34
350.356	299.3
350.808	301.64
351.26	329.72
351.711	360.15
352.163	374.19
352.615	343.77
353.066	301.64
353.518	320.36
353.969	332.06
354.421	287.59
354.872	318.02
355.324	311
355.775	343.77
356.226	392.92
356.677	341.43
357.128	362.49
357.579	334.4
358.03	289.93
358.481	306.32
358.932	369.51
359.383	289.93
359.834	435.05
360.285	357.81
360.735	341.43
361.186	294.61
361.637	325.04
362.087	318.02
362.538	362.49
362.988	303.98
363.438	402.28
363.889	289.93
364.339	315.68
364.789	355.47
365.239	332.06
365.689	348.45
366.139	292.27
366.589	360.15
367.039	367.17
367.489	378.87
367.939	343.77
368.389	339.09
368.839	336.74
369.288	348.45
369.738	364.83
370.187	322.7
370.637	334.4
371.086	357.81
371.536	381.21
371.985	325.04
372.434	289.93
372.884	336.74
373.333	339.09
373.782	313.34
374.231	364.83
374.68	301.64
375.129	390.58
375.578	315.68
376.027	327.38
376.475	348.45
376.924	339.09
377.373	360.15
377.822	299.3
378.27	311
378.719	278.23
379.167	325.04
379.616	346.11
380.064	287.59
380.512	353.13
380.961	318.02
381.409	327.38
381.857	311
382.305	346.11
382.753	360.15
383.201	362.49
383.649	334.4
384.097	339.09
384.545	367.17
384.992	336.74
385.44	350.79
385.888	374.19
386.335	343.77
386.783	296.96
387.231	362.49
387.678	364.83
388.125	329.72
388.573	261.85
389.02	313.34
389.467	364.83
389.914	301.64
390.362	311
390.809	367.17
391.256	350.79
391.703	371.85
392.15	329.72
392.596	362.49
393.043	268.87
393.49	303.98
393.937	332.06
394.383	278.23
394.83	332.06
395.276	350.79
395.723	336.74
396.169	341.43
396.616	392.92
397.062	285.25
397.508	322.7
397.954	296.96
398.401	322.7
398.847	315.68
399.293	327.38
399.739	336.74
400.185	341.43
400.631	318.02
401.076	266.53
401.522	353.13
401.968	320.36
402.414	327.38
402.859	311
403.305	341.43
403.75	421
404.196	301.64
404.641	329.72
405.086	339.09
405.532	257.17
405.977	348.45
406.422	287.59
406.867	315.68
407.312	348.45
407.757	313.34
408.202	367.17
408.647	374.19
409.092	341.43
409.537	371.85
409.982	318.02
410.426	311
410.871	362.49
411.316	271.21
411.76	289.93
412.205	371.85
412.649	306.32
413.093	341.43
413.538	320.36
413.982	395.26
414.426	303.98
414.87	280.57
415.314	378.87
415.758	404.62
416.202	343.77
416.646	336.74
417.09	367.17
417.534	411.64
417.978	409.3
418.421	355.47
418.865	329.72
419.309	371.85
419.752	339.09
420.196	360.15
420.639	376.53
421.083	320.36
421.526	383.56
421.969	311
422.412	369.51
422.856	287.59
423.299	325.04
423.742	362.49
424.185	339.09
424.628	364.83
425.071	332.06
425.513	360.15
425.956	425.68
426.399	362.49
426.842	404.62
427.284	341.43
427.727	332.06
428.169	421
428.612	411.64
429.054	339.09
429.497	449.09
429.939	416.32
430.381	315.68
430.823	376.53
431.265	399.94
431.707	413.98
432.149	397.6
432.591	406.96
433.033	371.85
433.475	383.56
433.917	456.11
434.359	481.86
434.8	514.63
435.242	481.86
435.684	446.75
436.125	505.26
436.567	463.13
437.008	442.07
437.449	486.54
437.891	430.37
438.332	484.2
438.773	463.13
439.214	507.6
439.656	549.73
440.097	502.92
440.538	561.44
440.978	430.37
441.419	474.84
441.86	500.58
442.301	458.45
442.742	502.92
443.182	521.65
443.623	542.71
444.063	570.8
444.504	573.14
444.944	523.99
445.385	561.44
445.825	498.24
446.265	535.69
446.706	559.1
447.146	573.14
447.586	437.39
448.026	512.28
448.466	540.37
448.906	477.18
449.346	488.88
449.786	533.35
450.225	495.9
450.665	509.94
451.105	516.97
451.544	465.47
451.984	488.88
452.424	488.88
452.863	542.71
453.302	470.16
453.742	463.13
454.181	484.2
454.62	479.52
455.059	516.97
455.499	423.34
455.938	486.54
456.377	519.31
456.816	498.24
457.254	437.39
457.693	479.52
458.132	437.39
458.571	463.13
459.01	437.39
459.448	435.05
459.887	442.07
460.325	453.77
460.764	449.09
461.202	481.86
461.641	444.41
462.079	404.62
462.517	406.96
462.955	423.34
463.393	472.5
463.832	444.41
464.27	451.43
464.708	378.87
465.145	446.75
465.583	402.28
466.021	425.68
466.459	385.9
466.897	416.32
467.334	406.96
467.772	418.66
468.209	392.92
468.647	474.84
469.084	439.73
469.522	416.32
469.959	402.28
470.396	381.21
470.833	388.24
471.271	442.07
471.708	421
472.145	367.17
472.582	463.13
473.019	397.6
473.456	385.9
473.892	404.62
474.329	367.17
474.766	392.92
475.202	392.92
475.639	404.62
476.076	399.94
476.512	399.94
476.949	357.81
477.385	353.13
477.821	371.85
478.258	364.83
478.694	453.77
479.13	381.21
479.566	378.87
480.002	378.87
480.438	385.9
480.874	430.37
481.31	360.15
481.746	425.68
482.181	322.7
482.617	371.85
483.053	413.98
483.488	406.96
483.924	341.43
484.36	392.92
484.795	327.38
485.23	385.9
485.666	444.41
486.101	444.41
486.536	442.07
486.971	385.9
487.407	395.26
487.842	374.19
488.277	411.64
488.712	413.98
489.146	428.03
489.581	395.26
490.016	381.21
490.451	381.21
490.885	404.62
491.32	425.68
491.755	399.94
492.189	346.11
492.624	481.86
493.058	395.26
493.492	402.28
493.927	458.45
494.361	465.47
494.795	416.32
495.229	418.66
495.663	418.66
496.097	376.53
496.531	406.96
496.965	453.77
497.399	392.92
497.833	458.45
498.266	385.9
498.7	444.41
499.134	477.18
499.567	399.94
500.001	470.16
500.434	413.98
500.868	421
501.301	395.26
501.734	411.64
502.168	442.07
502.601	418.66
503.034	460.79
503.467	465.47
503.9	418.66
504.333	390.58
504.766	444.41
505.199	423.34
505.632	416.32
506.064	458.45
506.497	421
506.93	486.54
507.362	399.94
507.795	388.24
508.227	418.66
508.66	507.6
509.092	465.47
509.524	500.58
509.956	392.92
510.389	453.77
510.821	432.71
511.253	477.18
511.685	421
512.117	399.94
512.549	467.81
512.981	446.75
513.412	479.52
513.844	456.11
514.276	439.73
514.707	418.66
515.139	486.54
515.571	456.11
516.002	514.63
516.433	446.75
516.865	416.32
517.296	399.94
517.727	369.51
518.159	456.11
518.59	458.45
519.021	430.37
519.452	486.54
519.883	495.9
520.314	444.41
520.744	479.52
521.175	493.56
521.606	418.66
522.037	488.88
522.467	463.13
522.898	428.03
523.328	453.77
523.759	538.03
524.189	465.47
524.62	453.77
525.05	453.77
525.48	500.58
525.91	500.58
526.341	542.71
526.771	444.41
527.201	402.28
527.631	430.37
528.061	463.13
528.49	456.11
528.92	369.51
529.35	460.79
529.78	465.47
530.209	477.18
530.639	444.41
531.068	505.26
531.498	460.79
531.927	439.73
532.357	516.97
532.786	472.5
533.215	432.71
533.644	470.16
534.074	432.71
534.503	479.52
534.932	467.81
535.361	432.71
535.79	409.3
536.218	442.07
536.647	428.03
537.076	470.16
537.505	488.88
537.933	435.05
538.362	484.2
538.79	472.5
539.219	545.05
539.647	493.56
540.076	491.22
540.504	491.22
540.932	580.16
541.36	568.46
541.788	608.25
542.217	566.12
542.645	645.7
543.073	657.4
543.5	641.01
543.928	582.5
544.356	636.33
544.784	666.76
545.211	587.18
545.639	580.16
546.067	577.82
546.494	540.37
546.922	488.88
547.349	467.81
547.776	531.01
548.204	472.5
548.631	528.67
549.058	470.16
549.485	545.05
549.912	491.22
550.339	566.12
550.766	430.37
551.193	381.21
551.62	474.84
552.047	435.05
552.474	514.63
552.9	442.07
553.327	458.45
553.754	392.92
554.18	528.67
554.607	484.2
555.033	432.71
555.459	502.92
555.886	413.98
556.312	430.37
556.738	397.6
557.164	395.26
557.59	472.5
558.016	446.75
558.442	371.85
558.868	481.86
559.294	357.81
559.72	444.41
560.145	421
560.571	458.45
560.997	411.64
561.422	390.58
561.848	500.58
562.273	409.3
562.699	371.85
563.124	413.98
563.549	416.32
563.974	416.32
564.4	467.81
564.825	449.09
565.25	371.85
565.675	477.18
566.1	449.09
566.525	385.9
566.95	390.58
567.374	411.64
567.799	437.39
568.224	442.07
568.648	465.47
569.073	449.09
569.497	399.94
569.922	439.73
570.346	418.66
570.771	453.77
571.195	437.39
571.619	453.77
572.043	367.17
572.467	481.86
572.891	514.63
573.315	392.92
573.739	439.73
574.163	474.84
574.587	402.28
575.011	470.16
575.435	488.88
575.858	465.47
576.282	416.32
576.705	432.71
577.129	362.49
577.552	371.85
577.976	463.13
578.399	378.87
578.822	409.3
579.245	416.32
579.669	444.41
580.092	439.73
580.515	444.41
580.938	449.09
581.361	472.5
581.784	477.18
582.206	474.84
582.629	449.09
583.052	465.47
583.474	435.05
583.897	442.07
584.32	430.37
584.742	362.49
585.165	453.77
585.587	444.41
586.009	460.79
586.431	460.79
586.854	392.92
587.276	416.32
587.698	439.73
588.12	460.79
588.542	498.24
588.964	423.34
589.386	435.05
589.807	470.16
590.229	418.66
590.651	399.94
591.073	399.94
591.494	435.05
591.916	418.66
592.337	425.68
592.759	421
593.18	364.83
593.601	406.96
594.022	327.38
594.444	463.13
594.865	371.85
595.286	362.49
595.707	360.15
596.128	381.21
596.549	425.68
596.97	477.18
597.39	383.56
597.811	425.68
598.232	421
598.652	435.05
599.073	395.26
599.494	437.39
599.914	364.83
600.334	418.66
600.755	430.37
601.175	395.26
601.595	402.28
602.015	315.68
602.436	416.32
602.856	554.41
603.276	423.34
603.696	399.94
604.115	355.47
604.535	360.15
604.955	357.81
605.375	423.34
605.794	383.56
606.214	371.85
606.634	360.15
607.053	432.71
607.473	423.34
607.892	390.58
608.311	472.5
608.731	416.32
609.15	428.03
609.569	568.46
609.988	612.93
610.407	608.25
610.826	603.57
611.245	491.22
611.664	594.2
612.083	477.18
612.501	540.37
612.92	570.8
613.339	421
613.757	378.87
614.176	456.11
614.594	477.18
615.013	399.94
615.431	428.03
615.85	378.87
616.268	514.63
616.686	409.3
617.104	355.47
617.522	435.05
617.94	406.96
618.358	395.26
618.776	364.83
619.194	395.26
619.612	406.96
620.03	411.64
620.447	442.07
620.865	418.66
621.282	409.3
621.7	411.64
622.117	315.68
622.535	395.26
622.952	402.28
623.369	425.68
623.787	376.53
624.204	327.38
624.621	320.36
625.038	428.03
625.455	388.24
625.872	395.26
626.289	399.94
626.706	306.32
627.123	383.56
627.539	355.47
627.956	362.49
628.373	425.68
628.789	388.24
629.206	423.34
629.622	423.34
630.038	430.37
630.455	416.32
630.871	346.11
631.287	385.9
631.703	343.77
632.12	423.34
632.536	355.47
632.952	357.81
633.368	348.45
633.783	388.24
634.199	306.32
634.615	362.49
635.031	329.72
635.446	339.09
635.862	392.92
636.277	355.47
636.693	341.43
637.108	329.72
637.524	390.58
637.939	371.85
638.354	371.85
638.77	435.05
639.185	343.77
639.6	397.6
640.015	364.83
640.43	383.56
640.845	346.11
641.259	383.56
641.674	318.02
642.089	343.77
642.504	376.53
642.918	325.04
643.333	362.49
643.747	306.32
644.162	378.87
644.576	418.66
644.991	360.15
645.405	374.19
645.819	303.98
646.233	355.47
646.647	388.24
647.061	336.74
647.475	428.03
647.889	364.83
648.303	385.9
648.717	374.19
649.131	353.13
649.545	378.87
649.958	353.13
650.372	264.19
650.785	339.09
651.199	322.7
651.612	411.64
652.026	397.6
652.439	376.53
652.852	362.49
653.266	402.28
653.679	320.36
654.092	383.56
654.505	362.49
654.918	392.92
655.331	381.21
655.744	362.49
656.156	343.77
656.569	350.79
656.982	306.32
657.394	355.47
657.807	313.34
658.22	425.68
658.632	378.87
659.044	444.41
659.457	343.77
659.869	341.43
660.281	383.56
660.693	355.47
661.106	406.96
661.518	369.51
661.93	341.43
662.342	259.51
662.754	395.26
663.165	378.87
663.577	341.43
663.989	355.47
664.401	313.34
664.812	367.17
665.224	397.6
665.635	449.09
666.047	395.26
666.458	313.34
666.869	348.45
667.281	308.66
667.692	343.77
668.103	329.72
668.514	374.19
668.925	395.26
669.336	278.23
669.747	369.51
670.158	348.45
670.569	362.49
670.979	353.13
671.39	402.28
671.801	322.7
672.211	460.79
672.622	289.93
673.032	392.92
673.443	357.81
673.853	322.7
674.263	362.49
674.674	278.23
675.084	404.62
675.494	348.45
675.904	271.21
676.314	336.74
676.724	374.19
677.134	367.17
677.544	301.64
677.953	306.32
678.363	371.85
678.773	325.04
679.182	357.81
679.592	339.09
680.001	346.11
680.411	299.3
680.82	318.02
681.23	334.4
681.639	376.53
682.048	334.4
682.457	329.72
682.866	381.21
683.275	350.79
683.684	315.68
684.093	285.25
684.502	334.4
684.911	294.61
685.32	355.47
685.728	336.74
686.137	346.11
686.546	327.38
686.954	332.06
687.363	371.85
687.771	343.77
688.179	306.32
688.588	334.4
688.996	332.06
689.404	346.11
689.812	318.02
690.22	350.79
690.628	336.74
691.036	313.34
691.444	399.94
691.852	325.04
692.26	280.57
692.667	371.85
693.075	289.93
693.483	374.19
693.89	374.19
694.298	418.66
694.705	303.98
695.112	353.13
695.52	329.72
695.927	296.96
696.334	350.79
696.741	341.43
697.148	280.57
697.555	273.55
697.962	327.38
698.369	313.34
698.776	388.24
699.183	404.62
699.59	348.45
699.996	334.4
700.403	336.74
700.81	322.7
701.216	306.32
701.623	376.53
702.029	332.06
702.435	254.83
702.842	303.98
703.248	360.15
703.654	353.13
704.06	360.15
704.466	325.04
704.872	336.74
705.278	449.09
705.684	341.43
706.09	313.34
706.496	369.51
706.901	306.32
707.307	353.13
707.712	360.15
708.118	289.93
708.523	332.06
708.929	318.02
709.334	346.11
709.74	388.24
710.145	282.91
710.55	364.83
710.955	339.09
711.36	325.04
711.765	294.61
712.17	320.36
712.575	306.32
712.98	882.09
713.385	383.56
713.789	350.79
714.194	325.04
714.599	336.74
715.003	362.49
715.408	325.04
715.812	383.56
716.217	364.83
716.621	254.83
717.025	332.06
717.429	299.3
717.833	306.32
718.238	329.72
718.642	311
719.046	346.11
719.449	329.72
719.853	332.06
720.257	362.49
720.661	315.68
721.065	311
721.468	311
721.872	275.89
722.275	411.64
722.679	355.47
723.082	334.4
723.485	301.64
723.889	327.38
724.292	320.36
724.695	292.27
725.098	285.25
725.501	325.04
725.904	353.13
726.307	348.45
726.71	278.23
727.113	350.79
727.516	308.66
727.918	313.34
728.321	357.81
728.724	378.87
729.126	332.06
729.529	296.96
729.931	350.79
730.333	381.21
730.736	280.57
731.138	308.66
731.54	289.93
731.942	289.93
732.344	374.19
732.746	339.09
733.148	287.59
733.55	357.81
733.952	315.68
734.354	296.96
734.756	325.04
735.157	360.15
735.559	329.72
735.96	289.93
736.362	346.11
736.763	308.66
737.165	332.06
737.566	362.49
737.967	339.09
738.368	343.77
738.77	329.72
739.171	318.02
739.572	332.06
739.973	343.77
740.374	350.79
740.774	273.55
741.175	329.72
741.576	327.38
741.977	360.15
742.377	318.02
742.778	325.04
743.178	404.62
743.579	343.77
743.979	318.02
744.379	371.85
744.78	341.43
745.18	353.13
745.58	346.11
745.98	334.4
746.38	303.98
746.78	318.02
747.18	327.38
747.58	371.85
747.98	318.02
748.38	336.74
748.779	353.13
749.179	353.13
749.578	341.43
749.978	371.85
750.377	296.96
750.777	294.61
751.176	318.02
751.575	360.15
751.975	294.61
752.374	332.06
752.773	369.51
753.172	287.59
753.571	327.38
753.97	350.79
754.369	275.89
754.768	355.47
755.166	364.83
755.565	376.53
755.964	341.43
756.362	318.02
756.761	292.27
757.159	320.36
757.558	348.45
757.956	406.96
758.354	325.04
758.753	348.45
759.151	395.26
759.549	376.53
759.947	332.06
760.345	346.11
760.743	282.91
761.141	278.23
761.539	301.64
761.936	289.93
762.334	278.23
762.732	329.72
763.129	336.74
763.527	329.72
763.924	343.77
764.322	275.89
764.719	343.77
765.117	301.64
765.514	282.91
765.911	285.25
