Data from Al_FLMS009871__51__11-30-40-324.txt Node

Date: Fri Mar 08 11:30:40 CST 2024
User: pe5414po
Spectrometer: FLMS00987
Trigger mode: 0
Integration Time (sec): 1.000000E-1
Scans to average: 1
Electric dark correction enabled: true
Nonlinearity correction enabled: false
Boxcar width: 0
XAxis mode: Wavelengths
Number of Pixels in Spectrum: 2048
>>>>>Begin Spectral Data<<<<<
188.938	-100.79
189.409	-100.79
189.879	-100.79
190.349	-86.75
190.819	-107.81
191.29	-124.19
191.76	-79.72
192.23	-61
192.7	-46.96
193.17	-100.79
193.64	-89.09
194.109	-11.85
194.579	6.88
195.049	9.22
195.519	-7.17
195.988	-2.49
196.458	107.52
196.927	70.07
197.397	98.16
197.866	100.5
198.336	130.92
198.805	44.32
199.274	137.95
199.744	170.71
200.213	168.37
200.682	182.42
201.151	313.49
201.62	215.18
202.089	254.97
202.558	327.53
203.027	287.74
203.495	222.2
203.964	280.72
204.433	250.29
204.902	332.21
205.37	276.04
205.839	276.04
206.307	252.63
206.776	322.85
207.244	306.46
207.712	283.06
208.181	301.78
208.649	379.02
209.117	301.78
209.585	280.72
210.053	311.14
210.521	269.02
210.989	311.14
211.457	325.19
211.925	318.17
212.393	259.65
212.861	276.04
213.328	325.19
213.796	294.76
214.264	308.8
214.731	308.8
215.199	245.61
215.666	304.12
216.133	236.25
216.601	247.95
217.068	243.27
217.535	311.14
218.003	264.33
218.47	250.29
218.937	283.06
219.404	271.36
219.871	236.25
220.338	212.84
220.805	247.95
221.271	236.25
221.738	266.67
222.205	231.57
222.671	238.59
223.138	273.7
223.605	259.65
224.071	217.52
224.538	266.67
225.004	259.65
225.47	250.29
225.937	219.86
226.403	254.97
226.869	297.1
227.335	182.42
227.801	215.18
228.267	250.29
228.733	259.65
229.199	299.44
229.665	254.97
230.131	266.67
230.597	210.5
231.062	285.4
231.528	243.27
231.994	264.33
232.459	292.42
232.925	287.74
233.39	259.65
233.856	252.63
234.321	166.03
234.786	250.29
235.252	271.36
235.717	257.31
236.182	252.63
236.647	229.23
237.112	299.44
237.577	280.72
238.042	170.71
238.507	271.36
238.972	264.33
239.436	271.36
239.901	276.04
240.366	273.7
240.83	313.49
241.295	297.1
241.76	257.31
242.224	278.38
242.688	269.02
243.153	212.84
243.617	322.85
244.081	283.06
244.545	308.8
245.01	318.17
245.474	327.53
245.938	292.42
246.402	297.1
246.866	266.67
247.33	257.31
247.793	252.63
248.257	269.02
248.721	261.99
249.185	283.06
249.648	311.14
250.112	276.04
250.575	318.17
251.039	285.4
251.502	254.97
251.965	259.65
252.429	254.97
252.892	271.36
253.355	236.25
253.818	236.25
254.281	257.31
254.744	231.57
255.207	313.49
255.67	311.14
256.133	273.7
256.596	287.74
257.059	276.04
257.522	287.74
257.984	240.93
258.447	254.97
258.909	210.5
259.372	283.06
259.834	266.67
260.297	294.76
260.759	292.42
261.221	306.46
261.684	231.57
262.146	306.46
262.608	287.74
263.07	292.42
263.532	257.31
263.994	252.63
264.456	266.67
264.918	210.5
265.38	278.38
265.842	259.65
266.303	276.04
266.765	292.42
267.227	325.19
267.688	276.04
268.15	299.44
268.611	315.83
269.072	292.42
269.534	332.21
269.995	287.74
270.456	261.99
270.918	290.08
271.379	301.78
271.84	301.78
272.301	247.95
272.762	336.89
273.223	276.04
273.684	208.16
274.144	269.02
274.605	315.83
275.066	280.72
275.527	287.74
275.987	339.23
276.448	271.36
276.908	285.4
277.369	290.08
277.829	355.62
278.289	311.14
278.75	318.17
279.21	306.46
279.67	285.4
280.13	280.72
280.59	292.42
281.05	276.04
281.51	229.23
281.97	367.32
282.43	294.76
282.89	254.97
283.35	353.27
283.809	222.2
284.269	278.38
284.729	254.97
285.188	245.61
285.648	271.36
286.107	266.67
286.567	299.44
287.026	301.78
287.485	320.51
287.944	243.27
288.404	259.65
288.863	290.08
289.322	287.74
289.781	306.46
290.24	280.72
290.699	266.67
291.158	327.53
291.616	285.4
292.075	290.08
292.534	233.91
292.992	278.38
293.451	247.95
293.91	292.42
294.368	238.59
294.827	276.04
295.285	276.04
295.743	325.19
296.202	334.55
296.66	395.4
297.118	320.51
297.576	343.91
298.034	308.8
298.492	247.95
298.95	311.14
299.408	269.02
299.866	308.8
300.324	299.44
300.781	320.51
301.239	334.55
301.697	247.95
302.154	285.4
302.612	271.36
303.069	348.59
303.527	304.12
303.984	301.78
304.441	254.97
304.899	290.08
305.356	250.29
305.813	301.78
306.27	320.51
306.727	306.46
307.184	313.49
307.641	327.53
308.098	329.87
308.555	287.74
309.012	247.95
309.468	287.74
309.925	341.57
310.382	245.61
310.838	350.93
311.295	343.91
311.751	276.04
312.208	278.38
312.664	212.84
313.12	240.93
313.577	243.27
314.033	264.33
314.489	402.43
314.945	276.04
315.401	341.57
315.857	271.36
316.313	329.87
316.769	318.17
317.225	306.46
317.681	254.97
318.136	341.57
318.592	311.14
319.048	360.3
319.503	304.12
319.959	320.51
320.414	287.74
320.869	273.7
321.325	329.87
321.78	240.93
322.235	320.51
322.691	336.89
323.146	273.7
323.601	306.46
324.056	341.57
324.511	343.91
324.966	257.31
325.421	306.46
325.875	261.99
326.33	297.1
326.785	341.57
327.24	306.46
327.694	271.36
328.149	257.31
328.603	332.21
329.058	334.55
329.512	299.44
329.966	271.36
330.421	301.78
330.875	334.55
331.329	308.8
331.783	252.63
332.237	290.08
332.691	329.87
333.145	313.49
333.599	285.4
334.053	266.67
334.507	322.85
334.96	283.06
335.414	273.7
335.868	381.36
336.321	236.25
336.775	357.96
337.228	343.91
337.682	343.91
338.135	318.17
338.588	339.23
339.042	325.19
339.495	257.31
339.948	332.21
340.401	304.12
340.854	343.91
341.307	252.63
341.76	264.33
342.213	306.46
342.666	254.97
343.119	285.4
343.571	247.95
344.024	278.38
344.477	364.98
344.929	297.1
345.382	297.1
345.834	245.61
346.287	327.53
346.739	252.63
347.191	261.99
347.644	322.85
348.096	357.96
348.548	304.12
349	327.53
349.452	313.49
349.904	306.46
350.356	329.87
350.808	339.23
351.26	276.04
351.711	325.19
352.163	346.25
352.615	311.14
353.066	250.29
353.518	329.87
353.969	285.4
354.421	304.12
354.872	292.42
355.324	327.53
355.775	367.32
356.226	390.72
356.677	334.55
357.128	320.51
357.579	350.93
358.03	311.14
358.481	304.12
358.932	266.67
359.383	362.64
359.834	311.14
360.285	339.23
360.735	315.83
361.186	292.42
361.637	332.21
362.087	311.14
362.538	297.1
362.988	327.53
363.438	273.7
363.889	334.55
364.339	320.51
364.789	290.08
365.239	266.67
365.689	269.02
366.139	341.57
366.589	269.02
367.039	299.44
367.489	245.61
367.939	304.12
368.389	287.74
368.839	346.25
369.288	322.85
369.738	325.19
370.187	353.27
370.637	318.17
371.086	261.99
371.536	334.55
371.985	285.4
372.434	294.76
372.884	257.31
373.333	318.17
373.782	290.08
374.231	329.87
374.68	320.51
375.129	283.06
375.578	379.02
376.027	332.21
376.475	329.87
376.924	269.02
377.373	259.65
377.822	245.61
378.27	418.81
378.719	320.51
379.167	327.53
379.616	290.08
380.064	334.55
380.512	332.21
380.961	334.55
381.409	336.89
381.857	360.3
382.305	294.76
382.753	236.25
383.201	313.49
383.649	341.57
384.097	269.02
384.545	236.25
384.992	320.51
385.44	334.55
385.888	306.46
386.335	308.8
386.783	301.78
387.231	339.23
387.678	290.08
388.125	336.89
388.573	304.12
389.02	292.42
389.467	315.83
389.914	322.85
390.362	322.85
390.809	325.19
391.256	297.1
391.703	318.17
392.15	311.14
392.596	320.51
393.043	290.08
393.49	374.34
393.937	341.57
394.383	362.64
394.83	287.74
395.276	290.08
395.723	285.4
396.169	329.87
396.616	304.12
397.062	276.04
397.508	271.36
397.954	273.7
398.401	315.83
398.847	292.42
399.293	315.83
399.739	308.8
400.185	334.55
400.631	336.89
401.076	254.97
401.522	332.21
401.968	350.93
402.414	313.49
402.859	299.44
403.305	320.51
403.75	297.1
404.196	306.46
404.641	362.64
405.086	304.12
405.532	320.51
405.977	332.21
406.422	304.12
406.867	318.17
407.312	311.14
407.757	381.36
408.202	311.14
408.647	357.96
409.092	341.57
409.537	297.1
409.982	341.57
410.426	334.55
410.871	367.32
411.316	292.42
411.76	322.85
412.205	353.27
412.649	322.85
413.093	315.83
413.538	311.14
413.982	250.29
414.426	294.76
414.87	273.7
415.314	350.93
415.758	292.42
416.202	327.53
416.646	292.42
417.09	306.46
417.534	348.59
417.978	273.7
418.421	346.25
418.865	301.78
419.309	341.57
419.752	353.27
420.196	404.77
420.639	397.74
421.083	325.19
421.526	329.87
421.969	304.12
422.412	353.27
422.856	357.96
423.299	416.47
423.742	404.77
424.185	320.51
424.628	290.08
425.071	329.87
425.513	325.19
425.956	357.96
426.399	372
426.842	416.47
427.284	423.49
427.727	364.98
428.169	409.45
428.612	346.25
429.054	343.91
429.497	409.45
429.939	346.25
430.381	327.53
430.823	355.62
431.265	411.79
431.707	411.79
432.149	374.34
432.591	439.87
433.033	355.62
433.475	360.3
433.917	449.24
434.359	510.09
434.8	496.05
435.242	491.37
435.684	432.85
436.125	491.37
436.567	479.66
437.008	496.05
437.449	446.9
437.891	386.04
438.332	451.58
438.773	493.71
439.214	458.6
439.656	486.69
440.097	493.71
440.538	437.53
440.978	524.13
441.419	477.32
441.86	477.32
442.301	552.22
442.742	458.6
443.182	472.64
443.623	533.5
444.063	528.81
444.504	500.73
444.944	510.09
445.385	559.24
445.825	528.81
446.265	493.71
446.706	507.75
447.146	498.39
447.586	524.13
448.026	535.84
448.466	467.96
448.906	517.11
449.346	479.66
449.786	505.41
450.225	521.79
450.665	458.6
451.105	456.26
451.544	503.07
451.984	486.69
452.424	458.6
452.863	463.28
453.302	505.41
453.742	453.92
454.181	439.87
454.62	444.56
455.059	414.13
455.499	402.43
455.938	451.58
456.377	510.09
456.816	400.09
457.254	418.81
457.693	402.43
458.132	423.49
458.571	404.77
459.01	439.87
459.448	402.43
459.887	435.19
460.325	404.77
460.764	390.72
461.202	430.51
461.641	402.43
462.079	381.36
462.517	414.13
462.955	449.24
463.393	425.83
463.832	444.56
464.27	350.93
464.708	446.9
465.145	393.06
465.583	409.45
466.021	390.72
466.459	353.27
466.897	350.93
467.334	360.3
467.772	425.83
468.209	369.66
468.647	374.34
469.084	367.32
469.522	353.27
469.959	395.4
470.396	390.72
470.833	416.47
471.271	386.04
471.708	327.53
472.145	311.14
472.582	374.34
473.019	320.51
473.456	362.64
473.892	369.66
474.329	376.68
474.766	360.3
475.202	329.87
475.639	383.7
476.076	372
476.512	320.51
476.949	320.51
477.385	386.04
477.821	346.25
478.258	435.19
478.694	390.72
479.13	339.23
479.566	357.96
480.002	313.49
480.438	432.85
480.874	393.06
481.31	372
481.746	372
482.181	339.23
482.617	395.4
483.053	360.3
483.488	379.02
483.924	402.43
484.36	442.21
484.795	343.91
485.23	395.4
485.666	376.68
486.101	439.87
486.536	348.59
486.971	407.11
487.407	357.96
487.842	390.72
488.277	425.83
488.712	386.04
489.146	343.91
489.581	442.21
490.016	449.24
490.451	395.4
490.885	395.4
491.32	453.92
491.755	432.85
492.189	463.28
492.624	442.21
493.058	400.09
493.492	404.77
493.927	381.36
494.361	414.13
494.795	329.87
495.229	374.34
495.663	297.1
496.097	327.53
496.531	428.17
496.965	423.49
497.399	444.56
497.833	402.43
498.266	393.06
498.7	383.7
499.134	400.09
499.567	414.13
500.001	379.02
500.434	430.51
500.868	388.38
501.301	383.7
501.734	372
502.168	381.36
502.601	444.56
503.034	456.26
503.467	425.83
503.9	435.19
504.333	467.96
504.766	381.36
505.199	397.74
505.632	414.13
506.064	381.36
506.497	491.37
506.93	444.56
507.362	390.72
507.795	395.4
508.227	435.19
508.66	409.45
509.092	451.58
509.524	425.83
509.956	362.64
510.389	400.09
510.821	397.74
511.253	428.17
511.685	386.04
512.117	313.49
512.549	355.62
512.981	395.4
513.412	477.32
513.844	446.9
514.276	395.4
514.707	439.87
515.139	489.03
515.571	430.51
516.002	430.51
516.433	381.36
516.865	421.15
517.296	456.26
517.727	374.34
518.159	449.24
518.59	496.05
519.021	346.25
519.452	402.43
519.883	425.83
520.314	402.43
520.744	383.7
521.175	444.56
521.606	439.87
522.037	418.81
522.467	411.79
522.898	407.11
523.328	428.17
523.759	374.34
524.189	430.51
524.62	332.21
525.05	414.13
525.48	477.32
525.91	416.47
526.341	402.43
526.771	400.09
527.201	418.81
527.631	402.43
528.061	428.17
528.49	364.98
528.92	439.87
529.35	350.93
529.78	467.96
530.209	477.32
530.639	458.6
531.068	449.24
531.498	372
531.927	425.83
532.357	435.19
532.786	439.87
533.215	374.34
533.644	369.66
534.074	460.94
534.503	423.49
534.932	458.6
535.361	458.6
535.79	386.04
536.218	390.72
536.647	432.85
537.076	430.51
537.505	477.32
537.933	465.62
538.362	458.6
538.79	517.11
539.219	458.6
539.647	458.6
540.076	482
540.504	505.41
540.932	521.79
541.36	575.63
541.788	566.26
542.217	634.14
542.645	669.25
543.073	599.03
543.5	620.1
543.928	563.92
544.356	622.44
544.784	629.46
545.211	636.48
545.639	531.16
546.067	507.75
546.494	554.56
546.922	540.52
547.349	482
547.776	439.87
548.204	507.75
548.631	493.71
549.058	430.51
549.485	446.9
549.912	411.79
550.339	512.43
550.766	552.22
551.193	397.74
551.62	458.6
552.047	458.6
552.474	453.92
552.9	472.64
553.327	409.45
553.754	416.47
554.18	421.15
554.607	414.13
555.033	404.77
555.459	458.6
555.886	423.49
556.312	411.79
556.738	409.45
557.164	414.13
557.59	407.11
558.016	423.49
558.442	449.24
558.868	397.74
559.294	381.36
559.72	446.9
560.145	400.09
560.571	472.64
560.997	428.17
561.422	449.24
561.848	393.06
562.273	444.56
562.699	456.26
563.124	467.96
563.549	453.92
563.974	416.47
564.4	400.09
564.825	411.79
565.25	430.51
565.675	423.49
566.1	446.9
566.525	477.32
566.95	397.74
567.374	482
567.799	451.58
568.224	430.51
568.648	332.21
569.073	400.09
569.497	423.49
569.922	423.49
570.346	430.51
570.771	446.9
571.195	435.19
571.619	414.13
572.043	465.62
572.467	383.7
572.891	364.98
573.315	423.49
573.739	390.72
574.163	379.02
574.587	528.81
575.011	407.11
575.435	512.43
575.858	411.79
576.282	409.45
576.705	395.4
577.129	414.13
577.552	360.3
577.976	393.06
578.399	482
578.822	423.49
579.245	390.72
579.669	428.17
580.092	407.11
580.515	437.53
580.938	414.13
581.361	486.69
581.784	379.02
582.206	423.49
582.629	388.38
583.052	390.72
583.474	444.56
583.897	446.9
584.32	479.66
584.742	442.21
585.165	472.64
585.587	423.49
586.009	453.92
586.431	432.85
586.854	451.58
587.276	451.58
587.698	362.64
588.12	428.17
588.542	362.64
588.964	489.03
589.386	390.72
589.807	421.15
590.229	397.74
590.651	407.11
591.073	320.51
591.494	421.15
591.916	463.28
592.337	451.58
592.759	409.45
593.18	432.85
593.601	407.11
594.022	400.09
594.444	348.59
594.865	402.43
595.286	400.09
595.707	474.98
596.128	477.32
596.549	390.72
596.97	388.38
597.39	388.38
597.811	425.83
598.232	350.93
598.652	364.98
599.073	400.09
599.494	400.09
599.914	451.58
600.334	470.3
600.755	416.47
601.175	346.25
601.595	383.7
602.015	362.64
602.436	334.55
602.856	512.43
603.276	346.25
603.696	318.17
604.115	369.66
604.535	355.62
604.955	444.56
605.375	383.7
605.794	402.43
606.214	320.51
606.634	379.02
607.053	376.68
607.473	355.62
607.892	425.83
608.311	423.49
608.731	460.94
609.15	460.94
609.569	472.64
609.988	563.92
610.407	648.18
610.826	582.65
611.245	507.75
611.664	503.07
612.083	465.62
612.501	493.71
612.92	474.98
613.339	498.39
613.757	402.43
614.176	425.83
614.594	482
615.013	402.43
615.431	465.62
615.85	369.66
616.268	404.77
616.686	386.04
617.104	364.98
617.522	383.7
617.94	395.4
618.358	428.17
618.776	372
619.194	393.06
619.612	346.25
620.03	343.91
620.447	393.06
620.865	369.66
621.282	369.66
621.7	350.93
622.117	374.34
622.535	379.02
622.952	343.91
623.369	320.51
623.787	325.19
624.204	421.15
624.621	376.68
625.038	402.43
625.455	423.49
625.872	313.49
626.289	322.85
626.706	311.14
627.123	346.25
627.539	353.27
627.956	315.83
628.373	301.78
628.789	372
629.206	383.7
629.622	411.79
630.038	388.38
630.455	339.23
630.871	350.93
631.287	285.4
631.703	364.98
632.12	367.32
632.536	348.59
632.952	348.59
633.368	353.27
633.783	346.25
634.199	343.91
634.615	348.59
635.031	343.91
635.446	425.83
635.862	299.44
636.277	369.66
636.693	329.87
637.108	322.85
637.524	311.14
637.939	346.25
638.354	269.02
638.77	329.87
639.185	339.23
639.6	339.23
640.015	313.49
640.43	261.99
640.845	301.78
641.259	315.83
641.674	315.83
642.089	357.96
642.504	285.4
642.918	329.87
643.333	350.93
643.747	313.49
644.162	306.46
644.576	348.59
644.991	395.4
645.405	386.04
645.819	362.64
646.233	360.3
646.647	390.72
647.061	386.04
647.475	320.51
647.889	299.44
648.303	404.77
648.717	294.76
649.131	334.55
649.545	367.32
649.958	383.7
650.372	348.59
650.785	390.72
651.199	308.8
651.612	292.42
652.026	332.21
652.439	362.64
652.852	364.98
653.266	322.85
653.679	297.1
654.092	362.64
654.505	379.02
654.918	276.04
655.331	325.19
655.744	322.85
656.156	388.38
656.569	325.19
656.982	372
657.394	308.8
657.807	287.74
658.22	306.46
658.632	355.62
659.044	276.04
659.457	304.12
659.869	313.49
660.281	261.99
660.693	290.08
661.106	339.23
661.518	325.19
661.93	357.96
662.342	327.53
662.754	336.89
663.165	334.55
663.577	402.43
663.989	311.14
664.401	243.27
664.812	327.53
665.224	318.17
665.635	280.72
666.047	292.42
666.458	313.49
666.869	308.8
667.281	318.17
667.692	383.7
668.103	339.23
668.514	311.14
668.925	332.21
669.336	388.38
669.747	285.4
670.158	372
670.569	362.64
670.979	311.14
671.39	311.14
671.801	269.02
672.211	304.12
672.622	355.62
673.032	339.23
673.443	343.91
673.853	271.36
674.263	264.33
674.674	374.34
675.084	311.14
675.494	238.59
675.904	336.89
676.314	367.32
676.724	332.21
677.134	301.78
677.544	292.42
677.953	350.93
678.363	306.46
678.773	362.64
679.182	292.42
679.592	395.4
680.001	287.74
680.411	350.93
680.82	243.27
681.23	306.46
681.639	292.42
682.048	304.12
682.457	292.42
682.866	383.7
683.275	261.99
683.684	287.74
684.093	283.06
684.502	390.72
684.911	364.98
685.32	318.17
685.728	374.34
686.137	301.78
686.546	308.8
686.954	290.08
687.363	341.57
687.771	332.21
688.179	343.91
688.588	322.85
688.996	364.98
689.404	334.55
689.812	376.68
690.22	280.72
690.628	362.64
691.036	304.12
691.444	294.76
691.852	357.96
692.26	341.57
692.667	341.57
693.075	273.7
693.483	334.55
693.89	372
694.298	301.78
694.705	287.74
695.112	311.14
695.52	290.08
695.927	299.44
696.334	381.36
696.741	294.76
697.148	325.19
697.555	346.25
697.962	313.49
698.369	355.62
698.776	325.19
699.183	280.72
699.59	327.53
699.996	362.64
700.403	360.3
700.81	304.12
701.216	355.62
701.623	299.44
702.029	280.72
702.435	320.51
702.842	320.51
703.248	355.62
703.654	327.53
704.06	313.49
704.466	292.42
704.872	231.57
705.278	257.31
705.684	341.57
706.09	343.91
706.496	306.46
706.901	364.98
707.307	334.55
707.712	325.19
708.118	379.02
708.523	308.8
708.929	290.08
709.334	285.4
709.74	322.85
710.145	250.29
710.55	322.85
710.955	304.12
711.36	329.87
711.765	292.42
712.17	374.34
712.575	283.06
712.98	886.92
713.385	357.96
713.789	269.02
714.194	280.72
714.599	259.65
715.003	290.08
715.408	339.23
715.812	322.85
716.217	346.25
716.621	252.63
717.025	313.49
717.429	343.91
717.833	325.19
718.238	327.53
718.642	266.67
719.046	381.36
719.449	299.44
719.853	261.99
720.257	369.66
720.661	287.74
721.065	313.49
721.468	336.89
721.872	322.85
722.275	329.87
722.679	313.49
723.082	278.38
723.485	257.31
723.889	306.46
724.292	283.06
724.695	339.23
725.098	336.89
725.501	339.23
725.904	271.36
726.307	315.83
726.71	297.1
727.113	313.49
727.516	273.7
727.918	318.17
728.321	299.44
728.724	350.93
729.126	311.14
729.529	287.74
729.931	322.85
730.333	304.12
730.736	273.7
731.138	287.74
731.54	313.49
731.942	339.23
732.344	240.93
732.746	273.7
733.148	304.12
733.55	278.38
733.952	259.65
734.354	308.8
734.756	292.42
735.157	278.38
735.559	238.59
735.96	304.12
736.362	313.49
736.763	343.91
737.165	276.04
737.566	325.19
737.967	292.42
738.368	315.83
738.77	299.44
739.171	287.74
739.572	322.85
739.973	311.14
740.374	383.7
740.774	290.08
741.175	355.62
741.576	306.46
741.977	325.19
742.377	327.53
742.778	276.04
743.178	285.4
743.579	229.23
743.979	299.44
744.379	322.85
744.78	315.83
745.18	292.42
745.58	264.33
745.98	336.89
746.38	320.51
746.78	247.95
747.18	320.51
747.58	325.19
747.98	285.4
748.38	254.97
748.779	283.06
749.179	287.74
749.578	257.31
749.978	357.96
750.377	278.38
750.777	343.91
751.176	261.99
751.575	367.32
751.975	357.96
752.374	322.85
752.773	341.57
753.172	318.17
753.571	348.59
753.97	292.42
754.369	334.55
754.768	287.74
755.166	280.72
755.565	362.64
755.964	283.06
756.362	294.76
756.761	308.8
757.159	327.53
757.558	332.21
757.956	367.32
758.354	343.91
758.753	308.8
759.151	336.89
759.549	386.04
759.947	264.33
760.345	313.49
760.743	322.85
761.141	285.4
761.539	306.46
761.936	283.06
762.334	325.19
762.732	306.46
763.129	306.46
763.527	266.67
763.924	301.78
764.322	280.72
764.719	313.49
765.117	341.57
765.514	240.93
765.911	301.78
766.308	261.99
