Data from Al_FLMS009871__184__12-01-02-174.txt Node

Date: Fri Mar 08 12:01:02 CST 2024
User: pe5414po
Spectrometer: FLMS00987
Trigger mode: 0
Integration Time (sec): 1.000000E-1
Scans to average: 1
Electric dark correction enabled: true
Nonlinearity correction enabled: false
Boxcar width: 0
XAxis mode: Wavelengths
Number of Pixels in Spectrum: 2048
>>>>>Begin Spectral Data<<<<<
188.938	-87.04
189.409	-87.04
189.879	-87.04
190.349	-101.08
190.819	-103.42
191.29	-124.49
191.76	-101.08
192.23	-98.74
192.7	-70.65
193.17	-96.4
193.64	-7.46
194.109	-14.48
194.579	-23.84
195.049	102.54
195.519	-12.14
195.988	4.24
196.458	4.24
196.927	65.1
197.397	72.12
197.866	175.1
198.336	125.95
198.805	139.99
199.274	100.2
199.744	161.06
200.213	235.96
200.682	214.89
201.151	179.78
201.62	184.46
202.089	285.11
202.558	224.25
203.027	231.27
203.495	224.25
203.964	310.85
204.433	322.56
204.902	315.53
205.37	306.17
205.839	259.36
206.307	313.19
206.776	336.6
207.244	292.13
207.712	278.08
208.181	287.45
208.649	317.87
209.117	264.04
209.585	285.11
210.053	310.85
210.521	287.45
210.989	301.49
211.457	257.02
211.925	233.61
212.393	308.51
212.861	296.81
213.328	238.3
213.796	299.15
214.264	278.08
214.731	296.81
215.199	292.13
215.666	299.15
216.133	315.53
216.601	343.62
217.068	264.04
217.535	317.87
218.003	221.91
218.47	226.59
218.937	306.17
219.404	252.34
219.871	231.27
220.338	221.91
220.805	224.25
221.271	254.68
221.738	282.77
222.205	245.32
222.671	324.9
223.138	296.81
223.605	233.61
224.071	182.12
224.538	238.3
225.004	250
225.47	250
225.937	198.51
226.403	266.38
226.869	242.98
227.335	259.36
227.801	292.13
228.267	275.74
228.733	285.11
229.199	189.14
229.665	226.59
230.131	242.98
230.597	322.56
231.062	313.19
231.528	336.6
231.994	308.51
232.459	268.72
232.925	280.43
233.39	252.34
233.856	231.27
234.321	240.64
234.786	287.45
235.252	301.49
235.717	296.81
236.182	245.32
236.647	259.36
237.112	348.3
237.577	308.51
238.042	273.4
238.507	299.15
238.972	296.81
239.436	294.47
239.901	338.94
240.366	214.89
240.83	273.4
241.295	310.85
241.76	303.83
242.224	327.24
242.688	296.81
243.153	285.11
243.617	238.3
244.081	313.19
244.545	329.58
245.01	264.04
245.474	261.7
245.938	294.47
246.402	280.43
246.866	233.61
247.33	280.43
247.793	324.9
248.257	168.08
248.721	259.36
249.185	282.77
249.648	273.4
250.112	315.53
250.575	310.85
251.039	273.4
251.502	294.47
251.965	308.51
252.429	306.17
252.892	261.7
253.355	331.92
253.818	289.79
254.281	287.45
254.744	329.58
255.207	264.04
255.67	308.51
256.133	320.21
256.596	268.72
257.059	210.21
257.522	308.51
257.984	292.13
258.447	294.47
258.909	310.85
259.372	242.98
259.834	231.27
260.297	228.93
260.759	275.74
261.221	322.56
261.684	221.91
262.146	324.9
262.608	289.79
263.07	308.51
263.532	271.06
263.994	292.13
264.456	282.77
264.918	357.66
265.38	324.9
265.842	338.94
266.303	322.56
266.765	355.32
267.227	327.24
267.688	343.62
268.15	233.61
268.611	266.38
269.072	240.64
269.534	315.53
269.995	315.53
270.456	320.21
270.918	308.51
271.379	240.64
271.84	287.45
272.301	250
272.762	299.15
273.223	273.4
273.684	320.21
274.144	259.36
274.605	296.81
275.066	268.72
275.527	242.98
275.987	257.02
276.448	301.49
276.908	254.68
277.369	259.36
277.829	343.62
278.289	294.47
278.75	289.79
279.21	331.92
279.67	264.04
280.13	278.08
280.59	233.61
281.05	264.04
281.51	275.74
281.97	308.51
282.43	310.85
282.89	264.04
283.35	280.43
283.809	327.24
284.269	217.23
284.729	299.15
285.188	280.43
285.648	367.03
286.107	268.72
286.567	280.43
287.026	371.71
287.485	268.72
287.944	299.15
288.404	301.49
288.863	254.68
289.322	250
289.781	254.68
290.24	282.77
290.699	261.7
291.158	285.11
291.616	250
292.075	247.66
292.534	285.11
292.992	273.4
293.451	350.64
293.91	334.26
294.368	257.02
294.827	285.11
295.285	303.83
295.743	322.56
296.202	282.77
296.66	285.11
297.118	271.06
297.576	275.74
298.034	247.66
298.492	336.6
298.95	308.51
299.408	282.77
299.866	238.3
300.324	275.74
300.781	301.49
301.239	310.85
301.697	280.43
302.154	299.15
302.612	350.64
303.069	308.51
303.527	360
303.984	278.08
304.441	254.68
304.899	219.57
305.356	250
305.813	294.47
306.27	282.77
306.727	247.66
307.184	299.15
307.641	310.85
308.098	266.38
308.555	294.47
309.012	242.98
309.468	292.13
309.925	308.51
310.382	308.51
310.838	322.56
311.295	348.3
311.751	289.79
312.208	334.26
312.664	245.32
313.12	313.19
313.577	289.79
314.033	278.08
314.489	268.72
314.945	369.37
315.401	322.56
315.857	348.3
316.313	264.04
316.769	250
317.225	345.96
317.681	331.92
318.136	285.11
318.592	289.79
319.048	315.53
319.503	273.4
319.959	271.06
320.414	360
320.869	320.21
321.325	324.9
321.78	303.83
322.235	296.81
322.691	313.19
323.146	327.24
323.601	310.85
324.056	317.87
324.511	306.17
324.966	374.05
325.421	250
325.875	308.51
326.33	282.77
326.785	306.17
327.24	315.53
327.694	338.94
328.149	306.17
328.603	294.47
329.058	315.53
329.512	254.68
329.966	275.74
330.421	287.45
330.875	285.11
331.329	348.3
331.783	303.83
332.237	364.68
332.691	278.08
333.145	299.15
333.599	327.24
334.053	271.06
334.507	226.59
334.96	240.64
335.414	338.94
335.868	338.94
336.321	390.43
336.775	238.3
337.228	264.04
337.682	266.38
338.135	322.56
338.588	324.9
339.042	345.96
339.495	336.6
339.948	350.64
340.401	266.38
340.854	282.77
341.307	292.13
341.76	306.17
342.213	289.79
342.666	261.7
343.119	317.87
343.571	275.74
344.024	217.23
344.477	306.17
344.929	254.68
345.382	306.17
345.834	313.19
346.287	313.19
346.739	282.77
347.191	313.19
347.644	296.81
348.096	360
348.548	336.6
349	308.51
349.452	289.79
349.904	352.98
350.356	327.24
350.808	352.98
351.26	292.13
351.711	324.9
352.163	315.53
352.615	268.72
353.066	320.21
353.518	280.43
353.969	334.26
354.421	292.13
354.872	329.58
355.324	271.06
355.775	287.45
356.226	367.03
356.677	402.13
357.128	331.92
357.579	334.26
358.03	301.49
358.481	345.96
358.932	348.3
359.383	214.89
359.834	282.77
360.285	341.28
360.735	254.68
361.186	364.68
361.637	367.03
362.087	303.83
362.538	289.79
362.988	299.15
363.438	348.3
363.889	322.56
364.339	303.83
364.789	371.71
365.239	273.4
365.689	383.41
366.139	285.11
366.589	285.11
367.039	324.9
367.489	327.24
367.939	296.81
368.389	242.98
368.839	289.79
369.288	250
369.738	324.9
370.187	310.85
370.637	315.53
371.086	287.45
371.536	301.49
371.985	273.4
372.434	331.92
372.884	306.17
373.333	310.85
373.782	299.15
374.231	289.79
374.68	308.51
375.129	357.66
375.578	299.15
376.027	352.98
376.475	320.21
376.924	264.04
377.373	252.34
377.822	296.81
378.27	348.3
378.719	294.47
379.167	322.56
379.616	301.49
380.064	306.17
380.512	331.92
380.961	331.92
381.409	360
381.857	327.24
382.305	315.53
382.753	308.51
383.201	266.38
383.649	374.05
384.097	264.04
384.545	315.53
384.992	231.27
385.44	350.64
385.888	292.13
386.335	294.47
386.783	334.26
387.231	301.49
387.678	261.7
388.125	266.38
388.573	308.51
389.02	240.64
389.467	257.02
389.914	352.98
390.362	350.64
390.809	282.77
391.256	296.81
391.703	317.87
392.15	418.52
392.596	364.68
393.043	355.32
393.49	273.4
393.937	212.55
394.383	278.08
394.83	273.4
395.276	338.94
395.723	271.06
396.169	343.62
396.616	250
397.062	275.74
397.508	327.24
397.954	324.9
398.401	343.62
398.847	292.13
399.293	313.19
399.739	376.39
400.185	334.26
400.631	292.13
401.076	294.47
401.522	289.79
401.968	336.6
402.414	301.49
402.859	341.28
403.305	317.87
403.75	357.66
404.196	320.21
404.641	285.11
405.086	308.51
405.532	348.3
405.977	355.32
406.422	280.43
406.867	364.68
407.312	292.13
407.757	285.11
408.202	324.9
408.647	334.26
409.092	352.98
409.537	299.15
409.982	336.6
410.426	292.13
410.871	329.58
411.316	282.77
411.76	268.72
412.205	376.39
412.649	336.6
413.093	313.19
413.538	313.19
413.982	329.58
414.426	336.6
414.87	278.08
415.314	341.28
415.758	252.34
416.202	313.19
416.646	306.17
417.09	278.08
417.534	299.15
417.978	348.3
418.421	299.15
418.865	343.62
419.309	329.58
419.752	395.11
420.196	336.6
420.639	306.17
421.083	306.17
421.526	289.79
421.969	378.73
422.412	352.98
422.856	381.07
423.299	329.58
423.742	352.98
424.185	317.87
424.628	409.15
425.071	432.56
425.513	303.83
425.956	315.53
426.399	343.62
426.842	423.2
427.284	420.86
427.727	355.32
428.169	357.66
428.612	348.3
429.054	313.19
429.497	352.98
429.939	320.21
430.381	355.32
430.823	448.94
431.265	369.37
431.707	334.26
432.149	266.38
432.591	423.2
433.033	348.3
433.475	397.45
433.917	376.39
434.359	430.22
434.8	486.39
435.242	467.67
435.684	388.09
436.125	448.94
436.567	423.2
437.008	432.56
437.449	451.28
437.891	388.09
438.332	343.62
438.773	383.41
439.214	430.22
439.656	453.63
440.097	420.86
440.538	441.92
440.978	460.65
441.419	423.2
441.86	411.5
442.301	451.28
442.742	477.03
443.182	444.26
443.623	453.63
444.063	427.88
444.504	430.22
444.944	446.6
445.385	458.31
445.825	434.9
446.265	399.79
446.706	451.28
447.146	484.05
447.586	507.46
448.026	458.31
448.466	446.6
448.906	486.39
449.346	465.33
449.786	388.09
450.225	409.15
450.665	479.37
451.105	399.79
451.544	418.52
451.984	434.9
452.424	502.78
452.863	420.86
453.302	395.11
453.742	348.3
454.181	420.86
454.62	418.52
455.059	320.21
455.499	345.96
455.938	369.37
456.377	399.79
456.816	381.07
457.254	327.24
457.693	409.15
458.132	388.09
458.571	437.24
459.01	338.94
459.448	334.26
459.887	348.3
460.325	364.68
460.764	437.24
461.202	360
461.641	404.47
462.079	388.09
462.517	432.56
462.955	357.66
463.393	374.05
463.832	388.09
464.27	355.32
464.708	331.92
465.145	434.9
465.583	399.79
466.021	374.05
466.459	329.58
466.897	355.32
467.334	360
467.772	306.17
468.209	376.39
468.647	364.68
469.084	324.9
469.522	345.96
469.959	390.43
470.396	331.92
470.833	385.75
471.271	334.26
471.708	362.34
472.145	310.85
472.582	378.73
473.019	317.87
473.456	292.13
473.892	296.81
474.329	327.24
474.766	341.28
475.202	357.66
475.639	392.77
476.076	338.94
476.512	348.3
476.949	317.87
477.385	374.05
477.821	296.81
478.258	355.32
478.694	378.73
479.13	334.26
479.566	357.66
480.002	437.24
480.438	352.98
480.874	360
481.31	315.53
481.746	341.28
482.181	362.34
482.617	348.3
483.053	406.81
483.488	381.07
483.924	388.09
484.36	385.75
484.795	364.68
485.23	397.45
485.666	385.75
486.101	425.54
486.536	434.9
486.971	399.79
487.407	458.31
487.842	462.99
488.277	411.5
488.712	350.64
489.146	352.98
489.581	484.05
490.016	406.81
490.451	432.56
490.885	434.9
491.32	409.15
491.755	334.26
492.189	336.6
492.624	378.73
493.058	350.64
493.492	357.66
493.927	385.75
494.361	404.47
494.795	360
495.229	406.81
495.663	355.32
496.097	341.28
496.531	317.87
496.965	430.22
497.399	388.09
497.833	348.3
498.266	383.41
498.7	399.79
499.134	376.39
499.567	350.64
500.001	402.13
500.434	324.9
500.868	437.24
501.301	355.32
501.734	402.13
502.168	334.26
502.601	343.62
503.034	343.62
503.467	376.39
503.9	357.66
504.333	432.56
504.766	404.47
505.199	418.52
505.632	378.73
506.064	392.77
506.497	313.19
506.93	322.56
507.362	446.6
507.795	350.64
508.227	334.26
508.66	341.28
509.092	364.68
509.524	338.94
509.956	345.96
510.389	362.34
510.821	406.81
511.253	432.56
511.685	378.73
512.117	404.47
512.549	329.58
512.981	392.77
513.412	383.41
513.844	439.58
514.276	406.81
514.707	420.86
515.139	395.11
515.571	362.34
516.002	381.07
516.433	453.63
516.865	423.2
517.296	341.28
517.727	399.79
518.159	381.07
518.59	392.77
519.021	327.24
519.452	430.22
519.883	413.84
520.314	423.2
520.744	334.26
521.175	409.15
521.606	451.28
522.037	397.45
522.467	364.68
522.898	352.98
523.328	371.71
523.759	364.68
524.189	388.09
524.62	427.88
525.05	409.15
525.48	395.11
525.91	395.11
526.341	364.68
526.771	427.88
527.201	409.15
527.631	439.58
528.061	420.86
528.49	385.75
528.92	348.3
529.35	343.62
529.78	418.52
530.209	357.66
530.639	374.05
531.068	388.09
531.498	371.71
531.927	338.94
532.357	411.5
532.786	390.43
533.215	341.28
533.644	371.71
534.074	331.92
534.503	451.28
534.932	376.39
535.361	402.13
535.79	385.75
536.218	392.77
536.647	383.41
537.076	397.45
537.505	376.39
537.933	411.5
538.362	427.88
538.79	432.56
539.219	439.58
539.647	434.9
540.076	451.28
540.504	484.05
540.932	542.57
541.36	568.31
541.788	561.29
542.217	594.06
542.645	638.53
543.073	610.44
543.5	652.57
543.928	675.98
544.356	636.19
544.784	720.45
545.211	650.23
545.639	680.66
546.067	640.87
546.494	601.08
546.922	521.5
547.349	528.52
547.776	455.97
548.204	425.54
548.631	444.26
549.058	474.69
549.485	453.63
549.912	479.37
550.339	467.67
550.766	430.22
551.193	413.84
551.62	420.86
552.047	514.48
552.474	427.88
552.9	399.79
553.327	425.54
553.754	437.24
554.18	348.3
554.607	404.47
555.033	432.56
555.459	364.68
555.886	404.47
556.312	434.9
556.738	406.81
557.164	327.24
557.59	409.15
558.016	369.37
558.442	378.73
558.868	369.37
559.294	338.94
559.72	395.11
560.145	402.13
560.571	453.63
560.997	453.63
561.422	322.56
561.848	383.41
562.273	329.58
562.699	402.13
563.124	397.45
563.549	402.13
563.974	395.11
564.4	345.96
564.825	437.24
565.25	294.47
565.675	432.56
566.1	383.41
566.525	362.34
566.95	399.79
567.374	341.28
567.799	439.58
568.224	381.07
568.648	404.47
569.073	376.39
569.497	327.24
569.922	348.3
570.346	376.39
570.771	345.96
571.195	374.05
571.619	329.58
572.043	364.68
572.467	411.5
572.891	306.17
573.315	399.79
573.739	402.13
574.163	451.28
574.587	376.39
575.011	371.71
575.435	479.37
575.858	381.07
576.282	430.22
576.705	402.13
577.129	357.66
577.552	369.37
577.976	329.58
578.399	390.43
578.822	395.11
579.245	434.9
579.669	397.45
580.092	406.81
580.515	371.71
580.938	434.9
581.361	388.09
581.784	434.9
582.206	420.86
582.629	395.11
583.052	397.45
583.474	392.77
583.897	467.67
584.32	441.92
584.742	434.9
585.165	374.05
585.587	395.11
586.009	446.6
586.431	458.31
586.854	439.58
587.276	352.98
587.698	392.77
588.12	423.2
588.542	432.56
588.964	493.41
589.386	451.28
589.807	390.43
590.229	406.81
590.651	397.45
591.073	371.71
591.494	430.22
591.916	451.28
592.337	378.73
592.759	425.54
593.18	371.71
593.601	385.75
594.022	345.96
594.444	369.37
594.865	406.81
595.286	418.52
595.707	378.73
596.128	390.43
596.549	369.37
596.97	397.45
597.39	455.97
597.811	345.96
598.232	338.94
598.652	388.09
599.073	430.22
599.494	399.79
599.914	357.66
600.334	369.37
600.755	364.68
601.175	348.3
601.595	409.15
602.015	430.22
602.436	355.32
602.856	451.28
603.276	345.96
603.696	371.71
604.115	357.66
604.535	395.11
604.955	406.81
605.375	381.07
605.794	399.79
606.214	369.37
606.634	406.81
607.053	392.77
607.473	385.75
607.892	399.79
608.311	453.63
608.731	477.03
609.15	441.92
609.569	608.1
609.988	619.8
610.407	640.87
610.826	699.38
611.245	697.04
611.664	736.83
612.083	692.36
612.501	668.95
612.92	554.27
613.339	565.97
613.757	521.5
614.176	502.78
614.594	458.31
615.013	448.94
615.431	416.18
615.85	409.15
616.268	441.92
616.686	385.75
617.104	418.52
617.522	374.05
617.94	399.79
618.358	448.94
618.776	402.13
619.194	399.79
619.612	357.66
620.03	376.39
620.447	479.37
620.865	381.07
621.282	357.66
621.7	350.64
622.117	383.41
622.535	411.5
622.952	409.15
623.369	402.13
623.787	402.13
624.204	395.11
624.621	381.07
625.038	385.75
625.455	390.43
625.872	357.66
626.289	416.18
626.706	418.52
627.123	430.22
627.539	348.3
627.956	388.09
628.373	350.64
628.789	352.98
629.206	371.71
629.622	458.31
630.038	392.77
630.455	369.37
630.871	367.03
631.287	376.39
631.703	343.62
632.12	343.62
632.536	303.83
632.952	416.18
633.368	308.51
633.783	367.03
634.199	324.9
634.615	374.05
635.031	392.77
635.446	329.58
635.862	257.02
636.277	418.52
636.693	235.96
637.108	390.43
637.524	355.32
637.939	308.51
638.354	268.72
638.77	355.32
639.185	329.58
639.6	296.81
640.015	296.81
640.43	324.9
640.845	409.15
641.259	336.6
641.674	292.13
642.089	409.15
642.504	310.85
642.918	235.96
643.333	362.34
643.747	266.38
644.162	334.26
644.576	327.24
644.991	374.05
645.405	395.11
645.819	275.74
646.233	306.17
646.647	254.68
647.061	324.9
647.475	369.37
647.889	285.11
648.303	315.53
648.717	341.28
649.131	395.11
649.545	345.96
649.958	378.73
650.372	348.3
650.785	355.32
651.199	275.74
651.612	390.43
652.026	322.56
652.439	331.92
652.852	329.58
653.266	355.32
653.679	338.94
654.092	299.15
654.505	280.43
654.918	317.87
655.331	338.94
655.744	350.64
656.156	296.81
656.569	324.9
656.982	310.85
657.394	313.19
657.807	313.19
658.22	320.21
658.632	320.21
659.044	303.83
659.457	378.73
659.869	294.47
660.281	228.93
660.693	299.15
661.106	271.06
661.518	313.19
661.93	345.96
662.342	374.05
662.754	320.21
663.165	352.98
663.577	303.83
663.989	352.98
664.401	352.98
664.812	345.96
665.224	338.94
665.635	374.05
666.047	292.13
666.458	306.17
666.869	287.45
667.281	350.64
667.692	301.49
668.103	313.19
668.514	338.94
668.925	301.49
669.336	360
669.747	317.87
670.158	280.43
670.569	266.38
670.979	266.38
671.39	294.47
671.801	320.21
672.211	320.21
672.622	299.15
673.032	299.15
673.443	303.83
673.853	345.96
674.263	392.77
674.674	320.21
675.084	250
675.494	299.15
675.904	367.03
676.314	310.85
676.724	383.41
677.134	352.98
677.544	320.21
677.953	341.28
678.363	378.73
678.773	296.81
679.182	324.9
679.592	341.28
680.001	308.51
680.411	327.24
680.82	245.32
681.23	245.32
681.639	317.87
682.048	296.81
682.457	376.39
682.866	341.28
683.275	397.45
683.684	338.94
684.093	338.94
684.502	322.56
684.911	285.11
685.32	345.96
685.728	313.19
686.137	364.68
686.546	303.83
686.954	336.6
687.363	334.26
687.771	327.24
688.179	296.81
688.588	303.83
688.996	320.21
689.404	348.3
689.812	367.03
690.22	343.62
690.628	294.47
691.036	336.6
691.444	322.56
691.852	299.15
692.26	334.26
692.667	322.56
693.075	292.13
693.483	369.37
693.89	348.3
694.298	390.43
694.705	294.47
695.112	308.51
695.52	308.51
695.927	374.05
696.334	310.85
696.741	383.41
697.148	264.04
697.555	287.45
697.962	315.53
698.369	280.43
698.776	226.59
699.183	242.98
699.59	329.58
699.996	371.71
700.403	324.9
700.81	280.43
701.216	329.58
701.623	322.56
702.029	334.26
702.435	278.08
702.842	385.75
703.248	336.6
703.654	275.74
704.06	352.98
704.466	338.94
704.872	327.24
705.278	371.71
705.684	285.11
706.09	287.45
706.496	374.05
706.901	329.58
707.307	343.62
707.712	383.41
708.118	273.4
708.523	343.62
708.929	364.68
709.334	310.85
709.74	371.71
710.145	336.6
710.55	343.62
710.955	367.03
711.36	317.87
711.765	338.94
712.17	385.75
712.575	399.79
712.98	963.86
713.385	324.9
713.789	327.24
714.194	331.92
714.599	245.32
715.003	282.77
715.408	273.4
715.812	320.21
716.217	294.47
716.621	322.56
717.025	322.56
717.429	247.66
717.833	285.11
718.238	275.74
718.642	341.28
719.046	285.11
719.449	280.43
719.853	317.87
720.257	294.47
720.661	336.6
721.065	341.28
721.468	348.3
721.872	371.71
722.275	299.15
722.679	282.77
723.082	289.79
723.485	299.15
723.889	250
724.292	338.94
724.695	322.56
725.098	376.39
725.501	282.77
725.904	301.49
726.307	341.28
726.71	294.47
727.113	294.47
727.516	303.83
727.918	303.83
728.321	299.15
728.724	327.24
729.126	313.19
729.529	303.83
729.931	280.43
730.333	245.32
730.736	348.3
731.138	327.24
731.54	331.92
731.942	320.21
732.344	331.92
732.746	289.79
733.148	399.79
733.55	308.51
733.952	308.51
734.354	369.37
734.756	310.85
735.157	282.77
735.559	310.85
735.96	320.21
736.362	360
736.763	341.28
737.165	327.24
737.566	327.24
737.967	294.47
738.368	308.51
738.77	331.92
739.171	357.66
739.572	273.4
739.973	294.47
740.374	310.85
740.774	247.66
741.175	299.15
741.576	280.43
741.977	327.24
742.377	289.79
742.778	331.92
743.178	334.26
743.579	352.98
743.979	324.9
744.379	310.85
744.78	303.83
745.18	273.4
745.58	329.58
745.98	240.64
746.38	261.7
746.78	369.37
747.18	266.38
747.58	327.24
747.98	264.04
748.38	334.26
748.779	369.37
749.179	294.47
749.578	348.3
749.978	317.87
750.377	343.62
750.777	280.43
751.176	313.19
751.575	233.61
751.975	301.49
752.374	282.77
752.773	352.98
753.172	317.87
753.571	334.26
753.97	355.32
754.369	266.38
754.768	306.17
755.166	287.45
755.565	235.96
755.964	278.08
756.362	322.56
756.761	282.77
757.159	268.72
757.558	280.43
757.956	310.85
758.354	383.41
758.753	252.34
759.151	268.72
759.549	296.81
759.947	289.79
760.345	329.58
760.743	334.26
761.141	385.75
761.539	320.21
761.936	352.98
762.334	233.61
762.732	301.49
763.129	308.51
763.527	294.47
763.924	320.21
764.322	329.58
764.719	369.37
765.117	343.62
765.514	228.93
765.911	285.11
766.308	317.87
766.705	294.47
