Data from Al_FLMS009871__190__12-01-02-774.txt Node

Date: Fri Mar 08 12:01:02 CST 2024
User: pe5414po
Spectrometer: FLMS00987
Trigger mode: 0
Integration Time (sec): 1.000000E-1
Scans to average: 1
Electric dark correction enabled: true
Nonlinearity correction enabled: false
Boxcar width: 0
XAxis mode: Wavelengths
Number of Pixels in Spectrum: 2048
>>>>>Begin Spectral Data<<<<<
188.938	-41.11
189.409	-41.11
189.879	-41.11
190.349	-153.45
190.819	-66.85
191.29	-132.39
191.76	-101.96
192.23	-85.58
192.7	-29.4
193.17	-69.19
193.64	-59.83
194.109	-64.51
194.579	10.39
195.049	29.11
195.519	22.09
195.988	68.9
196.458	38.47
196.927	33.79
197.397	118.05
197.866	92.3
198.336	129.75
198.805	174.22
199.274	195.29
199.744	204.65
200.213	197.63
200.682	169.54
201.151	232.74
201.62	211.67
202.089	239.76
202.558	253.8
203.027	225.72
203.495	324.02
203.964	256.14
204.433	288.91
204.902	333.38
205.37	239.76
205.839	256.14
206.307	321.68
206.776	319.34
207.244	335.72
207.712	298.27
208.181	270.19
208.649	274.87
209.117	328.7
209.585	309.97
210.053	347.42
210.521	324.02
210.989	223.37
211.457	272.53
211.925	295.93
212.393	258.48
212.861	326.36
213.328	258.48
213.796	300.61
214.264	312.32
214.731	298.27
215.199	291.25
215.666	288.91
216.133	305.29
216.601	260.82
217.068	239.76
217.535	211.67
218.003	258.48
218.47	279.55
218.937	239.76
219.404	242.1
219.871	317
220.338	265.5
220.805	249.12
221.271	279.55
221.738	300.61
222.205	225.72
222.671	209.33
223.138	279.55
223.605	253.8
224.071	230.4
224.538	249.12
225.004	302.95
225.47	244.44
225.937	286.57
226.403	284.23
226.869	288.91
227.335	274.87
227.801	272.53
228.267	321.68
228.733	284.23
229.199	235.08
229.665	228.06
230.131	309.97
230.597	242.1
231.062	293.59
231.528	253.8
231.994	228.06
232.459	221.03
232.925	277.21
233.39	307.63
233.856	253.8
234.321	363.81
234.786	302.95
235.252	265.5
235.717	267.85
236.182	272.53
236.647	263.16
237.112	232.74
237.577	251.46
238.042	256.14
238.507	211.67
238.972	309.97
239.436	253.8
239.901	328.7
240.366	312.32
240.83	279.55
241.295	309.97
241.76	309.97
242.224	249.12
242.688	242.1
243.153	295.93
243.617	324.02
244.081	314.66
244.545	284.23
245.01	286.57
245.474	302.95
245.938	302.95
246.402	256.14
246.866	302.95
247.33	377.85
247.793	242.1
248.257	237.42
248.721	265.5
249.185	335.72
249.648	284.23
250.112	277.21
250.575	246.78
251.039	242.1
251.502	272.53
251.965	284.23
252.429	293.59
252.892	232.74
253.355	305.29
253.818	309.97
254.281	349.76
254.744	279.55
255.207	328.7
255.67	335.72
256.133	272.53
256.596	270.19
257.059	263.16
257.522	272.53
257.984	305.29
258.447	253.8
258.909	291.25
259.372	309.97
259.834	328.7
260.297	298.27
260.759	277.21
261.221	370.83
261.684	342.74
262.146	328.7
262.608	324.02
263.07	335.72
263.532	288.91
263.994	293.59
264.456	314.66
264.918	274.87
265.38	281.89
265.842	267.85
266.303	317
266.765	354.44
267.227	279.55
267.688	300.61
268.15	256.14
268.611	328.7
269.072	272.53
269.534	295.93
269.995	328.7
270.456	307.63
270.918	277.21
271.379	295.93
271.84	256.14
272.301	239.76
272.762	394.23
273.223	274.87
273.684	345.08
274.144	270.19
274.605	274.87
275.066	286.57
275.527	284.23
275.987	356.79
276.448	286.57
276.908	214.01
277.369	284.23
277.829	354.44
278.289	286.57
278.75	288.91
279.21	347.42
279.67	288.91
280.13	375.51
280.59	326.36
281.05	235.08
281.51	286.57
281.97	333.38
282.43	338.06
282.89	239.76
283.35	281.89
283.809	246.78
284.269	326.36
284.729	244.44
285.188	349.76
285.648	314.66
286.107	312.32
286.567	366.15
287.026	324.02
287.485	274.87
287.944	349.76
288.404	274.87
288.863	267.85
289.322	223.37
289.781	284.23
290.24	307.63
290.699	288.91
291.158	223.37
291.616	324.02
292.075	284.23
292.534	263.16
292.992	281.89
293.451	305.29
293.91	349.76
294.368	321.68
294.827	300.61
295.285	253.8
295.743	387.21
296.202	256.14
296.66	321.68
297.118	328.7
297.576	328.7
298.034	293.59
298.492	242.1
298.95	317
299.408	258.48
299.866	300.61
300.324	349.76
300.781	309.97
301.239	342.74
301.697	331.04
302.154	286.57
302.612	288.91
303.069	267.85
303.527	373.17
303.984	312.32
304.441	274.87
304.899	361.47
305.356	349.76
305.813	309.97
306.27	359.13
306.727	340.4
307.184	274.87
307.641	321.68
308.098	253.8
308.555	279.55
309.012	345.08
309.468	232.74
309.925	326.36
310.382	295.93
310.838	267.85
311.295	361.47
311.751	338.06
312.208	324.02
312.664	312.32
313.12	279.55
313.577	368.49
314.033	314.66
314.489	326.36
314.945	331.04
315.401	291.25
315.857	359.13
316.313	242.1
316.769	300.61
317.225	321.68
317.681	253.8
318.136	359.13
318.592	333.38
319.048	305.29
319.503	317
319.959	356.79
320.414	256.14
320.869	256.14
321.325	293.59
321.78	314.66
322.235	291.25
322.691	373.17
323.146	345.08
323.601	279.55
324.056	335.72
324.511	309.97
324.966	347.42
325.421	295.93
325.875	202.31
326.33	324.02
326.785	253.8
327.24	319.34
327.694	335.72
328.149	331.04
328.603	298.27
329.058	305.29
329.512	267.85
329.966	267.85
330.421	307.63
330.875	342.74
331.329	284.23
331.783	279.55
332.237	293.59
332.691	286.57
333.145	312.32
333.599	288.91
334.053	291.25
334.507	251.46
334.96	270.19
335.414	302.95
335.868	342.74
336.321	361.47
336.775	342.74
337.228	324.02
337.682	359.13
338.135	284.23
338.588	335.72
339.042	340.4
339.495	335.72
339.948	284.23
340.401	359.13
340.854	291.25
341.307	326.36
341.76	309.97
342.213	335.72
342.666	260.82
343.119	249.12
343.571	295.93
344.024	361.47
344.477	314.66
344.929	300.61
345.382	302.95
345.834	321.68
346.287	302.95
346.739	298.27
347.191	328.7
347.644	288.91
348.096	326.36
348.548	302.95
349	300.61
349.452	277.21
349.904	277.21
350.356	300.61
350.808	298.27
351.26	258.48
351.711	284.23
352.163	345.08
352.615	309.97
353.066	324.02
353.518	377.85
353.969	293.59
354.421	338.06
354.872	277.21
355.324	279.55
355.775	288.91
356.226	321.68
356.677	305.29
357.128	284.23
357.579	352.1
358.03	263.16
358.481	340.4
358.932	317
359.383	321.68
359.834	317
360.285	300.61
360.735	349.76
361.186	319.34
361.637	256.14
362.087	263.16
362.538	305.29
362.988	363.81
363.438	324.02
363.889	312.32
364.339	258.48
364.789	260.82
365.239	370.83
365.689	391.89
366.139	270.19
366.589	405.94
367.039	324.02
367.489	345.08
367.939	314.66
368.389	328.7
368.839	293.59
369.288	331.04
369.738	324.02
370.187	326.36
370.637	356.79
371.086	326.36
371.536	331.04
371.985	368.49
372.434	352.1
372.884	295.93
373.333	380.19
373.782	326.36
374.231	340.4
374.68	377.85
375.129	335.72
375.578	368.49
376.027	338.06
376.475	279.55
376.924	349.76
377.373	328.7
377.822	317
378.27	342.74
378.719	314.66
379.167	326.36
379.616	370.83
380.064	295.93
380.512	321.68
380.961	302.95
381.409	305.29
381.857	302.95
382.305	331.04
382.753	345.08
383.201	354.44
383.649	321.68
384.097	317
384.545	260.82
384.992	253.8
385.44	366.15
385.888	293.59
386.335	309.97
386.783	225.72
387.231	281.89
387.678	300.61
388.125	345.08
388.573	380.19
389.02	272.53
389.467	309.97
389.914	281.89
390.362	286.57
390.809	335.72
391.256	300.61
391.703	347.42
392.15	300.61
392.596	228.06
393.043	305.29
393.49	309.97
393.937	319.34
394.383	272.53
394.83	312.32
395.276	288.91
395.723	277.21
396.169	281.89
396.616	300.61
397.062	293.59
397.508	347.42
397.954	335.72
398.401	342.74
398.847	319.34
399.293	298.27
399.739	389.55
400.185	361.47
400.631	345.08
401.076	375.51
401.522	277.21
401.968	317
402.414	321.68
402.859	324.02
403.305	319.34
403.75	377.85
404.196	361.47
404.641	293.59
405.086	335.72
405.532	305.29
405.977	340.4
406.422	307.63
406.867	326.36
407.312	347.42
407.757	326.36
408.202	317
408.647	263.16
409.092	263.16
409.537	347.42
409.982	333.38
410.426	338.06
410.871	305.29
411.316	347.42
411.76	291.25
412.205	312.32
412.649	347.42
413.093	317
413.538	300.61
413.982	291.25
414.426	265.5
414.87	314.66
415.314	328.7
415.758	375.51
416.202	394.23
416.646	340.4
417.09	340.4
417.534	356.79
417.978	309.97
418.421	338.06
418.865	326.36
419.309	335.72
419.752	249.12
420.196	253.8
420.639	352.1
421.083	398.92
421.526	366.15
421.969	251.46
422.412	309.97
422.856	326.36
423.299	302.95
423.742	319.34
424.185	370.83
424.628	370.83
425.071	272.53
425.513	359.13
425.956	277.21
426.399	331.04
426.842	359.13
427.284	366.15
427.727	349.76
428.169	396.57
428.612	373.17
429.054	363.81
429.497	389.55
429.939	279.55
430.381	396.57
430.823	394.23
431.265	309.97
431.707	368.49
432.149	445.73
432.591	410.62
433.033	417.64
433.475	384.87
433.917	368.49
434.359	401.26
434.8	487.86
435.242	457.43
435.684	431.68
436.125	490.2
436.567	375.51
437.008	417.64
437.449	469.13
437.891	394.23
438.332	401.26
438.773	389.55
439.214	401.26
439.656	412.96
440.097	370.83
440.538	398.92
440.978	466.79
441.419	478.49
441.86	436.36
442.301	373.17
442.742	410.62
443.182	408.28
443.623	427
444.063	415.3
444.504	431.68
444.944	464.45
445.385	429.34
445.825	359.13
446.265	494.88
446.706	408.28
447.146	452.75
447.586	431.68
448.026	452.75
448.466	455.09
448.906	401.26
449.346	382.53
449.786	422.32
450.225	387.21
450.665	419.98
451.105	520.62
451.544	487.86
451.984	441.04
452.424	391.89
452.863	394.23
453.302	396.57
453.742	445.73
454.181	389.55
454.62	412.96
455.059	408.28
455.499	424.66
455.938	387.21
456.377	462.11
456.816	403.6
457.254	419.98
457.693	391.89
458.132	382.53
458.571	373.17
459.01	417.64
459.448	398.92
459.887	445.73
460.325	356.79
460.764	370.83
461.202	349.76
461.641	354.44
462.079	396.57
462.517	375.51
462.955	396.57
463.393	405.94
463.832	408.28
464.27	368.49
464.708	338.06
465.145	373.17
465.583	405.94
466.021	429.34
466.459	377.85
466.897	333.38
467.334	380.19
467.772	419.98
468.209	403.6
468.647	340.4
469.084	331.04
469.522	424.66
469.959	389.55
470.396	338.06
470.833	382.53
471.271	410.62
471.708	391.89
472.145	302.95
472.582	333.38
473.019	384.87
473.456	370.83
473.892	394.23
474.329	396.57
474.766	331.04
475.202	422.32
475.639	373.17
476.076	380.19
476.512	335.72
476.949	349.76
477.385	370.83
477.821	370.83
478.258	391.89
478.694	427
479.13	321.68
479.566	326.36
480.002	359.13
480.438	380.19
480.874	415.3
481.31	401.26
481.746	370.83
482.181	349.76
482.617	363.81
483.053	419.98
483.488	408.28
483.924	340.4
484.36	466.79
484.795	375.51
485.23	445.73
485.666	354.44
486.101	401.26
486.536	398.92
486.971	403.6
487.407	340.4
487.842	389.55
488.277	441.04
488.712	382.53
489.146	431.68
489.581	429.34
490.016	419.98
490.451	464.45
490.885	445.73
491.32	384.87
491.755	384.87
492.189	384.87
492.624	340.4
493.058	457.43
493.492	380.19
493.927	422.32
494.361	436.36
494.795	401.26
495.229	300.61
495.663	363.81
496.097	347.42
496.531	382.53
496.965	324.02
497.399	469.13
497.833	422.32
498.266	361.47
498.7	389.55
499.134	335.72
499.567	375.51
500.001	380.19
500.434	377.85
500.868	382.53
501.301	352.1
501.734	380.19
502.168	387.21
502.601	391.89
503.034	417.64
503.467	368.49
503.9	405.94
504.333	349.76
504.766	394.23
505.199	331.04
505.632	410.62
506.064	298.27
506.497	368.49
506.93	403.6
507.362	373.17
507.795	394.23
508.227	389.55
508.66	363.81
509.092	389.55
509.524	384.87
509.956	370.83
510.389	373.17
510.821	422.32
511.253	363.81
511.685	445.73
512.117	405.94
512.549	347.42
512.981	375.51
513.412	361.47
513.844	382.53
514.276	349.76
514.707	384.87
515.139	408.28
515.571	391.89
516.002	375.51
516.433	354.44
516.865	450.41
517.296	349.76
517.727	408.28
518.159	403.6
518.59	436.36
519.021	380.19
519.452	396.57
519.883	368.49
520.314	356.79
520.744	415.3
521.175	405.94
521.606	434.02
522.037	382.53
522.467	436.36
522.898	391.89
523.328	448.07
523.759	405.94
524.189	417.64
524.62	377.85
525.05	398.92
525.48	375.51
525.91	443.39
526.341	382.53
526.771	415.3
527.201	340.4
527.631	422.32
528.061	382.53
528.49	403.6
528.92	424.66
529.35	345.08
529.78	389.55
530.209	394.23
530.639	384.87
531.068	387.21
531.498	361.47
531.927	354.44
532.357	436.36
532.786	431.68
533.215	354.44
533.644	359.13
534.074	398.92
534.503	448.07
534.932	417.64
535.361	403.6
535.79	349.76
536.218	415.3
536.647	478.49
537.076	401.26
537.505	408.28
537.933	471.47
538.362	443.39
538.79	403.6
539.219	408.28
539.647	443.39
540.076	504.24
540.504	457.43
540.932	511.26
541.36	625.95
541.788	654.03
542.217	670.42
542.645	628.29
543.073	654.03
543.5	707.87
543.928	703.18
544.356	682.12
544.784	707.87
545.211	698.5
545.639	691.48
546.067	609.56
546.494	623.61
546.922	476.15
547.349	546.37
547.776	483.17
548.204	455.09
548.631	532.33
549.058	478.49
549.485	448.07
549.912	452.75
550.339	457.43
550.766	412.96
551.193	497.22
551.62	497.22
552.047	401.26
552.474	431.68
552.9	403.6
553.327	412.96
553.754	394.23
554.18	422.32
554.607	408.28
555.033	450.41
555.459	380.19
555.886	356.79
556.312	431.68
556.738	415.3
557.164	441.04
557.59	443.39
558.016	417.64
558.442	361.47
558.868	377.85
559.294	389.55
559.72	391.89
560.145	401.26
560.571	387.21
560.997	382.53
561.422	354.44
561.848	347.42
562.273	366.15
562.699	438.7
563.124	441.04
563.549	459.77
563.974	389.55
564.4	450.41
564.825	417.64
565.25	417.64
565.675	319.34
566.1	373.17
566.525	422.32
566.95	405.94
567.374	373.17
567.799	417.64
568.224	422.32
568.648	384.87
569.073	443.39
569.497	342.74
569.922	410.62
570.346	375.51
570.771	403.6
571.195	415.3
571.619	363.81
572.043	394.23
572.467	394.23
572.891	459.77
573.315	434.02
573.739	375.51
574.163	408.28
574.587	403.6
575.011	431.68
575.435	415.3
575.858	380.19
576.282	359.13
576.705	403.6
577.129	427
577.552	396.57
577.976	373.17
578.399	373.17
578.822	473.81
579.245	466.79
579.669	443.39
580.092	427
580.515	389.55
580.938	363.81
581.361	469.13
581.784	396.57
582.206	401.26
582.629	424.66
583.052	422.32
583.474	464.45
583.897	415.3
584.32	384.87
584.742	504.24
585.165	427
585.587	471.47
586.009	462.11
586.431	441.04
586.854	366.15
587.276	438.7
587.698	387.21
588.12	363.81
588.542	450.41
588.964	483.17
589.386	459.77
589.807	480.83
590.229	408.28
590.651	389.55
591.073	410.62
591.494	412.96
591.916	424.66
592.337	359.13
592.759	434.02
593.18	394.23
593.601	441.04
594.022	443.39
594.444	401.26
594.865	415.3
595.286	361.47
595.707	380.19
596.128	340.4
596.549	333.38
596.97	368.49
597.39	335.72
597.811	382.53
598.232	410.62
598.652	448.07
599.073	396.57
599.494	412.96
599.914	380.19
600.334	352.1
600.755	436.36
601.175	279.55
601.595	436.36
602.015	377.85
602.436	368.49
602.856	537.01
603.276	291.25
603.696	410.62
604.115	349.76
604.535	382.53
604.955	434.02
605.375	422.32
605.794	338.06
606.214	373.17
606.634	398.92
607.053	387.21
607.473	417.64
607.892	422.32
608.311	417.64
608.731	382.53
609.15	443.39
609.569	541.69
609.988	623.61
610.407	752.34
610.826	740.63
611.245	738.29
611.664	679.78
612.083	644.67
612.501	677.44
612.92	632.97
613.339	618.93
613.757	560.41
614.176	483.17
614.594	471.47
615.013	429.34
615.431	436.36
615.85	436.36
616.268	368.49
616.686	452.75
617.104	380.19
617.522	419.98
617.94	434.02
618.358	359.13
618.776	424.66
619.194	405.94
619.612	384.87
620.03	438.7
620.447	415.3
620.865	363.81
621.282	476.15
621.7	436.36
622.117	506.58
622.535	373.17
622.952	342.74
623.369	328.7
623.787	424.66
624.204	394.23
624.621	347.42
625.038	410.62
625.455	389.55
625.872	410.62
626.289	375.51
626.706	370.83
627.123	347.42
627.539	466.79
627.956	314.66
628.373	394.23
628.789	377.85
629.206	389.55
629.622	338.06
630.038	373.17
630.455	356.79
630.871	429.34
631.287	354.44
631.703	375.51
632.12	422.32
632.536	338.06
632.952	267.85
633.368	324.02
633.783	384.87
634.199	370.83
634.615	305.29
635.031	363.81
635.446	307.63
635.862	347.42
636.277	391.89
636.693	317
637.108	375.51
637.524	384.87
637.939	333.38
638.354	347.42
638.77	319.34
639.185	408.28
639.6	352.1
640.015	307.63
640.43	384.87
640.845	300.61
641.259	354.44
641.674	345.08
642.089	361.47
642.504	314.66
642.918	338.06
643.333	328.7
643.747	300.61
644.162	391.89
644.576	405.94
644.991	352.1
645.405	366.15
645.819	394.23
646.233	281.89
646.647	317
647.061	349.76
647.475	375.51
647.889	328.7
648.303	263.16
648.717	342.74
649.131	363.81
649.545	314.66
649.958	370.83
650.372	338.06
650.785	401.26
651.199	380.19
651.612	293.59
652.026	354.44
652.439	361.47
652.852	370.83
653.266	354.44
653.679	321.68
654.092	314.66
654.505	373.17
654.918	340.4
655.331	380.19
655.744	391.89
656.156	349.76
656.569	347.42
656.982	373.17
657.394	349.76
657.807	295.93
658.22	307.63
658.632	342.74
659.044	366.15
659.457	288.91
659.869	284.23
660.281	272.53
660.693	293.59
661.106	309.97
661.518	281.89
661.93	317
662.342	347.42
662.754	354.44
663.165	319.34
663.577	300.61
663.989	309.97
664.401	291.25
664.812	347.42
665.224	356.79
665.635	398.92
666.047	309.97
666.458	328.7
666.869	370.83
667.281	338.06
667.692	288.91
668.103	249.12
668.514	338.06
668.925	317
669.336	366.15
669.747	352.1
670.158	302.95
670.569	338.06
670.979	277.21
671.39	384.87
671.801	401.26
672.211	345.08
672.622	319.34
673.032	251.46
673.443	328.7
673.853	328.7
674.263	309.97
674.674	398.92
675.084	338.06
675.494	356.79
675.904	394.23
676.314	319.34
676.724	401.26
677.134	300.61
677.544	356.79
677.953	328.7
678.363	295.93
678.773	361.47
679.182	324.02
679.592	338.06
680.001	338.06
680.411	368.49
680.82	354.44
681.23	321.68
681.639	366.15
682.048	375.51
682.457	335.72
682.866	375.51
683.275	335.72
683.684	324.02
684.093	309.97
684.502	347.42
684.911	267.85
685.32	291.25
685.728	288.91
686.137	384.87
686.546	309.97
686.954	363.81
687.363	352.1
687.771	342.74
688.179	333.38
688.588	352.1
688.996	342.74
689.404	391.89
689.812	288.91
690.22	302.95
690.628	387.21
691.036	326.36
691.444	342.74
691.852	338.06
692.26	345.08
692.667	405.94
693.075	281.89
693.483	307.63
693.89	319.34
694.298	338.06
694.705	345.08
695.112	342.74
695.52	338.06
695.927	300.61
696.334	324.02
696.741	342.74
697.148	274.87
697.555	281.89
697.962	394.23
698.369	359.13
698.776	377.85
699.183	354.44
699.59	352.1
699.996	366.15
700.403	251.46
700.81	246.78
701.216	300.61
701.623	345.08
702.029	328.7
702.435	309.97
702.842	274.87
703.248	281.89
703.654	300.61
704.06	286.57
704.466	347.42
704.872	317
705.278	366.15
705.684	324.02
706.09	387.21
706.496	380.19
706.901	380.19
707.307	347.42
707.712	377.85
708.118	345.08
708.523	307.63
708.929	284.23
709.334	309.97
709.74	382.53
710.145	319.34
710.55	281.89
710.955	312.32
711.36	328.7
711.765	333.38
712.17	319.34
712.575	328.7
712.98	962.98
713.385	300.61
713.789	335.72
714.194	361.47
714.599	286.57
715.003	267.85
715.408	324.02
715.812	328.7
716.217	284.23
716.621	307.63
717.025	302.95
717.429	317
717.833	347.42
718.238	307.63
718.642	328.7
719.046	331.04
719.449	347.42
719.853	305.29
720.257	347.42
720.661	361.47
721.065	377.85
721.468	356.79
721.872	331.04
722.275	309.97
722.679	335.72
723.082	293.59
723.485	324.02
723.889	340.4
724.292	328.7
724.695	352.1
725.098	317
725.501	405.94
725.904	274.87
726.307	324.02
726.71	345.08
727.113	380.19
727.516	307.63
727.918	331.04
728.321	345.08
728.724	286.57
729.126	237.42
729.529	324.02
729.931	335.72
730.333	338.06
730.736	335.72
731.138	284.23
731.54	307.63
731.942	281.89
732.344	295.93
732.746	314.66
733.148	321.68
733.55	356.79
733.952	361.47
734.354	321.68
734.756	288.91
735.157	302.95
735.559	305.29
735.96	326.36
736.362	331.04
736.763	342.74
737.165	359.13
737.566	340.4
737.967	281.89
738.368	359.13
738.77	302.95
739.171	312.32
739.572	368.49
739.973	267.85
740.374	288.91
740.774	335.72
741.175	345.08
741.576	377.85
741.977	321.68
742.377	352.1
742.778	300.61
743.178	281.89
743.579	270.19
743.979	298.27
744.379	270.19
744.78	366.15
745.18	319.34
745.58	319.34
745.98	352.1
746.38	291.25
746.78	267.85
747.18	272.53
747.58	300.61
747.98	321.68
748.38	366.15
748.779	317
749.179	267.85
749.578	342.74
749.978	340.4
750.377	408.28
750.777	314.66
751.176	302.95
751.575	293.59
751.975	377.85
752.374	312.32
752.773	354.44
753.172	288.91
753.571	326.36
753.97	317
754.369	307.63
754.768	286.57
755.166	309.97
755.565	295.93
755.964	324.02
756.362	338.06
756.761	373.17
757.159	300.61
757.558	345.08
757.956	345.08
758.354	324.02
758.753	314.66
759.151	338.06
759.549	291.25
759.947	263.16
760.345	307.63
760.743	260.82
761.141	263.16
761.539	286.57
761.936	295.93
762.334	305.29
762.732	281.89
763.129	328.7
763.527	265.5
763.924	363.81
764.322	312.32
764.719	244.44
765.117	253.8
765.514	312.32
765.911	314.66
766.308	345.08
766.705	338.06
