Data from Al_FLMS009871__180__12-01-01-774.txt Node

Date: Fri Mar 08 12:01:01 CST 2024
User: pe5414po
Spectrometer: FLMS00987
Trigger mode: 0
Integration Time (sec): 1.000000E-1
Scans to average: 1
Electric dark correction enabled: true
Nonlinearity correction enabled: false
Boxcar width: 0
XAxis mode: Wavelengths
Number of Pixels in Spectrum: 2048
>>>>>Begin Spectral Data<<<<<
188.938	4.83
189.409	4.83
189.879	4.83
190.349	-98.16
190.819	-102.84
191.29	-84.11
191.76	-53.69
192.23	-51.35
192.7	-74.75
193.17	-72.41
193.64	-53.69
194.109	-51.35
194.579	-18.58
195.049	-16.24
195.519	9.51
195.988	9.51
196.458	89.09
196.927	63.34
197.397	98.45
197.866	110.15
198.336	96.11
198.805	154.62
199.274	175.69
199.744	121.85
200.213	236.54
200.682	182.71
201.151	201.43
201.62	231.86
202.089	217.82
202.558	262.29
203.027	248.24
203.495	266.97
203.964	227.18
204.433	215.48
204.902	353.57
205.37	295.05
205.839	290.37
206.307	295.05
206.776	302.08
207.244	330.16
207.712	355.91
208.181	269.31
208.649	281.01
209.117	304.42
209.585	276.33
210.053	306.76
210.521	283.35
210.989	344.21
211.457	271.65
211.925	355.91
212.393	311.44
212.861	224.84
213.328	297.39
213.796	302.08
214.264	306.76
214.731	327.82
215.199	288.03
215.666	264.63
216.133	220.16
216.601	288.03
217.068	339.52
217.535	288.03
218.003	365.27
218.47	290.37
218.937	222.5
219.404	318.46
219.871	316.12
220.338	302.08
220.805	255.26
221.271	231.86
221.738	273.99
222.205	316.12
222.671	262.29
223.138	285.69
223.605	199.09
224.071	341.86
224.538	199.09
225.004	283.35
225.47	355.91
225.937	206.11
226.403	243.56
226.869	201.43
227.335	313.78
227.801	213.14
228.267	283.35
228.733	241.22
229.199	295.05
229.665	323.14
230.131	255.26
230.597	206.11
231.062	278.67
231.528	304.42
231.994	295.05
232.459	327.82
232.925	273.99
233.39	311.44
233.856	299.73
234.321	243.56
234.786	292.71
235.252	304.42
235.717	337.18
236.182	278.67
236.647	241.22
237.112	271.65
237.577	224.84
238.042	264.63
238.507	264.63
238.972	259.95
239.436	316.12
239.901	292.71
240.366	243.56
240.83	309.1
241.295	269.31
241.76	320.8
242.224	309.1
242.688	273.99
243.153	386.33
243.617	283.35
244.081	313.78
244.545	259.95
245.01	276.33
245.474	318.46
245.938	304.42
246.402	299.73
246.866	278.67
247.33	323.14
247.793	367.61
248.257	281.01
248.721	278.67
249.185	302.08
249.648	299.73
250.112	285.69
250.575	245.9
251.039	302.08
251.502	271.65
251.965	372.29
252.429	313.78
252.892	243.56
253.355	285.69
253.818	306.76
254.281	311.44
254.744	281.01
255.207	245.9
255.67	327.82
256.133	325.48
256.596	290.37
257.059	302.08
257.522	304.42
257.984	288.03
258.447	255.26
258.909	306.76
259.372	285.69
259.834	266.97
260.297	297.39
260.759	323.14
261.221	316.12
261.684	281.01
262.146	327.82
262.608	311.44
263.07	360.59
263.532	259.95
263.994	288.03
264.456	278.67
264.918	252.92
265.38	290.37
265.842	297.39
266.303	273.99
266.765	250.58
267.227	306.76
267.688	231.86
268.15	283.35
268.611	229.52
269.072	306.76
269.534	344.21
269.995	264.63
270.456	257.61
270.918	285.69
271.379	334.84
271.84	255.26
272.301	290.37
272.762	271.65
273.223	299.73
273.684	367.61
274.144	271.65
274.605	334.84
275.066	273.99
275.527	283.35
275.987	313.78
276.448	250.58
276.908	311.44
277.369	360.59
277.829	252.92
278.289	299.73
278.75	306.76
279.21	229.52
279.67	318.46
280.13	320.8
280.59	278.67
281.05	353.57
281.51	243.56
281.97	302.08
282.43	252.92
282.89	292.71
283.35	297.39
283.809	278.67
284.269	257.61
284.729	302.08
285.188	313.78
285.648	306.76
286.107	250.58
286.567	299.73
287.026	360.59
287.485	323.14
287.944	302.08
288.404	344.21
288.863	316.12
289.322	327.82
289.781	285.69
290.24	337.18
290.699	372.29
291.158	339.52
291.616	259.95
292.075	318.46
292.534	273.99
292.992	306.76
293.451	299.73
293.91	302.08
294.368	339.52
294.827	309.1
295.285	250.58
295.743	306.76
296.202	290.37
296.66	355.91
297.118	297.39
297.576	372.29
298.034	269.31
298.492	259.95
298.95	306.76
299.408	344.21
299.866	344.21
300.324	348.89
300.781	283.35
301.239	302.08
301.697	292.71
302.154	302.08
302.612	304.42
303.069	332.5
303.527	304.42
303.984	313.78
304.441	299.73
304.899	351.23
305.356	318.46
305.813	365.27
306.27	313.78
306.727	302.08
307.184	351.23
307.641	292.71
308.098	311.44
308.555	379.31
309.012	369.95
309.468	351.23
309.925	266.97
310.382	365.27
310.838	337.18
311.295	318.46
311.751	323.14
312.208	238.88
312.664	339.52
313.12	264.63
313.577	320.8
314.033	295.05
314.489	299.73
314.945	304.42
315.401	346.55
315.857	341.86
316.313	285.69
316.769	362.93
317.225	262.29
317.681	302.08
318.136	332.5
318.592	295.05
319.048	264.63
319.503	330.16
319.959	323.14
320.414	252.92
320.869	299.73
321.325	327.82
321.78	281.01
322.235	243.56
322.691	344.21
323.146	358.25
323.601	283.35
324.056	320.8
324.511	278.67
324.966	348.89
325.421	327.82
325.875	318.46
326.33	323.14
326.785	339.52
327.24	299.73
327.694	348.89
328.149	325.48
328.603	252.92
329.058	238.88
329.512	339.52
329.966	351.23
330.421	269.31
330.875	316.12
331.329	318.46
331.783	210.79
332.237	341.86
332.691	283.35
333.145	259.95
333.599	269.31
334.053	327.82
334.507	309.1
334.96	416.76
335.414	353.57
335.868	236.54
336.321	311.44
336.775	353.57
337.228	295.05
337.682	283.35
338.135	327.82
338.588	313.78
339.042	348.89
339.495	365.27
339.948	346.55
340.401	316.12
340.854	337.18
341.307	318.46
341.76	288.03
342.213	372.29
342.666	334.84
343.119	334.84
343.571	316.12
344.024	325.48
344.477	339.52
344.929	306.76
345.382	348.89
345.834	353.57
346.287	320.8
346.739	332.5
347.191	311.44
347.644	276.33
348.096	320.8
348.548	323.14
349	276.33
349.452	266.97
349.904	318.46
350.356	327.82
350.808	285.69
351.26	295.05
351.711	266.97
352.163	273.99
352.615	358.25
353.066	266.97
353.518	332.5
353.969	369.95
354.421	271.65
354.872	304.42
355.324	337.18
355.775	318.46
356.226	299.73
356.677	358.25
357.128	281.01
357.579	283.35
358.03	348.89
358.481	348.89
358.932	295.05
359.383	358.25
359.834	337.18
360.285	346.55
360.735	369.95
361.186	299.73
361.637	318.46
362.087	273.99
362.538	245.9
362.988	351.23
363.438	283.35
363.889	348.89
364.339	318.46
364.789	295.05
365.239	355.91
365.689	379.31
366.139	346.55
366.589	297.39
367.039	313.78
367.489	288.03
367.939	295.05
368.389	344.21
368.839	264.63
369.288	304.42
369.738	381.65
370.187	281.01
370.637	376.97
371.086	304.42
371.536	351.23
371.985	302.08
372.434	344.21
372.884	346.55
373.333	248.24
373.782	379.31
374.231	327.82
374.68	358.25
375.129	250.58
375.578	365.27
376.027	271.65
376.475	292.71
376.924	313.78
377.373	264.63
377.822	278.67
378.27	344.21
378.719	309.1
379.167	332.5
379.616	323.14
380.064	306.76
380.512	367.61
380.961	288.03
381.409	346.55
381.857	323.14
382.305	259.95
382.753	318.46
383.201	302.08
383.649	353.57
384.097	351.23
384.545	311.44
384.992	306.76
385.44	369.95
385.888	306.76
386.335	299.73
386.783	299.73
387.231	344.21
387.678	299.73
388.125	316.12
388.573	269.31
389.02	306.76
389.467	362.93
389.914	302.08
390.362	320.8
390.809	288.03
391.256	320.8
391.703	348.89
392.15	332.5
392.596	332.5
393.043	339.52
393.49	369.95
393.937	346.55
394.383	313.78
394.83	295.05
395.276	304.42
395.723	327.82
396.169	348.89
396.616	365.27
397.062	304.42
397.508	360.59
397.954	330.16
398.401	323.14
398.847	273.99
399.293	285.69
399.739	327.82
400.185	355.91
400.631	332.5
401.076	341.86
401.522	266.97
401.968	400.38
402.414	339.52
402.859	313.78
403.305	341.86
403.75	440.17
404.196	302.08
404.641	341.86
405.086	355.91
405.532	346.55
405.977	330.16
406.422	337.18
406.867	337.18
407.312	358.25
407.757	316.12
408.202	295.05
408.647	320.8
409.092	376.97
409.537	281.01
409.982	259.95
410.426	360.59
410.871	309.1
411.316	327.82
411.76	353.57
412.205	320.8
412.649	341.86
413.093	259.95
413.538	316.12
413.982	311.44
414.426	285.69
414.87	369.95
415.314	344.21
415.758	339.52
416.202	398.04
416.646	323.14
417.09	341.86
417.534	358.25
417.978	318.46
418.421	257.61
418.865	299.73
419.309	374.63
419.752	327.82
420.196	311.44
420.639	304.42
421.083	320.8
421.526	353.57
421.969	278.67
422.412	355.91
422.856	369.95
423.299	365.27
423.742	320.8
424.185	344.21
424.628	334.84
425.071	355.91
425.513	358.25
425.956	351.23
426.399	334.84
426.842	348.89
427.284	376.97
427.727	374.63
428.169	379.31
428.612	419.1
429.054	379.31
429.497	365.27
429.939	334.84
430.381	449.53
430.823	400.38
431.265	281.01
431.707	278.67
432.149	353.57
432.591	409.74
433.033	367.61
433.475	344.21
433.917	381.65
434.359	433.15
434.8	465.91
435.242	515.06
435.684	465.91
436.125	433.15
436.567	454.21
437.008	470.59
437.449	423.78
437.891	433.15
438.332	412.08
438.773	374.63
439.214	374.63
439.656	472.93
440.097	440.17
440.538	386.33
440.978	405.06
441.419	386.33
441.86	388.68
442.301	442.51
442.742	402.72
443.182	491.66
443.623	482.3
444.063	463.57
444.504	444.85
444.944	405.06
445.385	440.17
445.825	412.08
446.265	412.08
446.706	430.8
447.146	379.31
447.586	414.42
448.026	428.46
448.466	456.55
448.906	428.46
449.346	421.44
449.786	454.21
450.225	456.55
450.665	461.23
451.105	456.55
451.544	489.32
451.984	435.49
452.424	484.64
452.863	472.93
453.302	423.78
453.742	374.63
454.181	435.49
454.62	386.33
455.059	430.8
455.499	402.72
455.938	465.91
456.377	444.85
456.816	449.53
457.254	419.1
457.693	367.61
458.132	353.57
458.571	393.36
459.01	451.87
459.448	362.93
459.887	379.31
460.325	372.29
460.764	409.74
461.202	421.44
461.641	358.25
462.079	332.5
462.517	348.89
462.955	339.52
463.393	367.61
463.832	379.31
464.27	426.12
464.708	341.86
465.145	383.99
465.583	393.36
466.021	393.36
466.459	407.4
466.897	379.31
467.334	395.7
467.772	405.06
468.209	386.33
468.647	369.95
469.084	444.85
469.522	458.89
469.959	374.63
470.396	351.23
470.833	337.18
471.271	412.08
471.708	381.65
472.145	381.65
472.582	416.76
473.019	395.7
473.456	264.63
473.892	358.25
474.329	405.06
474.766	337.18
475.202	355.91
475.639	440.17
476.076	355.91
476.512	402.72
476.949	344.21
477.385	348.89
477.821	405.06
478.258	311.44
478.694	376.97
479.13	391.02
479.566	393.36
480.002	360.59
480.438	341.86
480.874	416.76
481.31	316.12
481.746	386.33
482.181	365.27
482.617	393.36
483.053	393.36
483.488	386.33
483.924	398.04
484.36	419.1
484.795	437.83
485.23	447.19
485.666	416.76
486.101	407.4
486.536	395.7
486.971	400.38
487.407	428.46
487.842	430.8
488.277	398.04
488.712	412.08
489.146	456.55
489.581	405.06
490.016	316.12
490.451	393.36
490.885	428.46
491.32	451.87
491.755	346.55
492.189	348.89
492.624	419.1
493.058	400.38
493.492	412.08
493.927	376.97
494.361	393.36
494.795	362.93
495.229	381.65
495.663	391.02
496.097	383.99
496.531	428.46
496.965	362.93
497.399	372.29
497.833	409.74
498.266	348.89
498.7	386.33
499.134	414.42
499.567	358.25
500.001	442.51
500.434	383.99
500.868	318.46
501.301	388.68
501.734	327.82
502.168	365.27
502.601	358.25
503.034	306.76
503.467	374.63
503.9	367.61
504.333	367.61
504.766	374.63
505.199	395.7
505.632	302.08
506.064	398.04
506.497	369.95
506.93	423.78
507.362	341.86
507.795	327.82
508.227	355.91
508.66	402.72
509.092	472.93
509.524	454.21
509.956	419.1
510.389	437.83
510.821	423.78
511.253	388.68
511.685	407.4
512.117	358.25
512.549	470.59
512.981	398.04
513.412	463.57
513.844	468.25
514.276	407.4
514.707	388.68
515.139	435.49
515.571	440.17
516.002	376.97
516.433	369.95
516.865	304.42
517.296	355.91
517.727	447.19
518.159	440.17
518.59	440.17
519.021	412.08
519.452	414.42
519.883	334.84
520.314	386.33
520.744	409.74
521.175	353.57
521.606	369.95
522.037	414.42
522.467	398.04
522.898	367.61
523.328	409.74
523.759	388.68
524.189	398.04
524.62	458.89
525.05	355.91
525.48	423.78
525.91	360.59
526.341	412.08
526.771	400.38
527.201	353.57
527.631	346.55
528.061	407.4
528.49	358.25
528.92	334.84
529.35	376.97
529.78	381.65
530.209	374.63
530.639	388.68
531.068	376.97
531.498	393.36
531.927	391.02
532.357	367.61
532.786	402.72
533.215	369.95
533.644	433.15
534.074	451.87
534.503	421.44
534.932	395.7
535.361	346.55
535.79	416.76
536.218	477.62
536.647	381.65
537.076	482.3
537.505	391.02
537.933	440.17
538.362	451.87
538.79	423.78
539.219	515.06
539.647	573.58
540.076	451.87
540.504	486.98
540.932	501.02
541.36	578.26
541.788	613.37
542.217	688.26
542.645	746.78
543.073	613.37
543.5	681.24
543.928	674.22
544.356	688.26
544.784	718.69
545.211	692.94
545.639	699.97
546.067	620.39
546.494	538.47
546.922	517.4
547.349	564.22
547.776	461.23
548.204	458.89
548.631	444.85
549.058	463.57
549.485	463.57
549.912	463.57
550.339	498.68
550.766	449.53
551.193	496.34
551.62	510.38
552.047	407.4
552.474	416.76
552.9	381.65
553.327	433.15
553.754	435.49
554.18	454.21
554.607	360.59
555.033	362.93
555.459	430.8
555.886	365.27
556.312	515.06
556.738	332.5
557.164	414.42
557.59	419.1
558.016	395.7
558.442	405.06
558.868	440.17
559.294	407.4
559.72	395.7
560.145	421.44
560.571	430.8
560.997	433.15
561.422	374.63
561.848	327.82
562.273	381.65
562.699	405.06
563.124	360.59
563.549	447.19
563.974	386.33
564.4	400.38
564.825	383.99
565.25	440.17
565.675	367.61
566.1	393.36
566.525	362.93
566.95	405.06
567.374	348.89
567.799	332.5
568.224	405.06
568.648	376.97
569.073	360.59
569.497	332.5
569.922	365.27
570.346	407.4
570.771	416.76
571.195	388.68
571.619	393.36
572.043	353.57
572.467	402.72
572.891	416.76
573.315	332.5
573.739	381.65
574.163	395.7
574.587	362.93
575.011	421.44
575.435	407.4
575.858	461.23
576.282	435.49
576.705	362.93
577.129	428.46
577.552	454.21
577.976	454.21
578.399	463.57
578.822	395.7
579.245	372.29
579.669	426.12
580.092	379.31
580.515	402.72
580.938	412.08
581.361	428.46
581.784	421.44
582.206	440.17
582.629	484.64
583.052	442.51
583.474	489.32
583.897	522.09
584.32	395.7
584.742	414.42
585.165	458.89
585.587	468.25
586.009	419.1
586.431	449.53
586.854	454.21
587.276	456.55
587.698	362.93
588.12	405.06
588.542	419.1
588.964	472.93
589.386	470.59
589.807	405.06
590.229	412.08
590.651	465.91
591.073	369.95
591.494	360.59
591.916	407.4
592.337	475.28
592.759	400.38
593.18	416.76
593.601	426.12
594.022	379.31
594.444	451.87
594.865	334.84
595.286	374.63
595.707	360.59
596.128	440.17
596.549	444.85
596.97	442.51
597.39	414.42
597.811	472.93
598.232	428.46
598.652	398.04
599.073	412.08
599.494	337.18
599.914	449.53
600.334	395.7
600.755	309.1
601.175	362.93
601.595	269.31
602.015	344.21
602.436	398.04
602.856	494
603.276	316.12
603.696	311.44
604.115	400.38
604.535	393.36
604.955	423.78
605.375	330.16
605.794	374.63
606.214	433.15
606.634	409.74
607.053	416.76
607.473	374.63
607.892	405.06
608.311	421.44
608.731	386.33
609.15	477.62
609.569	522.09
609.988	622.73
610.407	779.54
610.826	767.84
611.245	723.37
611.664	737.42
612.083	632.09
612.501	660.18
612.92	573.58
613.339	594.64
613.757	451.87
614.176	501.02
614.594	458.89
615.013	491.66
615.431	501.02
615.85	402.72
616.268	430.8
616.686	428.46
617.104	440.17
617.522	383.99
617.94	409.74
618.358	400.38
618.776	414.42
619.194	451.87
619.612	391.02
620.03	358.25
620.447	367.61
620.865	393.36
621.282	440.17
621.7	461.23
622.117	346.55
622.535	388.68
622.952	348.89
623.369	423.78
623.787	412.08
624.204	339.52
624.621	407.4
625.038	351.23
625.455	337.18
625.872	391.02
626.289	379.31
626.706	341.86
627.123	426.12
627.539	395.7
627.956	362.93
628.373	393.36
628.789	341.86
629.206	360.59
629.622	398.04
630.038	386.33
630.455	400.38
630.871	388.68
631.287	379.31
631.703	337.18
632.12	369.95
632.536	381.65
632.952	346.55
633.368	407.4
633.783	358.25
634.199	346.55
634.615	372.29
635.031	362.93
635.446	360.59
635.862	346.55
636.277	419.1
636.693	339.52
637.108	316.12
637.524	290.37
637.939	395.7
638.354	353.57
638.77	346.55
639.185	386.33
639.6	334.84
640.015	323.14
640.43	376.97
640.845	348.89
641.259	379.31
641.674	334.84
642.089	304.42
642.504	388.68
642.918	346.55
643.333	360.59
643.747	325.48
644.162	281.01
644.576	262.29
644.991	358.25
645.405	379.31
645.819	348.89
646.233	311.44
646.647	376.97
647.061	416.76
647.475	332.5
647.889	369.95
648.303	360.59
648.717	360.59
649.131	383.99
649.545	351.23
649.958	412.08
650.372	304.42
650.785	365.27
651.199	395.7
651.612	304.42
652.026	339.52
652.439	313.78
652.852	306.76
653.266	341.86
653.679	383.99
654.092	337.18
654.505	327.82
654.918	334.84
655.331	313.78
655.744	311.44
656.156	358.25
656.569	330.16
656.982	339.52
657.394	285.69
657.807	266.97
658.22	355.91
658.632	323.14
659.044	318.46
659.457	318.46
659.869	327.82
660.281	297.39
660.693	341.86
661.106	372.29
661.518	330.16
661.93	344.21
662.342	320.8
662.754	290.37
663.165	376.97
663.577	346.55
663.989	386.33
664.401	290.37
664.812	325.48
665.224	365.27
665.635	339.52
666.047	304.42
666.458	358.25
666.869	433.15
667.281	353.57
667.692	295.05
668.103	271.65
668.514	351.23
668.925	383.99
669.336	348.89
669.747	337.18
670.158	358.25
670.569	281.01
670.979	288.03
671.39	365.27
671.801	288.03
672.211	327.82
672.622	419.1
673.032	334.84
673.443	316.12
673.853	348.89
674.263	353.57
674.674	325.48
675.084	419.1
675.494	334.84
675.904	341.86
676.314	316.12
676.724	292.71
677.134	344.21
677.544	297.39
677.953	327.82
678.363	316.12
678.773	449.53
679.182	316.12
679.592	372.29
680.001	311.44
680.411	316.12
680.82	320.8
681.23	283.35
681.639	320.8
682.048	313.78
682.457	339.52
682.866	355.91
683.275	276.33
683.684	313.78
684.093	337.18
684.502	332.5
684.911	372.29
685.32	304.42
685.728	299.73
686.137	297.39
686.546	323.14
686.954	316.12
687.363	407.4
687.771	320.8
688.179	348.89
688.588	323.14
688.996	278.67
689.404	332.5
689.812	318.46
690.22	416.76
690.628	271.65
691.036	302.08
691.444	369.95
691.852	372.29
692.26	313.78
692.667	376.97
693.075	416.76
693.483	313.78
693.89	306.76
694.298	318.46
694.705	243.56
695.112	341.86
695.52	323.14
695.927	386.33
696.334	362.93
696.741	367.61
697.148	318.46
697.555	332.5
697.962	355.91
698.369	348.89
698.776	346.55
699.183	259.95
699.59	327.82
699.996	325.48
700.403	388.68
700.81	330.16
701.216	302.08
701.623	311.44
702.029	297.39
702.435	369.95
702.842	281.01
703.248	318.46
703.654	383.99
704.06	288.03
704.466	355.91
704.872	306.76
705.278	344.21
705.684	358.25
706.09	297.39
706.496	334.84
706.901	316.12
707.307	344.21
707.712	337.18
708.118	311.44
708.523	372.29
708.929	367.61
709.334	362.93
709.74	344.21
710.145	309.1
710.55	311.44
710.955	290.37
711.36	395.7
711.765	306.76
712.17	339.52
712.575	318.46
712.98	994.87
713.385	341.86
713.789	320.8
714.194	351.23
714.599	344.21
715.003	304.42
715.408	351.23
715.812	281.01
716.217	304.42
716.621	367.61
717.025	337.18
717.429	351.23
717.833	391.02
718.238	327.82
718.642	323.14
719.046	353.57
719.449	299.73
719.853	302.08
720.257	278.67
720.661	355.91
721.065	353.57
721.468	334.84
721.872	281.01
722.275	264.63
722.679	325.48
723.082	302.08
723.485	353.57
723.889	283.35
724.292	257.61
724.695	348.89
725.098	379.31
725.501	320.8
725.904	369.95
726.307	369.95
726.71	355.91
727.113	341.86
727.516	360.59
727.918	313.78
728.321	332.5
728.724	339.52
729.126	266.97
729.529	295.05
729.931	318.46
730.333	351.23
730.736	341.86
731.138	327.82
731.54	238.88
731.942	381.65
732.344	337.18
732.746	299.73
733.148	255.26
733.55	365.27
733.952	311.44
734.354	283.35
734.756	302.08
735.157	360.59
735.559	372.29
735.96	341.86
736.362	332.5
736.763	299.73
737.165	248.24
737.566	320.8
737.967	304.42
738.368	360.59
738.77	250.58
739.171	285.69
739.572	276.33
739.973	323.14
740.374	323.14
740.774	316.12
741.175	323.14
741.576	271.65
741.977	337.18
742.377	266.97
742.778	325.48
743.178	304.42
743.579	344.21
743.979	358.25
744.379	346.55
744.78	367.61
745.18	351.23
745.58	311.44
745.98	323.14
746.38	330.16
746.78	346.55
747.18	285.69
747.58	355.91
747.98	369.95
748.38	369.95
748.779	362.93
749.179	295.05
749.578	213.14
749.978	332.5
750.377	365.27
750.777	311.44
751.176	323.14
751.575	330.16
751.975	299.73
752.374	372.29
752.773	290.37
753.172	309.1
753.571	290.37
753.97	311.44
754.369	353.57
754.768	358.25
755.166	292.71
755.565	334.84
755.964	379.31
756.362	344.21
756.761	337.18
757.159	341.86
757.558	311.44
757.956	313.78
758.354	325.48
758.753	306.76
759.151	346.55
759.549	337.18
759.947	276.33
760.345	297.39
760.743	400.38
761.141	288.03
761.539	325.48
761.936	266.97
762.334	311.44
762.732	306.76
763.129	348.89
763.527	297.39
763.924	285.69
764.322	360.59
