Data from Al_FLMS009871__185__12-01-02-274.txt Node

Date: Fri Mar 08 12:01:02 CST 2024
User: pe5414po
Spectrometer: FLMS00987
Trigger mode: 0
Integration Time (sec): 1.000000E-1
Scans to average: 1
Electric dark correction enabled: true
Nonlinearity correction enabled: false
Boxcar width: 0
XAxis mode: Wavelengths
Number of Pixels in Spectrum: 2048
>>>>>Begin Spectral Data<<<<<
188.938	-24.87
189.409	-24.87
189.879	-24.87
190.349	-153.6
190.819	-123.17
191.29	-111.47
191.76	-59.98
192.23	-83.38
192.7	-74.02
193.17	-113.81
193.64	7.9
194.109	-36.57
194.579	-76.36
195.049	3.22
195.519	17.26
195.988	-29.55
196.458	59.39
196.927	78.12
197.397	145.99
197.866	124.93
198.336	148.33
198.805	131.95
199.274	211.53
199.744	183.44
200.213	206.84
200.682	162.37
201.151	223.23
201.62	281.74
202.089	230.25
202.558	312.17
203.027	323.87
203.495	298.13
203.964	237.27
204.433	267.7
204.902	295.79
205.37	253.66
205.839	199.82
206.307	314.51
206.776	342.6
207.244	281.74
207.712	288.76
208.181	295.79
208.649	319.19
209.117	263.02
209.585	312.17
210.053	326.21
210.521	286.42
210.989	293.44
211.457	288.76
211.925	314.51
212.393	284.08
212.861	291.1
213.328	309.83
213.796	316.85
214.264	267.7
214.731	342.6
215.199	232.59
215.666	260.68
216.133	246.63
216.601	305.15
217.068	253.66
217.535	288.76
218.003	316.85
218.47	286.42
218.937	286.42
219.404	246.63
219.871	330.89
220.338	256
220.805	263.02
221.271	295.79
221.738	248.97
222.205	202.16
222.671	239.61
223.138	293.44
223.605	263.02
224.071	216.21
224.538	263.02
225.004	281.74
225.47	305.15
225.937	270.04
226.403	302.81
226.869	298.13
227.335	330.89
227.801	319.19
228.267	279.4
228.733	234.93
229.199	232.59
229.665	216.21
230.131	256
230.597	237.27
231.062	288.76
231.528	246.63
231.994	274.72
232.459	272.38
232.925	314.51
233.39	330.89
233.856	300.47
234.321	319.19
234.786	213.87
235.252	314.51
235.717	319.19
236.182	274.72
236.647	326.21
237.112	326.21
237.577	244.29
238.042	354.3
238.507	192.8
238.972	232.59
239.436	302.81
239.901	265.36
240.366	204.5
240.83	300.47
241.295	256
241.76	295.79
242.224	305.15
242.688	218.55
243.153	284.08
243.617	258.34
244.081	248.97
244.545	253.66
245.01	328.55
245.474	253.66
245.938	286.42
246.402	319.19
246.866	307.49
247.33	227.91
247.793	270.04
248.257	286.42
248.721	326.21
249.185	284.08
249.648	263.02
250.112	302.81
250.575	295.79
251.039	279.4
251.502	323.87
251.965	270.04
252.429	234.93
252.892	295.79
253.355	302.81
253.818	314.51
254.281	256
254.744	213.87
255.207	234.93
255.67	263.02
256.133	300.47
256.596	267.7
257.059	312.17
257.522	256
257.984	340.26
258.447	223.23
258.909	272.38
259.372	328.55
259.834	300.47
260.297	272.38
260.759	312.17
261.221	293.44
261.684	321.53
262.146	335.57
262.608	302.81
263.07	267.7
263.532	300.47
263.994	328.55
264.456	340.26
264.918	291.1
265.38	337.91
265.842	279.4
266.303	312.17
266.765	272.38
267.227	279.4
267.688	232.59
268.15	293.44
268.611	319.19
269.072	270.04
269.534	335.57
269.995	340.26
270.456	286.42
270.918	204.5
271.379	288.76
271.84	326.21
272.301	253.66
272.762	323.87
273.223	330.89
273.684	246.63
274.144	279.4
274.605	237.27
275.066	295.79
275.527	314.51
275.987	300.47
276.448	326.21
276.908	295.79
277.369	333.23
277.829	328.55
278.289	326.21
278.75	265.36
279.21	305.15
279.67	309.83
280.13	307.49
280.59	354.3
281.05	277.06
281.51	272.38
281.97	288.76
282.43	340.26
282.89	288.76
283.35	244.29
283.809	344.94
284.269	232.59
284.729	267.7
285.188	293.44
285.648	298.13
286.107	260.68
286.567	316.85
287.026	267.7
287.485	300.47
287.944	312.17
288.404	307.49
288.863	293.44
289.322	300.47
289.781	349.62
290.24	300.47
290.699	298.13
291.158	291.1
291.616	293.44
292.075	286.42
292.534	358.98
292.992	302.81
293.451	302.81
293.91	244.29
294.368	295.79
294.827	263.02
295.285	300.47
295.743	267.7
296.202	288.76
296.66	300.47
297.118	335.57
297.576	284.08
298.034	356.64
298.492	260.68
298.95	354.3
299.408	241.95
299.866	281.74
300.324	316.85
300.781	349.62
301.239	288.76
301.697	260.68
302.154	298.13
302.612	344.94
303.069	258.34
303.527	265.36
303.984	279.4
304.441	302.81
304.899	270.04
305.356	286.42
305.813	295.79
306.27	256
306.727	286.42
307.184	241.95
307.641	347.28
308.098	267.7
308.555	351.96
309.012	281.74
309.468	227.91
309.925	274.72
310.382	305.15
310.838	300.47
311.295	330.89
311.751	342.6
312.208	328.55
312.664	398.77
313.12	316.85
313.577	319.19
314.033	277.06
314.489	274.72
314.945	356.64
315.401	335.57
315.857	293.44
316.313	300.47
316.769	305.15
317.225	326.21
317.681	279.4
318.136	314.51
318.592	354.3
319.048	277.06
319.503	302.81
319.959	340.26
320.414	300.47
320.869	307.49
321.325	277.06
321.78	342.6
322.235	305.15
322.691	358.98
323.146	335.57
323.601	323.87
324.056	258.34
324.511	347.28
324.966	248.97
325.421	326.21
325.875	314.51
326.33	361.32
326.785	335.57
327.24	328.55
327.694	349.62
328.149	258.34
328.603	323.87
329.058	298.13
329.512	293.44
329.966	272.38
330.421	300.47
330.875	366
331.329	284.08
331.783	272.38
332.237	326.21
332.691	302.81
333.145	251.32
333.599	323.87
334.053	321.53
334.507	349.62
334.96	333.23
335.414	316.85
335.868	309.83
336.321	286.42
336.775	295.79
337.228	356.64
337.682	302.81
338.135	316.85
338.588	300.47
339.042	412.81
339.495	284.08
339.948	356.64
340.401	321.53
340.854	335.57
341.307	232.59
341.76	351.96
342.213	321.53
342.666	333.23
343.119	293.44
343.571	316.85
344.024	295.79
344.477	319.19
344.929	314.51
345.382	263.02
345.834	307.49
346.287	286.42
346.739	307.49
347.191	305.15
347.644	312.17
348.096	316.85
348.548	258.34
349	298.13
349.452	337.91
349.904	323.87
350.356	288.76
350.808	309.83
351.26	293.44
351.711	349.62
352.163	347.28
352.615	354.3
353.066	293.44
353.518	272.38
353.969	305.15
354.421	307.49
354.872	316.85
355.324	281.74
355.775	293.44
356.226	351.96
356.677	349.62
357.128	373.02
357.579	284.08
358.03	286.42
358.481	305.15
358.932	300.47
359.383	330.89
359.834	370.68
360.285	333.23
360.735	323.87
361.186	293.44
361.637	328.55
362.087	286.42
362.538	309.83
362.988	286.42
363.438	314.51
363.889	232.59
364.339	281.74
364.789	349.62
365.239	337.91
365.689	384.73
366.139	307.49
366.589	326.21
367.039	319.19
367.489	312.17
367.939	340.26
368.389	307.49
368.839	354.3
369.288	274.72
369.738	333.23
370.187	244.29
370.637	340.26
371.086	340.26
371.536	309.83
371.985	277.06
372.434	316.85
372.884	309.83
373.333	342.6
373.782	330.89
374.231	300.47
374.68	377.7
375.129	349.62
375.578	239.61
376.027	347.28
376.475	349.62
376.924	361.32
377.373	384.73
377.822	281.74
378.27	330.89
378.719	319.19
379.167	351.96
379.616	298.13
380.064	284.08
380.512	342.6
380.961	330.89
381.409	323.87
381.857	293.44
382.305	319.19
382.753	333.23
383.201	258.34
383.649	216.21
384.097	295.79
384.545	396.43
384.992	295.79
385.44	300.47
385.888	344.94
386.335	370.68
386.783	286.42
387.231	333.23
387.678	316.85
388.125	321.53
388.573	248.97
389.02	272.38
389.467	347.28
389.914	288.76
390.362	333.23
390.809	347.28
391.256	227.91
391.703	349.62
392.15	335.57
392.596	351.96
393.043	312.17
393.49	295.79
393.937	305.15
394.383	293.44
394.83	319.19
395.276	347.28
395.723	309.83
396.169	351.96
396.616	281.74
397.062	335.57
397.508	326.21
397.954	340.26
398.401	305.15
398.847	293.44
399.293	354.3
399.739	363.66
400.185	347.28
400.631	351.96
401.076	328.55
401.522	330.89
401.968	340.26
402.414	256
402.859	370.68
403.305	363.66
403.75	351.96
404.196	323.87
404.641	328.55
405.086	356.64
405.532	298.13
405.977	328.55
406.422	380.04
406.867	358.98
407.312	316.85
407.757	316.85
408.202	373.02
408.647	356.64
409.092	356.64
409.537	307.49
409.982	344.94
410.426	354.3
410.871	321.53
411.316	307.49
411.76	293.44
412.205	363.66
412.649	321.53
413.093	281.74
413.538	368.34
413.982	342.6
414.426	302.81
414.87	347.28
415.314	298.13
415.758	333.23
416.202	394.09
416.646	309.83
417.09	302.81
417.534	344.94
417.978	328.55
418.421	330.89
418.865	368.34
419.309	277.06
419.752	330.89
420.196	321.53
420.639	337.91
421.083	342.6
421.526	328.55
421.969	366
422.412	337.91
422.856	335.57
423.299	300.47
423.742	321.53
424.185	373.02
424.628	344.94
425.071	344.94
425.513	330.89
425.956	314.51
426.399	405.79
426.842	321.53
427.284	349.62
427.727	408.13
428.169	361.32
428.612	253.66
429.054	384.73
429.497	342.6
429.939	351.96
430.381	328.55
430.823	405.79
431.265	354.3
431.707	333.23
432.149	412.81
432.591	321.53
433.033	380.04
433.475	344.94
433.917	314.51
434.359	471.33
434.8	468.98
435.242	440.9
435.684	466.64
436.125	525.16
436.567	445.58
437.008	433.88
437.449	490.05
437.891	433.88
438.332	447.92
438.773	440.9
439.214	417.49
439.656	394.09
440.097	426.86
440.538	405.79
440.978	373.02
441.419	366
441.86	419.83
442.301	440.9
442.742	417.49
443.182	415.15
443.623	433.88
444.063	443.24
444.504	396.43
444.944	431.54
445.385	440.9
445.825	529.84
446.265	431.54
446.706	422.17
447.146	419.83
447.586	452.6
448.026	478.35
448.466	373.02
448.906	443.24
449.346	461.96
449.786	450.26
450.225	377.7
450.665	461.96
451.105	431.54
451.544	422.17
451.984	424.51
452.424	366
452.863	394.09
453.302	410.47
453.742	424.51
454.181	426.86
454.62	373.02
455.059	447.92
455.499	349.62
455.938	342.6
456.377	398.77
456.816	354.3
457.254	401.11
457.693	417.49
458.132	445.58
458.571	380.04
459.01	410.47
459.448	387.07
459.887	380.04
460.325	417.49
460.764	380.04
461.202	429.2
461.641	445.58
462.079	380.04
462.517	361.32
462.955	394.09
463.393	363.66
463.832	422.17
464.27	417.49
464.708	403.45
465.145	405.79
465.583	326.21
466.021	373.02
466.459	422.17
466.897	410.47
467.334	464.3
467.772	316.85
468.209	401.11
468.647	335.57
469.084	415.15
469.522	408.13
469.959	335.57
470.396	321.53
470.833	419.83
471.271	333.23
471.708	342.6
472.145	354.3
472.582	356.64
473.019	298.13
473.456	366
473.892	384.73
474.329	349.62
474.766	316.85
475.202	298.13
475.639	405.79
476.076	419.83
476.512	333.23
476.949	401.11
477.385	330.89
477.821	380.04
478.258	391.75
478.694	403.45
479.13	344.94
479.566	361.32
480.002	314.51
480.438	335.57
480.874	354.3
481.31	424.51
481.746	370.68
482.181	384.73
482.617	401.11
483.053	387.07
483.488	333.23
483.924	403.45
484.36	396.43
484.795	405.79
485.23	380.04
485.666	408.13
486.101	401.11
486.536	366
486.971	384.73
487.407	389.41
487.842	389.41
488.277	447.92
488.712	504.09
489.146	457.28
489.581	422.17
490.016	342.6
490.451	447.92
490.885	396.43
491.32	363.66
491.755	377.7
492.189	384.73
492.624	368.34
493.058	394.09
493.492	377.7
493.927	417.49
494.361	415.15
494.795	337.91
495.229	424.51
495.663	459.62
496.097	422.17
496.531	384.73
496.965	410.47
497.399	375.36
497.833	368.34
498.266	354.3
498.7	391.75
499.134	433.88
499.567	354.3
500.001	351.96
500.434	382.39
500.868	410.47
501.301	328.55
501.734	335.57
502.168	403.45
502.601	270.04
503.034	363.66
503.467	405.79
503.9	288.76
504.333	326.21
504.766	330.89
505.199	373.02
505.632	389.41
506.064	410.47
506.497	396.43
506.93	351.96
507.362	382.39
507.795	436.22
508.227	405.79
508.66	389.41
509.092	342.6
509.524	373.02
509.956	384.73
510.389	370.68
510.821	328.55
511.253	380.04
511.685	377.7
512.117	405.79
512.549	426.86
512.981	354.3
513.412	389.41
513.844	398.77
514.276	408.13
514.707	380.04
515.139	363.66
515.571	375.36
516.002	375.36
516.433	380.04
516.865	342.6
517.296	330.89
517.727	396.43
518.159	401.11
518.59	361.32
519.021	356.64
519.452	347.28
519.883	370.68
520.314	443.24
520.744	375.36
521.175	340.26
521.606	373.02
522.037	380.04
522.467	403.45
522.898	415.15
523.328	436.22
523.759	373.02
524.189	436.22
524.62	391.75
525.05	281.74
525.48	431.54
525.91	344.94
526.341	412.81
526.771	419.83
527.201	415.15
527.631	438.56
528.061	349.62
528.49	363.66
528.92	405.79
529.35	426.86
529.78	419.83
530.209	426.86
530.639	405.79
531.068	356.64
531.498	394.09
531.927	373.02
532.357	375.36
532.786	408.13
533.215	330.89
533.644	396.43
534.074	419.83
534.503	358.98
534.932	422.17
535.361	389.41
535.79	305.15
536.218	377.7
536.647	403.45
537.076	396.43
537.505	366
537.933	384.73
538.362	497.07
538.79	471.33
539.219	473.67
539.647	461.96
540.076	452.6
540.504	490.05
540.932	562.61
541.36	628.14
541.788	614.1
542.217	684.31
542.645	712.4
543.073	663.25
543.5	672.61
543.928	717.08
544.356	700.7
544.784	672.61
545.211	649.21
545.639	681.97
546.067	609.42
546.494	602.4
546.922	588.35
547.349	539.2
547.776	447.92
548.204	513.46
548.631	478.35
549.058	410.47
549.485	511.11
549.912	424.51
550.339	438.56
550.766	447.92
551.193	499.41
551.62	398.77
552.047	473.67
552.474	476.01
552.9	433.88
553.327	412.81
553.754	351.96
554.18	408.13
554.607	443.24
555.033	398.77
555.459	396.43
555.886	417.49
556.312	398.77
556.738	412.81
557.164	422.17
557.59	351.96
558.016	422.17
558.442	370.68
558.868	401.11
559.294	438.56
559.72	361.32
560.145	419.83
560.571	417.49
560.997	457.28
561.422	429.2
561.848	431.54
562.273	340.26
562.699	356.64
563.124	429.2
563.549	377.7
563.974	429.2
564.4	426.86
564.825	396.43
565.25	443.24
565.675	417.49
566.1	401.11
566.525	412.81
566.95	389.41
567.374	351.96
567.799	337.91
568.224	354.3
568.648	452.6
569.073	370.68
569.497	380.04
569.922	391.75
570.346	419.83
570.771	445.58
571.195	403.45
571.619	440.9
572.043	387.07
572.467	387.07
572.891	370.68
573.315	358.98
573.739	382.39
574.163	351.96
574.587	422.17
575.011	398.77
575.435	337.91
575.858	438.56
576.282	389.41
576.705	410.47
577.129	408.13
577.552	438.56
577.976	405.79
578.399	356.64
578.822	391.75
579.245	366
579.669	410.47
580.092	361.32
580.515	443.24
580.938	452.6
581.361	415.15
581.784	494.73
582.206	412.81
582.629	389.41
583.052	356.64
583.474	426.86
583.897	354.3
584.32	382.39
584.742	422.17
585.165	424.51
585.587	426.86
586.009	387.07
586.431	494.73
586.854	438.56
587.276	497.07
587.698	412.81
588.12	483.03
588.542	419.83
588.964	415.15
589.386	419.83
589.807	382.39
590.229	337.91
590.651	415.15
591.073	440.9
591.494	391.75
591.916	358.98
592.337	443.24
592.759	412.81
593.18	410.47
593.601	368.34
594.022	431.54
594.444	384.73
594.865	391.75
595.286	401.11
595.707	394.09
596.128	391.75
596.549	382.39
596.97	368.34
597.39	401.11
597.811	358.98
598.232	401.11
598.652	391.75
599.073	426.86
599.494	373.02
599.914	347.28
600.334	349.62
600.755	368.34
601.175	370.68
601.595	344.94
602.015	377.7
602.436	422.17
602.856	520.48
603.276	389.41
603.696	358.98
604.115	431.54
604.535	368.34
604.955	370.68
605.375	380.04
605.794	417.49
606.214	429.2
606.634	351.96
607.053	459.62
607.473	412.81
607.892	342.6
608.311	358.98
608.731	483.03
609.15	452.6
609.569	574.31
609.988	684.31
610.407	684.31
610.826	787.3
611.245	773.25
611.664	693.68
612.083	644.53
612.501	658.57
612.92	625.8
613.339	553.24
613.757	461.96
614.176	461.96
614.594	497.07
615.013	480.69
615.431	457.28
615.85	380.04
616.268	394.09
616.686	405.79
617.104	398.77
617.522	354.3
617.94	403.45
618.358	433.88
618.776	426.86
619.194	450.26
619.612	401.11
620.03	457.28
620.447	459.62
620.865	426.86
621.282	433.88
621.7	405.79
622.117	433.88
622.535	377.7
622.952	361.32
623.369	394.09
623.787	333.23
624.204	408.13
624.621	440.9
625.038	347.28
625.455	429.2
625.872	375.36
626.289	314.51
626.706	368.34
627.123	354.3
627.539	368.34
627.956	373.02
628.373	389.41
628.789	403.45
629.206	429.2
629.622	380.04
630.038	354.3
630.455	347.28
630.871	363.66
631.287	387.07
631.703	426.86
632.12	405.79
632.536	429.2
632.952	293.44
633.368	380.04
633.783	370.68
634.199	356.64
634.615	316.85
635.031	333.23
635.446	384.73
635.862	347.28
636.277	433.88
636.693	340.26
637.108	328.55
637.524	316.85
637.939	373.02
638.354	295.79
638.77	277.06
639.185	358.98
639.6	349.62
640.015	382.39
640.43	281.74
640.845	244.29
641.259	309.83
641.674	394.09
642.089	293.44
642.504	312.17
642.918	316.85
643.333	354.3
643.747	335.57
644.162	305.15
644.576	351.96
644.991	293.44
645.405	349.62
645.819	307.49
646.233	295.79
646.647	337.91
647.061	337.91
647.475	337.91
647.889	326.21
648.303	356.64
648.717	340.26
649.131	335.57
649.545	419.83
649.958	373.02
650.372	265.36
650.785	314.51
651.199	401.11
651.612	316.85
652.026	377.7
652.439	356.64
652.852	300.47
653.266	270.04
653.679	344.94
654.092	281.74
654.505	330.89
654.918	344.94
655.331	340.26
655.744	326.21
656.156	330.89
656.569	291.1
656.982	321.53
657.394	305.15
657.807	288.76
658.22	342.6
658.632	312.17
659.044	347.28
659.457	234.93
659.869	279.4
660.281	389.41
660.693	328.55
661.106	349.62
661.518	302.81
661.93	265.36
662.342	384.73
662.754	302.81
663.165	361.32
663.577	328.55
663.989	361.32
664.401	344.94
664.812	300.47
665.224	394.09
665.635	335.57
666.047	309.83
666.458	284.08
666.869	330.89
667.281	349.62
667.692	377.7
668.103	358.98
668.514	356.64
668.925	366
669.336	337.91
669.747	333.23
670.158	291.1
670.569	302.81
670.979	335.57
671.39	335.57
671.801	305.15
672.211	321.53
672.622	277.06
673.032	358.98
673.443	373.02
673.853	323.87
674.263	337.91
674.674	342.6
675.084	305.15
675.494	326.21
675.904	337.91
676.314	298.13
676.724	305.15
677.134	286.42
677.544	316.85
677.953	307.49
678.363	326.21
678.773	366
679.182	314.51
679.592	373.02
680.001	326.21
680.411	396.43
680.82	293.44
681.23	328.55
681.639	373.02
682.048	265.36
682.457	337.91
682.866	323.87
683.275	270.04
683.684	354.3
684.093	323.87
684.502	358.98
684.911	300.47
685.32	373.02
685.728	298.13
686.137	375.36
686.546	305.15
686.954	326.21
687.363	288.76
687.771	321.53
688.179	382.39
688.588	314.51
688.996	340.26
689.404	265.36
689.812	412.81
690.22	274.72
690.628	319.19
691.036	305.15
691.444	351.96
691.852	326.21
692.26	337.91
692.667	368.34
693.075	305.15
693.483	337.91
693.89	330.89
694.298	354.3
694.705	291.1
695.112	305.15
695.52	260.68
695.927	342.6
696.334	246.63
696.741	330.89
697.148	286.42
697.555	298.13
697.962	305.15
698.369	309.83
698.776	253.66
699.183	239.61
699.59	335.57
699.996	300.47
700.403	274.72
700.81	321.53
701.216	337.91
701.623	330.89
702.029	316.85
702.435	342.6
702.842	351.96
703.248	307.49
703.654	323.87
704.06	256
704.466	398.77
704.872	291.1
705.278	377.7
705.684	319.19
706.09	305.15
706.496	337.91
706.901	321.53
707.307	347.28
707.712	293.44
708.118	342.6
708.523	321.53
708.929	314.51
709.334	358.98
709.74	347.28
710.145	333.23
710.55	314.51
710.955	319.19
711.36	319.19
711.765	302.81
712.17	323.87
712.575	361.32
712.98	939.43
713.385	344.94
713.789	300.47
714.194	314.51
714.599	375.36
715.003	309.83
715.408	354.3
715.812	354.3
716.217	366
716.621	363.66
717.025	284.08
717.429	354.3
717.833	284.08
718.238	387.07
718.642	307.49
719.046	351.96
719.449	330.89
719.853	258.34
720.257	272.38
720.661	330.89
721.065	328.55
721.468	309.83
721.872	314.51
722.275	260.68
722.679	281.74
723.082	312.17
723.485	358.98
723.889	333.23
724.292	298.13
724.695	330.89
725.098	361.32
725.501	277.06
725.904	309.83
726.307	312.17
726.71	263.02
727.113	333.23
727.516	323.87
727.918	302.81
728.321	361.32
728.724	279.4
729.126	328.55
729.529	351.96
729.931	319.19
730.333	295.79
730.736	321.53
731.138	368.34
731.54	295.79
731.942	377.7
732.344	319.19
732.746	347.28
733.148	300.47
733.55	267.7
733.952	323.87
734.354	298.13
734.756	326.21
735.157	284.08
735.559	253.66
735.96	281.74
736.362	312.17
736.763	335.57
737.165	361.32
737.566	260.68
737.967	288.76
738.368	323.87
738.77	321.53
739.171	319.19
739.572	312.17
739.973	251.32
740.374	277.06
740.774	398.77
741.175	298.13
741.576	328.55
741.977	288.76
742.377	366
742.778	272.38
743.178	340.26
743.579	260.68
743.979	293.44
744.379	284.08
744.78	284.08
745.18	295.79
745.58	265.36
745.98	356.64
746.38	347.28
746.78	323.87
747.18	333.23
747.58	281.74
747.98	340.26
748.38	312.17
748.779	319.19
749.179	272.38
749.578	340.26
749.978	314.51
750.377	356.64
750.777	307.49
751.176	368.34
751.575	305.15
751.975	309.83
752.374	284.08
752.773	260.68
753.172	277.06
753.571	356.64
753.97	274.72
754.369	305.15
754.768	298.13
755.166	347.28
755.565	330.89
755.964	225.57
756.362	342.6
756.761	321.53
757.159	293.44
757.558	351.96
757.956	335.57
758.354	351.96
758.753	309.83
759.151	314.51
759.549	347.28
759.947	284.08
760.345	375.36
760.743	377.7
761.141	333.23
761.539	316.85
761.936	272.38
762.334	279.4
762.732	319.19
763.129	295.79
763.527	349.62
763.924	354.3
764.322	321.53
764.719	302.81
765.117	300.47
765.514	333.23
765.911	241.95
766.308	277.06
