Data from Al_FLMS009871__181__12-01-01-874.txt Node

Date: Fri Mar 08 12:01:01 CST 2024
User: pe5414po
Spectrometer: FLMS00987
Trigger mode: 0
Integration Time (sec): 1.000000E-1
Scans to average: 1
Electric dark correction enabled: true
Nonlinearity correction enabled: false
Boxcar width: 0
XAxis mode: Wavelengths
Number of Pixels in Spectrum: 2048
>>>>>Begin Spectral Data<<<<<
188.938	-29.26
189.409	-29.26
189.879	-29.26
190.349	-118.2
190.819	-148.62
191.29	-78.41
191.76	-55
192.23	-97.13
192.7	-62.02
193.17	-40.96
193.64	-1.17
194.109	-31.6
194.579	-33.94
195.049	8.19
195.519	-19.89
195.988	5.85
196.458	17.55
196.927	69.05
197.397	150.96
197.866	85.43
198.336	83.09
198.805	80.75
199.274	101.81
199.744	174.37
200.213	150.96
200.682	165.01
201.151	186.07
201.62	249.27
202.089	162.67
202.558	221.18
203.027	260.97
203.495	193.09
203.964	200.12
204.433	242.25
204.902	307.78
205.37	225.86
205.839	312.46
206.307	289.06
206.776	291.4
207.244	314.8
207.712	267.99
208.181	307.78
208.649	239.9
209.117	296.08
209.585	251.61
210.053	303.1
210.521	211.82
210.989	321.82
211.457	284.38
211.925	314.8
212.393	242.25
212.861	321.82
213.328	265.65
213.796	223.52
214.264	232.88
214.731	338.21
215.199	237.56
215.666	237.56
216.133	193.09
216.601	207.14
217.068	235.22
217.535	214.16
218.003	256.29
218.47	251.61
218.937	253.95
219.404	188.41
219.871	188.41
220.338	289.06
220.805	244.59
221.271	239.9
221.738	225.86
222.205	235.22
222.671	202.46
223.138	291.4
223.605	307.78
224.071	272.67
224.538	202.46
225.004	237.56
225.47	249.27
225.937	258.63
226.403	230.54
226.869	218.84
227.335	200.12
227.801	237.56
228.267	246.93
228.733	204.8
229.199	279.69
229.665	275.01
230.131	167.35
230.597	260.97
231.062	253.95
231.528	239.9
231.994	223.52
232.459	207.14
232.925	207.14
233.39	263.31
233.856	195.43
234.321	211.82
234.786	258.63
235.252	221.18
235.717	277.35
236.182	197.78
236.647	279.69
237.112	214.16
237.577	214.16
238.042	307.78
238.507	253.95
238.972	202.46
239.436	296.08
239.901	235.22
240.366	263.31
240.83	235.22
241.295	256.29
241.76	293.74
242.224	263.31
242.688	272.67
243.153	211.82
243.617	195.43
244.081	289.06
244.545	221.18
245.01	239.9
245.474	228.2
245.938	272.67
246.402	230.54
246.866	237.56
247.33	284.38
247.793	260.97
248.257	272.67
248.721	204.8
249.185	293.74
249.648	275.01
250.112	253.95
250.575	221.18
251.039	286.72
251.502	228.2
251.965	246.93
252.429	253.95
252.892	265.65
253.355	260.97
253.818	335.87
254.281	289.06
254.744	263.31
255.207	275.01
255.67	230.54
256.133	221.18
256.596	291.4
257.059	263.31
257.522	284.38
257.984	312.46
258.447	256.29
258.909	277.35
259.372	249.27
259.834	256.29
260.297	345.23
260.759	270.33
261.221	242.25
261.684	246.93
262.146	232.88
262.608	249.27
263.07	282.03
263.532	277.35
263.994	270.33
264.456	277.35
264.918	298.42
265.38	314.8
265.842	228.2
266.303	239.9
266.765	321.82
267.227	249.27
267.688	251.61
268.15	218.84
268.611	275.01
269.072	326.5
269.534	279.69
269.995	207.14
270.456	218.84
270.918	303.1
271.379	258.63
271.84	239.9
272.301	272.67
272.762	237.56
273.223	246.93
273.684	303.1
274.144	275.01
274.605	230.54
275.066	284.38
275.527	228.2
275.987	260.97
276.448	200.12
276.908	289.06
277.369	270.33
277.829	275.01
278.289	263.31
278.75	298.42
279.21	272.67
279.67	296.08
280.13	293.74
280.59	324.16
281.05	239.9
281.51	324.16
281.97	260.97
282.43	293.74
282.89	289.06
283.35	298.42
283.809	237.56
284.269	338.21
284.729	345.23
285.188	319.48
285.648	300.76
286.107	246.93
286.567	272.67
287.026	286.72
287.485	310.12
287.944	282.03
288.404	232.88
288.863	244.59
289.322	209.48
289.781	258.63
290.24	239.9
290.699	305.44
291.158	291.4
291.616	335.87
292.075	256.29
292.534	270.33
292.992	312.46
293.451	282.03
293.91	263.31
294.368	251.61
294.827	272.67
295.285	275.01
295.743	225.86
296.202	286.72
296.66	225.86
297.118	267.99
297.576	218.84
298.034	263.31
298.492	275.01
298.95	216.5
299.408	312.46
299.866	275.01
300.324	258.63
300.781	317.14
301.239	277.35
301.697	284.38
302.154	270.33
302.612	289.06
303.069	221.18
303.527	368.63
303.984	270.33
304.441	314.8
304.899	207.14
305.356	265.65
305.813	307.78
306.27	258.63
306.727	340.55
307.184	296.08
307.641	251.61
308.098	291.4
308.555	279.69
309.012	312.46
309.468	349.91
309.925	347.57
310.382	305.44
310.838	324.16
311.295	242.25
311.751	279.69
312.208	225.86
312.664	237.56
313.12	279.69
313.577	286.72
314.033	328.85
314.489	310.12
314.945	228.2
315.401	230.54
315.857	284.38
316.313	305.44
316.769	291.4
317.225	284.38
317.681	293.74
318.136	265.65
318.592	246.93
319.048	305.44
319.503	275.01
319.959	289.06
320.414	345.23
320.869	270.33
321.325	307.78
321.78	246.93
322.235	267.99
322.691	352.25
323.146	328.85
323.601	258.63
324.056	228.2
324.511	223.52
324.966	214.16
325.421	221.18
325.875	284.38
326.33	298.42
326.785	239.9
327.24	319.48
327.694	204.8
328.149	256.29
328.603	300.76
329.058	232.88
329.512	282.03
329.966	267.99
330.421	293.74
330.875	296.08
331.329	300.76
331.783	305.44
332.237	340.55
332.691	359.27
333.145	349.91
333.599	291.4
334.053	317.14
334.507	307.78
334.96	265.65
335.414	270.33
335.868	314.8
336.321	272.67
336.775	244.59
337.228	237.56
337.682	235.22
338.135	251.61
338.588	328.85
339.042	328.85
339.495	321.82
339.948	277.35
340.401	277.35
340.854	305.44
341.307	296.08
341.76	317.14
342.213	279.69
342.666	275.01
343.119	307.78
343.571	275.01
344.024	277.35
344.477	277.35
344.929	256.29
345.382	291.4
345.834	293.74
346.287	331.19
346.739	279.69
347.191	270.33
347.644	310.12
348.096	270.33
348.548	246.93
349	235.22
349.452	277.35
349.904	342.89
350.356	370.97
350.808	317.14
351.26	272.67
351.711	284.38
352.163	265.65
352.615	307.78
353.066	291.4
353.518	324.16
353.969	289.06
354.421	256.29
354.872	253.95
355.324	314.8
355.775	289.06
356.226	291.4
356.677	298.42
357.128	286.72
357.579	275.01
358.03	272.67
358.481	249.27
358.932	235.22
359.383	359.27
359.834	298.42
360.285	324.16
360.735	303.1
361.186	267.99
361.637	326.5
362.087	314.8
362.538	289.06
362.988	303.1
363.438	298.42
363.889	291.4
364.339	293.74
364.789	296.08
365.239	265.65
365.689	361.61
366.139	282.03
366.589	331.19
367.039	293.74
367.489	312.46
367.939	279.69
368.389	356.93
368.839	312.46
369.288	340.55
369.738	406.08
370.187	239.9
370.637	310.12
371.086	293.74
371.536	275.01
371.985	270.33
372.434	340.55
372.884	324.16
373.333	275.01
373.782	363.95
374.231	328.85
374.68	284.38
375.129	265.65
375.578	345.23
376.027	296.08
376.475	291.4
376.924	326.5
377.373	303.1
377.822	324.16
378.27	312.46
378.719	235.22
379.167	258.63
379.616	321.82
380.064	223.52
380.512	293.74
380.961	300.76
381.409	307.78
381.857	335.87
382.305	282.03
382.753	317.14
383.201	277.35
383.649	333.53
384.097	380.34
384.545	282.03
384.992	239.9
385.44	307.78
385.888	326.5
386.335	190.75
386.783	216.5
387.231	251.61
387.678	296.08
388.125	286.72
388.573	303.1
389.02	263.31
389.467	300.76
389.914	260.97
390.362	326.5
390.809	284.38
391.256	300.76
391.703	305.44
392.15	282.03
392.596	253.95
393.043	265.65
393.49	286.72
393.937	359.27
394.383	324.16
394.83	356.93
395.276	293.74
395.723	289.06
396.169	279.69
396.616	307.78
397.062	282.03
397.508	270.33
397.954	296.08
398.401	333.53
398.847	324.16
399.293	314.8
399.739	296.08
400.185	298.42
400.631	293.74
401.076	298.42
401.522	256.29
401.968	331.19
402.414	319.48
402.859	326.5
403.305	455.23
403.75	275.01
404.196	373.32
404.641	305.44
405.086	338.21
405.532	284.38
405.977	345.23
406.422	267.99
406.867	298.42
407.312	291.4
407.757	321.82
408.202	352.25
408.647	331.19
409.092	347.57
409.537	319.48
409.982	312.46
410.426	270.33
410.871	321.82
411.316	314.8
411.76	347.57
412.205	289.06
412.649	221.18
413.093	326.5
413.538	312.46
413.982	300.76
414.426	310.12
414.87	190.75
415.314	342.89
415.758	256.29
416.202	277.35
416.646	314.8
417.09	270.33
417.534	326.5
417.978	256.29
418.421	218.84
418.865	303.1
419.309	230.54
419.752	347.57
420.196	317.14
420.639	303.1
421.083	317.14
421.526	232.88
421.969	370.97
422.412	328.85
422.856	363.95
423.299	380.34
423.742	324.16
424.185	317.14
424.628	310.12
425.071	342.89
425.513	275.01
425.956	307.78
426.399	347.57
426.842	333.53
427.284	340.55
427.727	363.95
428.169	239.9
428.612	239.9
429.054	307.78
429.497	303.1
429.939	305.44
430.381	317.14
430.823	335.87
431.265	272.67
431.707	326.5
432.149	298.42
432.591	403.74
433.033	328.85
433.475	389.7
433.917	328.85
434.359	399.06
434.8	413.1
435.242	473.96
435.684	392.04
436.125	473.96
436.567	410.76
437.008	342.89
437.449	345.23
437.891	422.47
438.332	373.32
438.773	385.02
439.214	382.68
439.656	356.93
440.097	338.21
440.538	389.7
440.978	342.89
441.419	459.92
441.86	422.47
442.301	356.93
442.742	410.76
443.182	462.26
443.623	403.74
444.063	436.51
444.504	408.42
444.944	427.15
445.385	424.81
445.825	408.42
446.265	406.08
446.706	424.81
447.146	443.53
447.586	429.49
448.026	462.26
448.466	438.85
448.906	448.21
449.346	420.13
449.786	431.83
450.225	424.81
450.665	455.23
451.105	375.66
451.544	408.42
451.984	408.42
452.424	410.76
452.863	434.17
453.302	385.02
453.742	378
454.181	429.49
454.62	361.61
455.059	363.95
455.499	310.12
455.938	420.13
456.377	385.02
456.816	392.04
457.254	380.34
457.693	356.93
458.132	380.34
458.571	291.4
459.01	389.7
459.448	382.68
459.887	277.35
460.325	368.63
460.764	403.74
461.202	345.23
461.641	356.93
462.079	373.32
462.517	345.23
462.955	352.25
463.393	361.61
463.832	314.8
464.27	370.97
464.708	342.89
465.145	317.14
465.583	378
466.021	354.59
466.459	335.87
466.897	331.19
467.334	347.57
467.772	275.01
468.209	296.08
468.647	333.53
469.084	359.27
469.522	267.99
469.959	363.95
470.396	373.32
470.833	284.38
471.271	349.91
471.708	345.23
472.145	319.48
472.582	333.53
473.019	368.63
473.456	275.01
473.892	356.93
474.329	291.4
474.766	349.91
475.202	363.95
475.639	312.46
476.076	375.66
476.512	328.85
476.949	345.23
477.385	389.7
477.821	420.13
478.258	305.44
478.694	366.29
479.13	310.12
479.566	321.82
480.002	399.06
480.438	298.42
480.874	314.8
481.31	394.38
481.746	378
482.181	326.5
482.617	399.06
483.053	378
483.488	370.97
483.924	387.36
484.36	394.38
484.795	326.5
485.23	415.45
485.666	378
486.101	335.87
486.536	352.25
486.971	342.89
487.407	401.4
487.842	387.36
488.277	399.06
488.712	448.21
489.146	335.87
489.581	361.61
490.016	354.59
490.451	392.04
490.885	333.53
491.32	427.15
491.755	349.91
492.189	436.51
492.624	385.02
493.058	349.91
493.492	335.87
493.927	340.55
494.361	340.55
494.795	375.66
495.229	321.82
495.663	300.76
496.097	373.32
496.531	410.76
496.965	338.21
497.399	354.59
497.833	328.85
498.266	375.66
498.7	408.42
499.134	347.57
499.567	385.02
500.001	403.74
500.434	338.21
500.868	396.72
501.301	399.06
501.734	366.29
502.168	286.72
502.601	356.93
503.034	293.74
503.467	284.38
503.9	347.57
504.333	363.95
504.766	394.38
505.199	368.63
505.632	335.87
506.064	370.97
506.497	375.66
506.93	366.29
507.362	392.04
507.795	347.57
508.227	349.91
508.66	366.29
509.092	403.74
509.524	352.25
509.956	366.29
510.389	359.27
510.821	370.97
511.253	291.4
511.685	392.04
512.117	361.61
512.549	387.36
512.981	335.87
513.412	338.21
513.844	277.35
514.276	378
514.707	387.36
515.139	385.02
515.571	408.42
516.002	396.72
516.433	354.59
516.865	359.27
517.296	403.74
517.727	378
518.159	457.57
518.59	385.02
519.021	260.97
519.452	347.57
519.883	349.91
520.314	356.93
520.744	328.85
521.175	361.61
521.606	347.57
522.037	415.45
522.467	366.29
522.898	380.34
523.328	392.04
523.759	370.97
524.189	415.45
524.62	389.7
525.05	335.87
525.48	403.74
525.91	363.95
526.341	392.04
526.771	359.27
527.201	305.44
527.631	389.7
528.061	385.02
528.49	389.7
528.92	382.68
529.35	321.82
529.78	326.5
530.209	385.02
530.639	326.5
531.068	319.48
531.498	406.08
531.927	380.34
532.357	352.25
532.786	370.97
533.215	389.7
533.644	438.85
534.074	359.27
534.503	349.91
534.932	312.46
535.361	349.91
535.79	375.66
536.218	387.36
536.647	349.91
537.076	378
537.505	434.17
537.933	347.57
538.362	340.55
538.79	387.36
539.219	424.81
539.647	448.21
540.076	473.96
540.504	476.3
540.932	499.7
541.36	518.43
541.788	605.03
542.217	635.46
542.645	675.24
543.073	677.59
543.5	626.09
543.928	616.73
544.356	708.01
544.784	637.8
545.211	724.4
545.639	581.62
546.067	590.99
546.494	555.88
546.922	562.9
547.349	537.15
547.776	459.92
548.204	506.73
548.631	499.7
549.058	399.06
549.485	448.21
549.912	370.97
550.339	417.79
550.766	495.02
551.193	490.34
551.62	408.42
552.047	452.89
552.474	429.49
552.9	403.74
553.327	354.59
553.754	373.32
554.18	401.4
554.607	333.53
555.033	342.89
555.459	450.55
555.886	347.57
556.312	469.28
556.738	415.45
557.164	387.36
557.59	356.93
558.016	403.74
558.442	408.42
558.868	429.49
559.294	354.59
559.72	347.57
560.145	394.38
560.571	335.87
560.997	375.66
561.422	352.25
561.848	389.7
562.273	445.87
562.699	370.97
563.124	356.93
563.549	373.32
563.974	406.08
564.4	340.55
564.825	354.59
565.25	342.89
565.675	380.34
566.1	387.36
566.525	349.91
566.95	347.57
567.374	359.27
567.799	373.32
568.224	335.87
568.648	354.59
569.073	399.06
569.497	392.04
569.922	300.76
570.346	356.93
570.771	370.97
571.195	378
571.619	314.8
572.043	394.38
572.467	342.89
572.891	331.19
573.315	270.33
573.739	378
574.163	394.38
574.587	373.32
575.011	410.76
575.435	408.42
575.858	317.14
576.282	399.06
576.705	347.57
577.129	417.79
577.552	345.23
577.976	342.89
578.399	349.91
578.822	450.55
579.245	438.85
579.669	408.42
580.092	349.91
580.515	424.81
580.938	408.42
581.361	436.51
581.784	363.95
582.206	410.76
582.629	373.32
583.052	485.66
583.474	443.53
583.897	431.83
584.32	455.23
584.742	427.15
585.165	459.92
585.587	415.45
586.009	427.15
586.431	406.08
586.854	443.53
587.276	399.06
587.698	420.13
588.12	457.57
588.542	462.26
588.964	420.13
589.386	368.63
589.807	342.89
590.229	356.93
590.651	373.32
591.073	333.53
591.494	387.36
591.916	406.08
592.337	394.38
592.759	389.7
593.18	373.32
593.601	321.82
594.022	354.59
594.444	347.57
594.865	373.32
595.286	319.48
595.707	396.72
596.128	375.66
596.549	413.1
596.97	380.34
597.39	389.7
597.811	345.23
598.232	366.29
598.652	408.42
599.073	392.04
599.494	373.32
599.914	342.89
600.334	347.57
600.755	415.45
601.175	333.53
601.595	370.97
602.015	363.95
602.436	342.89
602.856	406.08
603.276	359.27
603.696	373.32
604.115	324.16
604.535	317.14
604.955	359.27
605.375	335.87
605.794	375.66
606.214	354.59
606.634	342.89
607.053	363.95
607.473	352.25
607.892	385.02
608.311	385.02
608.731	382.68
609.15	394.38
609.569	551.2
609.988	670.56
610.407	703.33
610.826	764.18
611.245	736.1
611.664	740.78
612.083	588.64
612.501	651.84
612.92	649.5
613.339	476.3
613.757	464.6
614.176	473.96
614.594	452.89
615.013	476.3
615.431	408.42
615.85	406.08
616.268	429.49
616.686	340.55
617.104	305.44
617.522	382.68
617.94	396.72
618.358	366.29
618.776	373.32
619.194	368.63
619.612	338.21
620.03	406.08
620.447	347.57
620.865	366.29
621.282	387.36
621.7	385.02
622.117	387.36
622.535	366.29
622.952	347.57
623.369	382.68
623.787	342.89
624.204	368.63
624.621	310.12
625.038	356.93
625.455	338.21
625.872	335.87
626.289	289.06
626.706	375.66
627.123	347.57
627.539	389.7
627.956	300.76
628.373	291.4
628.789	319.48
629.206	361.61
629.622	284.38
630.038	338.21
630.455	347.57
630.871	403.74
631.287	312.46
631.703	349.91
632.12	347.57
632.536	361.61
632.952	267.99
633.368	321.82
633.783	317.14
634.199	370.97
634.615	340.55
635.031	335.87
635.446	354.59
635.862	375.66
636.277	317.14
636.693	340.55
637.108	300.76
637.524	291.4
637.939	324.16
638.354	324.16
638.77	378
639.185	319.48
639.6	324.16
640.015	359.27
640.43	321.82
640.845	321.82
641.259	328.85
641.674	335.87
642.089	214.16
642.504	265.65
642.918	293.74
643.333	310.12
643.747	263.31
644.162	385.02
644.576	359.27
644.991	246.93
645.405	328.85
645.819	267.99
646.233	272.67
646.647	289.06
647.061	335.87
647.475	324.16
647.889	312.46
648.303	277.35
648.717	356.93
649.131	282.03
649.545	340.55
649.958	298.42
650.372	331.19
650.785	305.44
651.199	314.8
651.612	284.38
652.026	305.44
652.439	354.59
652.852	246.93
653.266	284.38
653.679	303.1
654.092	396.72
654.505	263.31
654.918	317.14
655.331	312.46
655.744	317.14
656.156	312.46
656.569	249.27
656.982	361.61
657.394	284.38
657.807	296.08
658.22	312.46
658.632	317.14
659.044	317.14
659.457	265.65
659.869	326.5
660.281	293.74
660.693	328.85
661.106	272.67
661.518	321.82
661.93	385.02
662.342	242.25
662.754	361.61
663.165	347.57
663.577	312.46
663.989	361.61
664.401	356.93
664.812	317.14
665.224	277.35
665.635	260.97
666.047	359.27
666.458	319.48
666.869	310.12
667.281	345.23
667.692	277.35
668.103	228.2
668.514	272.67
668.925	291.4
669.336	230.54
669.747	331.19
670.158	270.33
670.569	338.21
670.979	300.76
671.39	279.69
671.801	326.5
672.211	263.31
672.622	267.99
673.032	356.93
673.443	300.76
673.853	277.35
674.263	356.93
674.674	317.14
675.084	239.9
675.494	230.54
675.904	289.06
676.314	352.25
676.724	277.35
677.134	321.82
677.544	326.5
677.953	352.25
678.363	326.5
678.773	368.63
679.182	270.33
679.592	286.72
680.001	321.82
680.411	253.95
680.82	289.06
681.23	282.03
681.639	321.82
682.048	251.61
682.457	282.03
682.866	291.4
683.275	291.4
683.684	326.5
684.093	291.4
684.502	296.08
684.911	347.57
685.32	263.31
685.728	282.03
686.137	324.16
686.546	331.19
686.954	272.67
687.363	286.72
687.771	342.89
688.179	284.38
688.588	237.56
688.996	235.22
689.404	307.78
689.812	237.56
690.22	265.65
690.628	256.29
691.036	291.4
691.444	300.76
691.852	303.1
692.26	298.42
692.667	354.59
693.075	310.12
693.483	249.27
693.89	260.97
694.298	319.48
694.705	333.53
695.112	361.61
695.52	284.38
695.927	282.03
696.334	328.85
696.741	317.14
697.148	237.56
697.555	317.14
697.962	324.16
698.369	296.08
698.776	328.85
699.183	303.1
699.59	211.82
699.996	303.1
700.403	284.38
700.81	225.86
701.216	317.14
701.623	326.5
702.029	321.82
702.435	303.1
702.842	272.67
703.248	282.03
703.654	263.31
704.06	237.56
704.466	303.1
704.872	277.35
705.278	277.35
705.684	296.08
706.09	312.46
706.496	270.33
706.901	284.38
707.307	307.78
707.712	298.42
708.118	242.25
708.523	319.48
708.929	293.74
709.334	310.12
709.74	333.53
710.145	286.72
710.55	221.18
710.955	340.55
711.36	267.99
711.765	307.78
712.17	312.46
712.575	256.29
712.98	930.36
713.385	331.19
713.789	305.44
714.194	326.5
714.599	307.78
715.003	326.5
715.408	331.19
715.812	279.69
716.217	258.63
716.621	310.12
717.025	342.89
717.429	298.42
717.833	333.53
718.238	279.69
718.642	286.72
719.046	298.42
719.449	342.89
719.853	260.97
720.257	253.95
720.661	303.1
721.065	263.31
721.468	307.78
721.872	361.61
722.275	319.48
722.679	307.78
723.082	249.27
723.485	333.53
723.889	303.1
724.292	296.08
724.695	310.12
725.098	275.01
725.501	331.19
725.904	275.01
726.307	293.74
726.71	202.46
727.113	275.01
727.516	237.56
727.918	321.82
728.321	331.19
728.724	303.1
729.126	354.59
729.529	335.87
729.931	345.23
730.333	270.33
730.736	326.5
731.138	319.48
731.54	328.85
731.942	235.22
732.344	249.27
732.746	296.08
733.148	328.85
733.55	314.8
733.952	338.21
734.354	270.33
734.756	284.38
735.157	338.21
735.559	345.23
735.96	310.12
736.362	310.12
736.763	317.14
737.165	253.95
737.566	197.78
737.967	324.16
738.368	305.44
738.77	249.27
739.171	310.12
739.572	310.12
739.973	260.97
740.374	279.69
740.774	317.14
741.175	324.16
741.576	296.08
741.977	263.31
742.377	338.21
742.778	305.44
743.178	317.14
743.579	279.69
743.979	328.85
744.379	272.67
744.78	312.46
745.18	300.76
745.58	263.31
745.98	207.14
746.38	282.03
746.78	256.29
747.18	286.72
747.58	296.08
747.98	230.54
748.38	267.99
748.779	284.38
749.179	307.78
749.578	289.06
749.978	303.1
750.377	275.01
750.777	326.5
751.176	277.35
751.575	291.4
751.975	298.42
752.374	270.33
752.773	333.53
753.172	307.78
753.571	221.18
753.97	291.4
754.369	319.48
754.768	312.46
755.166	235.22
755.565	340.55
755.964	314.8
756.362	324.16
756.761	242.25
757.159	300.76
757.558	345.23
757.956	293.74
758.354	265.65
758.753	310.12
759.151	258.63
759.549	282.03
759.947	289.06
760.345	331.19
760.743	235.22
761.141	275.01
761.539	296.08
761.936	282.03
762.334	275.01
762.732	249.27
763.129	270.33
763.527	204.8
763.924	291.4
764.322	284.38
764.719	289.06
765.117	342.89
765.514	296.08
765.911	296.08
766.308	256.29
