Data from Al_FLMS009871__1032__16-23-59-116.txt Node

Date: Fri Mar 08 16:23:59 CST 2024
User: pe5414po
Spectrometer: FLMS00987
Trigger mode: 0
Integration Time (sec): 1.000000E-1
Scans to average: 1
Electric dark correction enabled: true
Nonlinearity correction enabled: false
Boxcar width: 0
XAxis mode: Wavelengths
Number of Pixels in Spectrum: 2048
>>>>>Begin Spectral Data<<<<<
188.938	-86.6
189.409	-86.6
189.879	-86.6
190.349	-60.85
190.819	-95.96
191.29	-23.41
191.76	-44.47
192.23	-9.36
192.7	-72.56
193.17	-23.41
193.64	-35.11
194.109	-35.11
194.579	-51.49
195.049	-72.56
195.519	25.75
195.988	44.47
196.458	7.02
196.927	49.15
197.397	124.05
197.866	37.45
198.336	79.58
198.805	168.52
199.274	152.13
199.744	161.5
200.213	163.84
200.682	170.86
201.151	266.82
201.62	189.58
202.089	269.16
202.558	241.08
203.027	212.99
203.495	306.61
203.964	292.57
204.433	271.5
204.902	280.86
205.37	299.59
205.839	276.18
206.307	330.02
206.776	360.44
207.244	322.99
207.712	304.27
208.181	259.8
208.649	334.7
209.117	311.29
209.585	283.2
210.053	353.42
210.521	276.18
210.989	271.5
211.457	297.25
211.925	259.8
212.393	266.82
212.861	320.65
213.328	257.46
213.796	224.69
214.264	266.82
214.731	390.87
215.199	269.16
215.666	264.48
216.133	294.91
216.601	283.2
217.068	294.91
217.535	271.5
218.003	306.61
218.47	273.84
218.937	273.84
219.404	259.8
219.871	276.18
220.338	243.42
220.805	297.25
221.271	255.12
221.738	299.59
222.205	283.2
222.671	201.29
223.138	210.65
223.605	292.57
224.071	285.55
224.538	269.16
225.004	245.76
225.47	278.52
225.937	250.44
226.403	245.76
226.869	313.63
227.335	212.99
227.801	257.46
228.267	313.63
228.733	334.7
229.199	180.22
229.665	299.59
230.131	325.33
230.597	339.38
231.062	215.33
231.528	325.33
231.994	290.23
232.459	294.91
232.925	325.33
233.39	276.18
233.856	308.95
234.321	327.67
234.786	348.74
235.252	290.23
235.717	283.2
236.182	252.78
236.647	318.31
237.112	283.2
237.577	327.67
238.042	287.89
238.507	262.14
238.972	280.86
239.436	297.25
239.901	266.82
240.366	271.5
240.83	327.67
241.295	318.31
241.76	280.86
242.224	283.2
242.688	266.82
243.153	234.05
243.617	294.91
244.081	285.55
244.545	353.42
245.01	297.25
245.474	262.14
245.938	227.03
246.402	301.93
246.866	252.78
247.33	318.31
247.793	337.04
248.257	278.52
248.721	292.57
249.185	290.23
249.648	308.95
250.112	220.01
250.575	318.31
251.039	250.44
251.502	276.18
251.965	262.14
252.429	330.02
252.892	266.82
253.355	290.23
253.818	315.97
254.281	374.49
254.744	269.16
255.207	283.2
255.67	322.99
256.133	313.63
256.596	276.18
257.059	299.59
257.522	273.84
257.984	311.29
258.447	344.06
258.909	292.57
259.372	271.5
259.834	315.97
260.297	334.7
260.759	299.59
261.221	362.78
261.684	290.23
262.146	346.4
262.608	266.82
263.07	337.04
263.532	252.78
263.994	210.65
264.456	276.18
264.918	250.44
265.38	351.08
265.842	304.27
266.303	236.39
266.765	259.8
267.227	266.82
267.688	287.89
268.15	222.35
268.611	287.89
269.072	262.14
269.534	217.67
269.995	252.78
270.456	341.72
270.918	318.31
271.379	215.33
271.84	222.35
272.301	327.67
272.762	301.93
273.223	224.69
273.684	271.5
274.144	243.42
274.605	294.91
275.066	259.8
275.527	337.04
275.987	327.67
276.448	257.46
276.908	292.57
277.369	262.14
277.829	191.92
278.289	346.4
278.75	301.93
279.21	325.33
279.67	369.8
280.13	306.61
280.59	285.55
281.05	264.48
281.51	299.59
281.97	330.02
282.43	308.95
282.89	264.48
283.35	297.25
283.809	262.14
284.269	283.2
284.729	294.91
285.188	278.52
285.648	280.86
286.107	360.44
286.567	273.84
287.026	320.65
287.485	318.31
287.944	234.05
288.404	320.65
288.863	320.65
289.322	292.57
289.781	351.08
290.24	304.27
290.699	358.1
291.158	381.51
291.616	334.7
292.075	353.42
292.534	264.48
292.992	301.93
293.451	313.63
293.91	299.59
294.368	290.23
294.827	348.74
295.285	325.33
295.743	311.29
296.202	308.95
296.66	313.63
297.118	273.84
297.576	322.99
298.034	311.29
298.492	262.14
298.95	311.29
299.408	273.84
299.866	287.89
300.324	315.97
300.781	365.12
301.239	320.65
301.697	320.65
302.154	294.91
302.612	341.72
303.069	379.17
303.527	330.02
303.984	358.1
304.441	330.02
304.899	315.97
305.356	269.16
305.813	283.2
306.27	217.67
306.727	301.93
307.184	308.95
307.641	322.99
308.098	287.89
308.555	311.29
309.012	315.97
309.468	290.23
309.925	334.7
310.382	276.18
310.838	301.93
311.295	351.08
311.751	341.72
312.208	276.18
312.664	306.61
313.12	400.23
313.577	325.33
314.033	250.44
314.489	287.89
314.945	341.72
315.401	369.8
315.857	327.67
316.313	322.99
316.769	369.8
317.225	320.65
317.681	315.97
318.136	266.82
318.592	283.2
319.048	283.2
319.503	297.25
319.959	360.44
320.414	301.93
320.869	330.02
321.325	320.65
321.78	280.86
322.235	400.23
322.691	311.29
323.146	320.65
323.601	264.48
324.056	262.14
324.511	299.59
324.966	320.65
325.421	292.57
325.875	315.97
326.33	318.31
326.785	308.95
327.24	320.65
327.694	330.02
328.149	327.67
328.603	327.67
329.058	332.36
329.512	311.29
329.966	306.61
330.421	262.14
330.875	332.36
331.329	353.42
331.783	320.65
332.237	304.27
332.691	299.59
333.145	367.46
333.599	229.37
334.053	376.83
334.507	348.74
334.96	355.76
335.414	283.2
335.868	325.33
336.321	311.29
336.775	320.65
337.228	341.72
337.682	283.2
338.135	299.59
338.588	283.2
339.042	306.61
339.495	367.46
339.948	381.51
340.401	322.99
340.854	259.8
341.307	327.67
341.76	245.76
342.213	402.57
342.666	362.78
343.119	337.04
343.571	355.76
344.024	292.57
344.477	299.59
344.929	332.36
345.382	308.95
345.834	294.91
346.287	330.02
346.739	355.76
347.191	292.57
347.644	374.49
348.096	348.74
348.548	353.42
349	351.08
349.452	311.29
349.904	407.25
350.356	283.2
350.808	294.91
351.26	250.44
351.711	297.25
352.163	278.52
352.615	297.25
353.066	320.65
353.518	365.12
353.969	351.08
354.421	280.86
354.872	332.36
355.324	358.1
355.775	294.91
356.226	287.89
356.677	393.21
357.128	269.16
357.579	330.02
358.03	311.29
358.481	285.55
358.932	294.91
359.383	346.4
359.834	320.65
360.285	353.42
360.735	278.52
361.186	264.48
361.637	276.18
362.087	292.57
362.538	327.67
362.988	322.99
363.438	390.87
363.889	367.46
364.339	311.29
364.789	294.91
365.239	306.61
365.689	285.55
366.139	330.02
366.589	348.74
367.039	348.74
367.489	313.63
367.939	292.57
368.389	301.93
368.839	297.25
369.288	292.57
369.738	287.89
370.187	311.29
370.637	390.87
371.086	318.31
371.536	292.57
371.985	294.91
372.434	283.2
372.884	262.14
373.333	266.82
373.782	264.48
374.231	334.7
374.68	283.2
375.129	285.55
375.578	334.7
376.027	315.97
376.475	322.99
376.924	334.7
377.373	259.8
377.822	327.67
378.27	374.49
378.719	330.02
379.167	365.12
379.616	294.91
380.064	369.8
380.512	304.27
380.961	362.78
381.409	355.76
381.857	292.57
382.305	245.76
382.753	339.38
383.201	327.67
383.649	355.76
384.097	381.51
384.545	315.97
384.992	325.33
385.44	337.04
385.888	322.99
386.335	318.31
386.783	346.4
387.231	308.95
387.678	248.1
388.125	334.7
388.573	332.36
389.02	337.04
389.467	266.82
389.914	250.44
390.362	332.36
390.809	358.1
391.256	313.63
391.703	278.52
392.15	322.99
392.596	348.74
393.043	292.57
393.49	311.29
393.937	313.63
394.383	287.89
394.83	353.42
395.276	325.33
395.723	320.65
396.169	334.7
396.616	337.04
397.062	294.91
397.508	322.99
397.954	353.42
398.401	341.72
398.847	341.72
399.293	339.38
399.739	273.84
400.185	360.44
400.631	353.42
401.076	320.65
401.522	348.74
401.968	287.89
402.414	315.97
402.859	294.91
403.305	297.25
403.75	278.52
404.196	322.99
404.641	304.27
405.086	376.83
405.532	304.27
405.977	346.4
406.422	353.42
406.867	250.44
407.312	348.74
407.757	362.78
408.202	308.95
408.647	346.4
409.092	257.46
409.537	278.52
409.982	318.31
410.426	341.72
410.871	318.31
411.316	334.7
411.76	318.31
412.205	322.99
412.649	297.25
413.093	280.86
413.538	308.95
413.982	327.67
414.426	283.2
414.87	322.99
415.314	299.59
415.758	313.63
416.202	322.99
416.646	320.65
417.09	273.84
417.534	365.12
417.978	334.7
418.421	348.74
418.865	367.46
419.309	278.52
419.752	346.4
420.196	327.67
420.639	287.89
421.083	381.51
421.526	304.27
421.969	369.8
422.412	290.23
422.856	327.67
423.299	285.55
423.742	287.89
424.185	311.29
424.628	369.8
425.071	262.14
425.513	269.16
425.956	318.31
426.399	301.93
426.842	362.78
427.284	332.36
427.727	304.27
428.169	271.5
428.612	292.57
429.054	280.86
429.497	358.1
429.939	376.83
430.381	337.04
430.823	306.61
431.265	238.73
431.707	330.02
432.149	315.97
432.591	285.55
433.033	318.31
433.475	297.25
433.917	320.65
434.359	308.95
434.8	353.42
435.242	313.63
435.684	332.36
436.125	301.93
436.567	346.4
437.008	332.36
437.449	315.97
437.891	325.33
438.332	334.7
438.773	304.27
439.214	330.02
439.656	271.5
440.097	308.95
440.538	332.36
440.978	344.06
441.419	292.57
441.86	327.67
442.301	318.31
442.742	301.93
443.182	365.12
443.623	315.97
444.063	308.95
444.504	262.14
444.944	278.52
445.385	332.36
445.825	285.55
446.265	285.55
446.706	327.67
447.146	322.99
447.586	250.44
448.026	292.57
448.466	292.57
448.906	322.99
449.346	297.25
449.786	266.82
450.225	325.33
450.665	334.7
451.105	301.93
451.544	285.55
451.984	344.06
452.424	337.04
452.863	271.5
453.302	344.06
453.742	386.19
454.181	365.12
454.62	327.67
455.059	379.17
455.499	313.63
455.938	358.1
456.377	304.27
456.816	374.49
457.254	376.83
457.693	330.02
458.132	353.42
458.571	320.65
459.01	369.8
459.448	334.7
459.887	376.83
460.325	299.59
460.764	334.7
461.202	292.57
461.641	365.12
462.079	320.65
462.517	360.44
462.955	252.78
463.393	245.76
463.832	299.59
464.27	297.25
464.708	278.52
465.145	285.55
465.583	273.84
466.021	365.12
466.459	276.18
466.897	262.14
467.334	306.61
467.772	372.15
468.209	374.49
468.647	315.97
469.084	327.67
469.522	402.57
469.959	313.63
470.396	327.67
470.833	337.04
471.271	355.76
471.708	341.72
472.145	390.87
472.582	290.23
473.019	308.95
473.456	238.73
473.892	334.7
474.329	304.27
474.766	304.27
475.202	304.27
475.639	334.7
476.076	318.31
476.512	330.02
476.949	315.97
477.385	330.02
477.821	290.23
478.258	327.67
478.694	287.89
479.13	290.23
479.566	348.74
480.002	337.04
480.438	421.3
480.874	313.63
481.31	351.08
481.746	259.8
482.181	355.76
482.617	322.99
483.053	320.65
483.488	372.15
483.924	313.63
484.36	271.5
484.795	386.19
485.23	358.1
485.666	341.72
486.101	297.25
486.536	374.49
486.971	292.57
487.407	395.55
487.842	344.06
488.277	304.27
488.712	252.78
489.146	348.74
489.581	362.78
490.016	318.31
490.451	297.25
490.885	332.36
491.32	381.51
491.755	322.99
492.189	355.76
492.624	285.55
493.058	315.97
493.492	308.95
493.927	367.46
494.361	379.17
494.795	362.78
495.229	332.36
495.663	313.63
496.097	320.65
496.531	287.89
496.965	360.44
497.399	334.7
497.833	287.89
498.266	283.2
498.7	294.91
499.134	273.84
499.567	299.59
500.001	229.37
500.434	311.29
500.868	372.15
501.301	245.76
501.734	322.99
502.168	301.93
502.601	320.65
503.034	393.21
503.467	287.89
503.9	311.29
504.333	353.42
504.766	287.89
505.199	355.76
505.632	294.91
506.064	339.38
506.497	308.95
506.93	369.8
507.362	365.12
507.795	278.52
508.227	367.46
508.66	285.55
509.092	320.65
509.524	318.31
509.956	383.85
510.389	325.33
510.821	287.89
511.253	353.42
511.685	220.01
512.117	346.4
512.549	294.91
512.981	285.55
513.412	383.85
513.844	390.87
514.276	318.31
514.707	423.64
515.139	273.84
515.571	294.91
516.002	346.4
516.433	337.04
516.865	292.57
517.296	353.42
517.727	306.61
518.159	285.55
518.59	304.27
519.021	339.38
519.452	341.72
519.883	351.08
520.314	259.8
520.744	353.42
521.175	320.65
521.606	353.42
522.037	273.84
522.467	337.04
522.898	280.86
523.328	367.46
523.759	351.08
524.189	292.57
524.62	351.08
525.05	322.99
525.48	339.38
525.91	348.74
526.341	297.25
526.771	325.33
527.201	315.97
527.631	334.7
528.061	330.02
528.49	294.91
528.92	280.86
529.35	308.95
529.78	332.36
530.209	236.39
530.639	353.42
531.068	308.95
531.498	313.63
531.927	301.93
532.357	381.51
532.786	355.76
533.215	257.46
533.644	292.57
534.074	362.78
534.503	327.67
534.932	337.04
535.361	390.87
535.79	292.57
536.218	332.36
536.647	332.36
537.076	318.31
537.505	351.08
537.933	283.2
538.362	344.06
538.79	311.29
539.219	346.4
539.647	320.65
540.076	259.8
540.504	313.63
540.932	334.7
541.36	313.63
541.788	334.7
542.217	304.27
542.645	306.61
543.073	304.27
543.5	287.89
543.928	304.27
544.356	273.84
544.784	280.86
545.211	301.93
545.639	416.62
546.067	376.83
546.494	339.38
546.922	299.59
547.349	278.52
547.776	315.97
548.204	297.25
548.631	348.74
549.058	379.17
549.485	322.99
549.912	313.63
550.339	322.99
550.766	236.39
551.193	339.38
551.62	311.29
552.047	320.65
552.474	348.74
552.9	339.38
553.327	301.93
553.754	297.25
554.18	306.61
554.607	297.25
555.033	344.06
555.459	264.48
555.886	337.04
556.312	313.63
556.738	294.91
557.164	304.27
557.59	325.33
558.016	285.55
558.442	330.02
558.868	311.29
559.294	353.42
559.72	299.59
560.145	344.06
560.571	390.87
560.997	269.16
561.422	327.67
561.848	318.31
562.273	252.78
562.699	290.23
563.124	322.99
563.549	341.72
563.974	322.99
564.4	327.67
564.825	332.36
565.25	334.7
565.675	311.29
566.1	334.7
566.525	332.36
566.95	386.19
567.374	262.14
567.799	353.42
568.224	332.36
568.648	367.46
569.073	330.02
569.497	304.27
569.922	327.67
570.346	334.7
570.771	325.33
571.195	259.8
571.619	344.06
572.043	299.59
572.467	369.8
572.891	294.91
573.315	341.72
573.739	304.27
574.163	355.76
574.587	358.1
575.011	301.93
575.435	330.02
575.858	273.84
576.282	365.12
576.705	372.15
577.129	301.93
577.552	325.33
577.976	292.57
578.399	351.08
578.822	318.31
579.245	348.74
579.669	351.08
580.092	367.46
580.515	259.8
580.938	327.67
581.361	325.33
581.784	376.83
582.206	255.12
582.629	276.18
583.052	299.59
583.474	304.27
583.897	353.42
584.32	306.61
584.742	301.93
585.165	337.04
585.587	273.84
586.009	351.08
586.431	327.67
586.854	306.61
587.276	341.72
587.698	306.61
588.12	353.42
588.542	337.04
588.964	346.4
589.386	348.74
589.807	266.82
590.229	276.18
590.651	313.63
591.073	332.36
591.494	358.1
591.916	273.84
592.337	292.57
592.759	297.25
593.18	283.2
593.601	362.78
594.022	269.16
594.444	269.16
594.865	341.72
595.286	344.06
595.707	308.95
596.128	360.44
596.549	318.31
596.97	353.42
597.39	346.4
597.811	294.91
598.232	325.33
598.652	322.99
599.073	304.27
599.494	341.72
599.914	287.89
600.334	337.04
600.755	315.97
601.175	259.8
601.595	344.06
602.015	332.36
602.436	346.4
602.856	435.34
603.276	355.76
603.696	294.91
604.115	311.29
604.535	290.23
604.955	334.7
605.375	383.85
605.794	334.7
606.214	297.25
606.634	397.89
607.053	229.37
607.473	327.67
607.892	313.63
608.311	327.67
608.731	330.02
609.15	320.65
609.569	313.63
609.988	330.02
610.407	318.31
610.826	306.61
611.245	330.02
611.664	325.33
612.083	311.29
612.501	332.36
612.92	285.55
613.339	325.33
613.757	337.04
614.176	348.74
614.594	311.29
615.013	315.97
615.431	346.4
615.85	266.82
616.268	320.65
616.686	306.61
617.104	327.67
617.522	341.72
617.94	358.1
618.358	372.15
618.776	322.99
619.194	365.12
619.612	348.74
620.03	330.02
620.447	290.23
620.865	381.51
621.282	304.27
621.7	287.89
622.117	311.29
622.535	257.46
622.952	304.27
623.369	325.33
623.787	313.63
624.204	306.61
624.621	339.38
625.038	287.89
625.455	313.63
625.872	353.42
626.289	341.72
626.706	334.7
627.123	285.55
627.539	278.52
627.956	308.95
628.373	348.74
628.789	379.17
629.206	297.25
629.622	383.85
630.038	229.37
630.455	269.16
630.871	325.33
631.287	257.46
631.703	318.31
632.12	292.57
632.536	294.91
632.952	299.59
633.368	227.03
633.783	351.08
634.199	339.38
634.615	358.1
635.031	322.99
635.446	301.93
635.862	348.74
636.277	376.83
636.693	311.29
637.108	269.16
637.524	344.06
637.939	386.19
638.354	353.42
638.77	339.38
639.185	337.04
639.6	327.67
640.015	287.89
640.43	308.95
640.845	306.61
641.259	322.99
641.674	327.67
642.089	318.31
642.504	262.14
642.918	308.95
643.333	236.39
643.747	337.04
644.162	318.31
644.576	299.59
644.991	280.86
645.405	315.97
645.819	327.67
646.233	351.08
646.647	379.17
647.061	290.23
647.475	327.67
647.889	304.27
648.303	283.2
648.717	344.06
649.131	322.99
649.545	327.67
649.958	297.25
650.372	283.2
650.785	271.5
651.199	315.97
651.612	332.36
652.026	355.76
652.439	348.74
652.852	327.67
653.266	262.14
653.679	273.84
654.092	346.4
654.505	362.78
654.918	252.78
655.331	313.63
655.744	283.2
656.156	337.04
656.569	257.46
656.982	262.14
657.394	311.29
657.807	297.25
658.22	290.23
658.632	311.29
659.044	337.04
659.457	287.89
659.869	346.4
660.281	243.42
660.693	334.7
661.106	365.12
661.518	332.36
661.93	341.72
662.342	355.76
662.754	318.31
663.165	365.12
663.577	344.06
663.989	367.46
664.401	351.08
664.812	332.36
665.224	337.04
665.635	327.67
666.047	320.65
666.458	292.57
666.869	311.29
667.281	299.59
667.692	374.49
668.103	409.59
668.514	390.87
668.925	292.57
669.336	318.31
669.747	346.4
670.158	346.4
670.569	285.55
670.979	273.84
671.39	280.86
671.801	248.1
672.211	388.53
672.622	297.25
673.032	339.38
673.443	304.27
673.853	367.46
674.263	301.93
674.674	351.08
675.084	259.8
675.494	358.1
675.904	348.74
676.314	301.93
676.724	311.29
677.134	360.44
677.544	306.61
677.953	301.93
678.363	390.87
678.773	353.42
679.182	311.29
679.592	266.82
680.001	320.65
680.411	308.95
680.82	327.67
681.23	297.25
681.639	344.06
682.048	372.15
682.457	327.67
682.866	341.72
683.275	393.21
683.684	308.95
684.093	285.55
684.502	290.23
684.911	362.78
685.32	294.91
685.728	308.95
686.137	259.8
686.546	313.63
686.954	327.67
687.363	301.93
687.771	271.5
688.179	224.69
688.588	301.93
688.996	332.36
689.404	320.65
689.812	351.08
690.22	304.27
690.628	297.25
691.036	231.71
691.444	278.52
691.852	320.65
692.26	269.16
692.667	318.31
693.075	327.67
693.483	318.31
693.89	325.33
694.298	318.31
694.705	365.12
695.112	327.67
695.52	290.23
695.927	299.59
696.334	294.91
696.741	285.55
697.148	271.5
697.555	327.67
697.962	257.46
698.369	386.19
698.776	269.16
699.183	374.49
699.59	313.63
699.996	330.02
700.403	292.57
700.81	313.63
701.216	337.04
701.623	306.61
702.029	283.2
702.435	362.78
702.842	390.87
703.248	318.31
703.654	252.78
704.06	381.51
704.466	308.95
704.872	365.12
705.278	313.63
705.684	285.55
706.09	290.23
706.496	294.91
706.901	308.95
707.307	367.46
707.712	306.61
708.118	294.91
708.523	315.97
708.929	341.72
709.334	301.93
709.74	308.95
710.145	330.02
710.55	313.63
710.955	344.06
711.36	297.25
711.765	299.59
712.17	348.74
712.575	334.7
712.98	851.95
713.385	365.12
713.789	262.14
714.194	301.93
714.599	266.82
715.003	318.31
715.408	299.59
715.812	397.89
716.217	320.65
716.621	292.57
717.025	332.36
717.429	313.63
717.833	320.65
718.238	278.52
718.642	334.7
719.046	241.08
719.449	362.78
719.853	315.97
720.257	351.08
720.661	285.55
721.065	276.18
721.468	327.67
721.872	280.86
722.275	292.57
722.679	334.7
723.082	348.74
723.485	332.36
723.889	337.04
724.292	301.93
724.695	318.31
725.098	358.1
725.501	311.29
725.904	290.23
726.307	315.97
726.71	262.14
727.113	358.1
727.516	292.57
727.918	369.8
728.321	271.5
728.724	262.14
729.126	311.29
729.529	320.65
729.931	311.29
730.333	313.63
730.736	248.1
731.138	334.7
731.54	297.25
731.942	301.93
732.344	334.7
732.746	287.89
733.148	299.59
733.55	294.91
733.952	311.29
734.354	280.86
734.756	318.31
735.157	351.08
735.559	264.48
735.96	358.1
736.362	369.8
736.763	285.55
737.165	311.29
737.566	264.48
737.967	344.06
738.368	395.55
738.77	311.29
739.171	344.06
739.572	334.7
739.973	360.44
740.374	311.29
740.774	362.78
741.175	271.5
741.576	271.5
741.977	320.65
742.377	348.74
742.778	304.27
743.178	318.31
743.579	341.72
743.979	287.89
744.379	367.46
744.78	320.65
745.18	337.04
745.58	287.89
745.98	337.04
746.38	306.61
746.78	311.29
747.18	290.23
747.58	262.14
747.98	308.95
748.38	285.55
748.779	250.44
749.179	294.91
749.578	337.04
749.978	276.18
750.377	320.65
750.777	276.18
751.176	264.48
751.575	248.1
751.975	283.2
752.374	297.25
752.773	348.74
753.172	339.38
753.571	306.61
753.97	344.06
754.369	360.44
754.768	283.2
755.166	334.7
755.565	294.91
755.964	318.31
756.362	344.06
756.761	255.12
757.159	313.63
757.558	269.16
757.956	341.72
758.354	304.27
758.753	339.38
759.151	372.15
759.549	322.99
759.947	250.44
760.345	315.97
760.743	334.7
761.141	304.27
761.539	287.89
761.936	308.95
762.334	346.4
762.732	322.99
763.129	306.61
763.527	257.46
763.924	308.95
764.322	355.76
764.719	339.38
765.117	318.31
765.514	315.97
