Data from Al_FLMS009871__1036__16-23-59-515.txt Node

Date: Fri Mar 08 16:23:59 CST 2024
User: pe5414po
Spectrometer: FLMS00987
Trigger mode: 0
Integration Time (sec): 1.000000E-1
Scans to average: 1
Electric dark correction enabled: true
Nonlinearity correction enabled: false
Boxcar width: 0
XAxis mode: Wavelengths
Number of Pixels in Spectrum: 2048
>>>>>Begin Spectral Data<<<<<
188.938	-72.56
189.409	-72.56
189.879	-72.56
190.349	-142.77
190.819	-98.3
191.29	-140.43
191.76	-56.17
192.23	-32.77
192.7	-86.6
193.17	-91.28
193.64	-32.77
194.109	-18.72
194.579	-16.38
195.049	21.06
195.519	42.13
195.988	58.51
196.458	32.77
196.927	42.13
197.397	88.94
197.866	81.92
198.336	107.66
198.805	175.54
199.274	156.82
199.744	152.13
200.213	212.99
200.682	227.03
201.151	273.84
201.62	278.52
202.089	271.5
202.558	231.71
203.027	215.33
203.495	313.63
203.964	250.44
204.433	271.5
204.902	334.7
205.37	308.95
205.839	320.65
206.307	269.16
206.776	299.59
207.244	344.06
207.712	271.5
208.181	285.55
208.649	344.06
209.117	285.55
209.585	278.52
210.053	346.4
210.521	269.16
210.989	236.39
211.457	222.35
211.925	344.06
212.393	248.1
212.861	292.57
213.328	262.14
213.796	273.84
214.264	278.52
214.731	390.87
215.199	285.55
215.666	290.23
216.133	266.82
216.601	231.71
217.068	297.25
217.535	217.67
218.003	271.5
218.47	301.93
218.937	231.71
219.404	217.67
219.871	266.82
220.338	262.14
220.805	294.91
221.271	273.84
221.738	262.14
222.205	222.35
222.671	271.5
223.138	208.31
223.605	262.14
224.071	337.04
224.538	273.84
225.004	215.33
225.47	252.78
225.937	234.05
226.403	276.18
226.869	191.92
227.335	215.33
227.801	280.86
228.267	280.86
228.733	245.76
229.199	264.48
229.665	229.37
230.131	234.05
230.597	262.14
231.062	252.78
231.528	290.23
231.994	306.61
232.459	304.27
232.925	313.63
233.39	276.18
233.856	252.78
234.321	212.99
234.786	269.16
235.252	212.99
235.717	231.71
236.182	322.99
236.647	283.2
237.112	283.2
237.577	231.71
238.042	245.76
238.507	208.31
238.972	220.01
239.436	294.91
239.901	283.2
240.366	294.91
240.83	276.18
241.295	245.76
241.76	241.08
242.224	252.78
242.688	245.76
243.153	264.48
243.617	257.46
244.081	273.84
244.545	313.63
245.01	285.55
245.474	252.78
245.938	306.61
246.402	294.91
246.866	264.48
247.33	236.39
247.793	220.01
248.257	315.97
248.721	278.52
249.185	257.46
249.648	271.5
250.112	269.16
250.575	278.52
251.039	315.97
251.502	241.08
251.965	276.18
252.429	245.76
252.892	297.25
253.355	292.57
253.818	273.84
254.281	297.25
254.744	243.42
255.207	241.08
255.67	257.46
256.133	322.99
256.596	297.25
257.059	276.18
257.522	283.2
257.984	278.52
258.447	273.84
258.909	273.84
259.372	241.08
259.834	290.23
260.297	259.8
260.759	276.18
261.221	318.31
261.684	231.71
262.146	276.18
262.608	273.84
263.07	278.52
263.532	243.42
263.994	315.97
264.456	344.06
264.918	322.99
265.38	273.84
265.842	322.99
266.303	311.29
266.765	315.97
267.227	231.71
267.688	327.68
268.15	269.16
268.611	290.23
269.072	325.33
269.534	306.61
269.995	313.63
270.456	301.93
270.918	276.18
271.379	306.61
271.84	269.16
272.301	297.25
272.762	266.82
273.223	269.16
273.684	273.84
274.144	301.93
274.605	269.16
275.066	264.48
275.527	273.84
275.987	276.18
276.448	299.59
276.908	330.02
277.369	285.55
277.829	351.08
278.289	250.44
278.75	243.42
279.21	318.31
279.67	287.89
280.13	273.84
280.59	339.38
281.05	285.55
281.51	294.91
281.97	292.57
282.43	229.37
282.89	294.91
283.35	297.25
283.809	283.2
284.269	299.59
284.729	278.52
285.188	287.89
285.648	287.89
286.107	248.1
286.567	257.46
287.026	297.25
287.485	287.89
287.944	330.02
288.404	301.93
288.863	283.2
289.322	236.39
289.781	287.89
290.24	294.91
290.699	248.1
291.158	191.92
291.616	280.86
292.075	278.52
292.534	334.7
292.992	241.08
293.451	273.84
293.91	365.12
294.368	358.1
294.827	344.06
295.285	348.74
295.743	337.04
296.202	341.72
296.66	341.72
297.118	325.33
297.576	304.27
298.034	215.33
298.492	283.2
298.95	245.76
299.408	315.97
299.866	311.29
300.324	280.86
300.781	308.95
301.239	313.63
301.697	320.65
302.154	313.63
302.612	294.91
303.069	337.04
303.527	292.57
303.984	280.86
304.441	264.48
304.899	236.39
305.356	266.82
305.813	322.99
306.27	313.63
306.727	290.23
307.184	374.49
307.641	269.16
308.098	301.93
308.555	283.2
309.012	290.23
309.468	290.23
309.925	269.16
310.382	266.82
310.838	262.14
311.295	318.31
311.751	257.46
312.208	227.03
312.664	250.44
313.12	304.27
313.577	337.04
314.033	320.65
314.489	294.91
314.945	334.7
315.401	330.02
315.857	337.04
316.313	318.31
316.769	264.48
317.225	348.74
317.681	276.18
318.136	285.55
318.592	248.1
319.048	290.23
319.503	304.27
319.959	311.29
320.414	339.38
320.869	278.52
321.325	271.5
321.78	325.33
322.235	322.99
322.691	383.85
323.146	315.97
323.601	257.46
324.056	311.29
324.511	278.52
324.966	299.59
325.421	269.16
325.875	283.2
326.33	318.31
326.785	278.52
327.24	332.36
327.694	292.57
328.149	308.95
328.603	280.86
329.058	358.1
329.512	250.44
329.966	318.31
330.421	313.63
330.875	313.63
331.329	304.27
331.783	255.12
332.237	294.91
332.691	353.42
333.145	278.52
333.599	297.25
334.053	351.08
334.507	325.33
334.96	330.02
335.414	255.12
335.868	264.48
336.321	325.33
336.775	325.33
337.228	318.31
337.682	294.91
338.135	337.04
338.588	376.83
339.042	315.97
339.495	290.23
339.948	362.78
340.401	365.12
340.854	332.36
341.307	264.48
341.76	280.86
342.213	241.08
342.666	304.27
343.119	236.39
343.571	332.36
344.024	248.1
344.477	306.61
344.929	348.74
345.382	299.59
345.834	320.65
346.287	264.48
346.739	283.2
347.191	332.36
347.644	369.8
348.096	346.4
348.548	313.63
349	341.72
349.452	344.06
349.904	320.65
350.356	327.68
350.808	292.57
351.26	311.29
351.711	315.97
352.163	332.36
352.615	299.59
353.066	266.82
353.518	313.63
353.969	344.06
354.421	301.93
354.872	355.76
355.324	236.39
355.775	311.29
356.226	241.08
356.677	276.18
357.128	374.49
357.579	327.68
358.03	322.99
358.481	362.78
358.932	325.33
359.383	383.85
359.834	243.42
360.285	330.02
360.735	320.65
361.186	353.42
361.637	290.23
362.087	337.04
362.538	276.18
362.988	276.18
363.438	297.25
363.889	318.31
364.339	355.76
364.789	301.93
365.239	320.65
365.689	325.33
366.139	346.4
366.589	299.59
367.039	276.18
367.489	318.31
367.939	334.7
368.389	252.78
368.839	280.86
369.288	273.84
369.738	262.14
370.187	330.02
370.637	285.55
371.086	280.86
371.536	266.82
371.985	332.36
372.434	285.55
372.884	301.93
373.333	280.86
373.782	358.1
374.231	208.31
374.68	301.93
375.129	341.72
375.578	280.86
376.027	276.18
376.475	276.18
376.924	322.99
377.373	306.61
377.822	337.04
378.27	273.84
378.719	250.44
379.167	311.29
379.616	287.89
380.064	304.27
380.512	327.68
380.961	212.99
381.409	318.31
381.857	400.23
382.305	301.93
382.753	308.95
383.201	264.48
383.649	365.12
384.097	334.7
384.545	351.08
384.992	318.31
385.44	313.63
385.888	252.78
386.335	278.52
386.783	273.84
387.231	313.63
387.678	339.38
388.125	355.76
388.573	325.33
389.02	304.27
389.467	320.65
389.914	304.27
390.362	322.99
390.809	334.7
391.256	320.65
391.703	355.76
392.15	273.84
392.596	344.06
393.043	358.1
393.49	276.18
393.937	271.5
394.383	280.86
394.83	306.61
395.276	294.91
395.723	330.02
396.169	299.59
396.616	346.4
397.062	283.2
397.508	255.12
397.954	266.82
398.401	379.17
398.847	262.14
399.293	248.1
399.739	266.82
400.185	306.61
400.631	311.29
401.076	318.31
401.522	283.2
401.968	339.38
402.414	227.03
402.859	276.18
403.305	374.49
403.75	346.4
404.196	276.18
404.641	229.37
405.086	255.12
405.532	313.63
405.977	290.23
406.422	330.02
406.867	344.06
407.312	351.08
407.757	339.38
408.202	280.86
408.647	304.27
409.092	278.52
409.537	241.08
409.982	318.31
410.426	308.95
410.871	283.2
411.316	330.02
411.76	325.33
412.205	266.82
412.649	262.14
413.093	276.18
413.538	322.99
413.982	306.61
414.426	283.2
414.87	304.27
415.314	269.16
415.758	320.65
416.202	325.33
416.646	341.72
417.09	330.02
417.534	315.97
417.978	299.59
418.421	334.7
418.865	348.74
419.309	308.95
419.752	264.48
420.196	327.68
420.639	255.12
421.083	285.55
421.526	299.59
421.969	299.59
422.412	257.46
422.856	238.73
423.299	297.25
423.742	290.23
424.185	365.12
424.628	278.52
425.071	334.7
425.513	344.06
425.956	322.99
426.399	360.44
426.842	297.25
427.284	334.7
427.727	273.84
428.169	311.29
428.612	301.93
429.054	372.15
429.497	358.1
429.939	294.91
430.381	332.36
430.823	299.59
431.265	287.89
431.707	285.55
432.149	306.61
432.591	301.93
433.033	299.59
433.475	348.74
433.917	255.12
434.359	334.7
434.8	290.23
435.242	308.95
435.684	313.63
436.125	276.18
436.567	334.7
437.008	332.36
437.449	280.86
437.891	311.29
438.332	283.2
438.773	348.74
439.214	334.7
439.656	308.95
440.097	313.63
440.538	285.55
440.978	332.36
441.419	315.97
441.86	280.86
442.301	330.02
442.742	330.02
443.182	358.1
443.623	334.7
444.063	290.23
444.504	285.55
444.944	248.1
445.385	285.55
445.825	301.93
446.265	299.59
446.706	278.52
447.146	301.93
447.586	320.65
448.026	290.23
448.466	266.82
448.906	367.46
449.346	229.37
449.786	308.95
450.225	294.91
450.665	311.29
451.105	351.08
451.544	301.93
451.984	318.31
452.424	311.29
452.863	313.63
453.302	311.29
453.742	322.99
454.181	290.23
454.62	276.18
455.059	264.48
455.499	327.68
455.938	330.02
456.377	294.91
456.816	334.7
457.254	238.73
457.693	271.5
458.132	346.4
458.571	287.89
459.01	320.65
459.448	273.84
459.887	346.4
460.325	327.68
460.764	330.02
461.202	262.14
461.641	313.63
462.079	308.95
462.517	346.4
462.955	369.8
463.393	290.23
463.832	273.84
464.27	271.5
464.708	271.5
465.145	259.8
465.583	290.23
466.021	262.14
466.459	308.95
466.897	308.95
467.334	292.57
467.772	271.5
468.209	332.36
468.647	351.08
469.084	351.08
469.522	271.5
469.959	360.44
470.396	381.51
470.833	297.25
471.271	311.29
471.708	313.63
472.145	334.7
472.582	287.89
473.019	353.42
473.456	341.72
473.892	311.29
474.329	297.25
474.766	283.2
475.202	278.52
475.639	353.42
476.076	299.59
476.512	287.89
476.949	322.99
477.385	287.89
477.821	320.65
478.258	308.95
478.694	255.12
479.13	292.57
479.566	325.33
480.002	276.18
480.438	243.42
480.874	290.23
481.31	360.44
481.746	297.25
482.181	283.2
482.617	407.25
483.053	313.63
483.488	348.74
483.924	306.61
484.36	271.5
484.795	320.65
485.23	287.89
485.666	266.82
486.101	325.33
486.536	351.08
486.971	290.23
487.407	273.84
487.842	292.57
488.277	320.65
488.712	372.15
489.146	337.04
489.581	365.12
490.016	276.18
490.451	318.31
490.885	334.7
491.32	299.59
491.755	276.18
492.189	306.61
492.624	266.82
493.058	306.61
493.492	304.27
493.927	386.19
494.361	297.25
494.795	278.52
495.229	367.46
495.663	358.1
496.097	332.36
496.531	301.93
496.965	330.02
497.399	346.4
497.833	351.08
498.266	348.74
498.7	341.72
499.134	341.72
499.567	266.82
500.001	315.97
500.434	337.04
500.868	311.29
501.301	292.57
501.734	306.61
502.168	320.65
502.601	304.27
503.034	332.36
503.467	318.31
503.9	325.33
504.333	341.72
504.766	344.06
505.199	367.46
505.632	276.18
506.064	297.25
506.497	306.61
506.93	283.2
507.362	280.86
507.795	306.61
508.227	348.74
508.66	334.7
509.092	308.95
509.524	369.8
509.956	292.57
510.389	280.86
510.821	320.65
511.253	234.05
511.685	325.33
512.117	327.68
512.549	304.27
512.981	313.63
513.412	294.91
513.844	390.87
514.276	374.49
514.707	283.2
515.139	269.16
515.571	259.8
516.002	339.38
516.433	374.49
516.865	299.59
517.296	297.25
517.727	241.08
518.159	271.5
518.59	337.04
519.021	290.23
519.452	339.38
519.883	353.42
520.314	374.49
520.744	332.36
521.175	337.04
521.606	322.99
522.037	320.65
522.467	229.37
522.898	283.2
523.328	248.1
523.759	339.38
524.189	215.33
524.62	353.42
525.05	318.31
525.48	259.8
525.91	290.23
526.341	318.31
526.771	255.12
527.201	299.59
527.631	306.61
528.061	271.5
528.49	346.4
528.92	276.18
529.35	280.86
529.78	344.06
530.209	290.23
530.639	308.95
531.068	292.57
531.498	299.59
531.927	283.2
532.357	337.04
532.786	318.31
533.215	346.4
533.644	313.63
534.074	285.55
534.503	341.72
534.932	337.04
535.361	337.04
535.79	344.06
536.218	255.12
536.647	334.7
537.076	262.14
537.505	341.72
537.933	344.06
538.362	379.17
538.79	259.8
539.219	346.4
539.647	273.84
540.076	278.52
540.504	255.12
540.932	325.33
541.36	266.82
541.788	322.99
542.217	334.7
542.645	285.55
543.073	283.2
543.5	283.2
543.928	245.76
544.356	404.91
544.784	283.2
545.211	257.46
545.639	304.27
546.067	271.5
546.494	308.95
546.922	402.57
547.349	287.89
547.776	311.29
548.204	351.08
548.631	271.5
549.058	308.95
549.485	241.08
549.912	351.08
550.339	311.29
550.766	257.46
551.193	299.59
551.62	287.89
552.047	344.06
552.474	346.4
552.9	292.57
553.327	299.59
553.754	306.61
554.18	297.25
554.607	280.86
555.033	290.23
555.459	332.36
555.886	348.74
556.312	273.84
556.738	299.59
557.164	313.63
557.59	273.84
558.016	374.49
558.442	266.82
558.868	276.18
559.294	339.38
559.72	294.91
560.145	304.27
560.571	348.74
560.997	320.65
561.422	369.8
561.848	334.7
562.273	198.95
562.699	327.68
563.124	327.68
563.549	330.02
563.974	297.25
564.4	290.23
564.825	294.91
565.25	285.55
565.675	313.63
566.1	339.38
566.525	299.59
566.95	306.61
567.374	269.16
567.799	297.25
568.224	271.5
568.648	285.55
569.073	334.7
569.497	297.25
569.922	241.08
570.346	327.68
570.771	325.33
571.195	283.2
571.619	297.25
572.043	339.38
572.467	327.68
572.891	287.89
573.315	318.31
573.739	362.78
574.163	271.5
574.587	332.36
575.011	283.2
575.435	262.14
575.858	339.38
576.282	304.27
576.705	330.02
577.129	374.49
577.552	234.05
577.976	304.27
578.399	315.97
578.822	299.59
579.245	238.73
579.669	327.68
580.092	297.25
580.515	273.84
580.938	318.31
581.361	311.29
581.784	276.18
582.206	259.8
582.629	285.55
583.052	346.4
583.474	234.05
583.897	273.84
584.32	320.65
584.742	297.25
585.165	308.95
585.587	318.31
586.009	322.99
586.431	294.91
586.854	273.84
587.276	280.86
587.698	299.59
588.12	250.44
588.542	315.97
588.964	308.95
589.386	308.95
589.807	318.31
590.229	334.7
590.651	301.93
591.073	299.59
591.494	337.04
591.916	337.04
592.337	358.1
592.759	234.05
593.18	290.23
593.601	351.08
594.022	318.31
594.444	294.91
594.865	332.36
595.286	351.08
595.707	255.12
596.128	266.82
596.549	245.76
596.97	292.57
597.39	227.03
597.811	280.86
598.232	334.7
598.652	299.59
599.073	337.04
599.494	308.95
599.914	257.46
600.334	306.61
600.755	290.23
601.175	369.8
601.595	248.1
602.015	269.16
602.436	315.97
602.856	458.74
603.276	344.06
603.696	367.46
604.115	325.33
604.535	320.65
604.955	299.59
605.375	306.61
605.794	318.31
606.214	250.44
606.634	402.57
607.053	304.27
607.473	311.29
607.892	322.99
608.311	344.06
608.731	290.23
609.15	339.38
609.569	271.5
609.988	381.51
610.407	250.44
610.826	313.63
611.245	299.59
611.664	360.44
612.083	273.84
612.501	287.89
612.92	358.1
613.339	299.59
613.757	311.29
614.176	360.44
614.594	297.25
615.013	276.18
615.431	280.86
615.85	327.68
616.268	292.57
616.686	283.2
617.104	301.93
617.522	304.27
617.94	332.36
618.358	318.31
618.776	355.76
619.194	337.04
619.612	320.65
620.03	348.74
620.447	290.23
620.865	322.99
621.282	290.23
621.7	365.12
622.117	365.12
622.535	257.46
622.952	255.12
623.369	327.68
623.787	337.04
624.204	318.31
624.621	330.02
625.038	299.59
625.455	290.23
625.872	379.17
626.289	313.63
626.706	355.76
627.123	318.31
627.539	276.18
627.956	358.1
628.373	255.12
628.789	322.99
629.206	285.55
629.622	297.25
630.038	318.31
630.455	304.27
630.871	306.61
631.287	283.2
631.703	273.84
632.12	294.91
632.536	306.61
632.952	339.38
633.368	322.99
633.783	285.55
634.199	315.97
634.615	334.7
635.031	402.57
635.446	311.29
635.862	287.89
636.277	283.2
636.693	250.44
637.108	248.1
637.524	351.08
637.939	362.78
638.354	234.05
638.77	283.2
639.185	348.74
639.6	259.8
640.015	269.16
640.43	322.99
640.845	337.04
641.259	360.44
641.674	301.93
642.089	325.33
642.504	344.06
642.918	332.36
643.333	358.1
643.747	313.63
644.162	273.84
644.576	311.29
644.991	241.08
645.405	285.55
645.819	292.57
646.233	304.27
646.647	308.95
647.061	362.78
647.475	311.29
647.889	355.76
648.303	311.29
648.717	355.76
649.131	348.74
649.545	327.68
649.958	271.5
650.372	294.91
650.785	299.59
651.199	327.68
651.612	313.63
652.026	318.31
652.439	292.57
652.852	257.46
653.266	355.76
653.679	334.7
654.092	294.91
654.505	308.95
654.918	344.06
655.331	322.99
655.744	245.76
656.156	367.46
656.569	308.95
656.982	306.61
657.394	255.12
657.807	322.99
658.22	322.99
658.632	294.91
659.044	259.8
659.457	290.23
659.869	250.44
660.281	306.61
660.693	278.52
661.106	231.71
661.518	304.27
661.93	278.52
662.342	353.42
662.754	245.76
663.165	241.08
663.577	344.06
663.989	259.8
664.401	325.33
664.812	276.18
665.224	339.38
665.635	264.48
666.047	330.02
666.458	325.33
666.869	348.74
667.281	322.99
667.692	299.59
668.103	257.46
668.514	301.93
668.925	266.82
669.336	269.16
669.747	308.95
670.158	325.33
670.569	257.46
670.979	334.7
671.39	287.89
671.801	337.04
672.211	297.25
672.622	372.15
673.032	320.65
673.443	297.25
673.853	407.25
674.263	339.38
674.674	330.02
675.084	365.12
675.494	311.29
675.904	325.33
676.314	290.23
676.724	262.14
677.134	280.86
677.544	327.68
677.953	311.29
678.363	313.63
678.773	351.08
679.182	304.27
679.592	322.99
680.001	290.23
680.411	278.52
680.82	283.2
681.23	278.52
681.639	241.08
682.048	313.63
682.457	334.7
682.866	313.63
683.275	278.52
683.684	227.03
684.093	283.2
684.502	269.16
684.911	320.65
685.32	259.8
685.728	266.82
686.137	299.59
686.546	287.89
686.954	322.99
687.363	311.29
687.771	311.29
688.179	299.59
688.588	278.52
688.996	311.29
689.404	322.99
689.812	355.76
690.22	365.12
690.628	259.8
691.036	280.86
691.444	306.61
691.852	238.73
692.26	322.99
692.667	320.65
693.075	234.05
693.483	315.97
693.89	325.33
694.298	330.02
694.705	276.18
695.112	351.08
695.52	334.7
695.927	278.52
696.334	322.99
696.741	358.1
697.148	236.39
697.555	320.65
697.962	297.25
698.369	358.1
698.776	318.31
699.183	294.91
699.59	351.08
699.996	325.33
700.403	290.23
700.81	276.18
701.216	301.93
701.623	292.57
702.029	301.93
702.435	322.99
702.842	348.74
703.248	313.63
703.654	322.99
704.06	332.36
704.466	348.74
704.872	341.72
705.278	315.97
705.684	330.02
706.09	358.1
706.496	280.86
706.901	301.93
707.307	306.61
707.712	294.91
708.118	238.73
708.523	383.85
708.929	280.86
709.334	301.93
709.74	269.16
710.145	358.1
710.55	322.99
710.955	271.5
711.36	290.23
711.765	297.25
712.17	290.23
712.575	362.78
712.98	898.77
713.385	337.04
713.789	353.42
714.194	322.99
714.599	372.15
715.003	327.68
715.408	280.86
715.812	287.89
716.217	283.2
716.621	255.12
717.025	346.4
717.429	299.59
717.833	367.46
718.238	290.23
718.642	308.95
719.046	313.63
719.449	308.95
719.853	327.68
720.257	332.36
720.661	294.91
721.065	325.33
721.468	299.59
721.872	308.95
722.275	334.7
722.679	269.16
723.082	301.93
723.485	271.5
723.889	308.95
724.292	292.57
724.695	297.25
725.098	285.55
725.501	313.63
725.904	308.95
726.307	266.82
726.71	287.89
727.113	325.33
727.516	334.7
727.918	346.4
728.321	334.7
728.724	344.06
729.126	390.87
729.529	358.1
729.931	308.95
730.333	320.65
730.736	367.46
731.138	325.33
731.54	346.4
731.942	285.55
732.344	318.31
732.746	346.4
733.148	334.7
733.55	337.04
733.952	227.03
734.354	337.04
734.756	308.95
735.157	269.16
735.559	248.1
735.96	308.95
736.362	322.99
736.763	318.31
737.165	287.89
737.566	315.97
737.967	308.95
738.368	320.65
738.77	262.14
739.171	301.93
739.572	278.52
739.973	299.59
740.374	322.99
740.774	355.76
741.175	355.76
741.576	315.97
741.977	285.55
742.377	353.42
742.778	285.55
743.178	327.68
743.579	306.61
743.979	301.93
744.379	217.67
744.78	306.61
745.18	351.08
745.58	273.84
745.98	299.59
746.38	341.72
746.78	269.16
747.18	311.29
747.58	308.95
747.98	238.73
748.38	292.57
748.779	297.25
749.179	299.59
749.578	318.31
749.978	250.44
750.377	332.36
750.777	264.48
751.176	327.68
751.575	304.27
751.975	320.65
752.374	344.06
752.773	365.12
753.172	332.36
753.571	297.25
753.97	308.95
754.369	325.33
754.768	243.42
755.166	287.89
755.565	301.93
755.964	276.18
756.362	292.57
756.761	313.63
757.159	334.7
757.558	299.59
757.956	292.57
758.354	266.82
758.753	315.97
759.151	367.46
759.549	351.08
759.947	271.5
760.345	334.7
760.743	287.89
761.141	308.95
761.539	301.93
761.936	308.95
762.334	334.7
762.732	334.7
763.129	341.72
763.527	290.23
763.924	346.4
764.322	301.93
764.719	301.93
765.117	264.48
765.514	337.04
765.911	322.99
