Data from Al_FLMS009871__1029__16-23-58-815.txt Node

Date: Fri Mar 08 16:23:58 CST 2024
User: pe5414po
Spectrometer: FLMS00987
Trigger mode: 0
Integration Time (sec): 1.000000E-1
Scans to average: 1
Electric dark correction enabled: true
Nonlinearity correction enabled: false
Boxcar width: 0
XAxis mode: Wavelengths
Number of Pixels in Spectrum: 2048
>>>>>Begin Spectral Data<<<<<
188.938	-71.97
189.409	-71.97
189.879	-71.97
190.349	-95.38
190.819	-83.67
191.29	-167.93
191.76	-118.78
192.23	-13.46
192.7	-118.78
193.17	-69.63
193.64	-46.23
194.109	-41.54
194.579	-25.16
195.049	-32.18
195.519	2.93
195.988	9.95
196.458	124.63
196.927	108.25
197.397	96.55
197.866	145.7
198.336	145.7
198.805	164.42
199.274	166.76
199.744	173.78
200.213	204.21
200.682	190.17
201.151	162.08
201.62	241.66
202.089	311.88
202.558	255.7
203.027	314.22
203.495	318.9
203.964	368.05
204.433	272.09
204.902	262.73
205.37	293.15
205.839	281.45
206.307	267.41
206.776	318.9
207.244	272.09
207.712	314.22
208.181	393.8
208.649	251.02
209.117	365.71
209.585	342.3
210.053	260.38
210.521	314.22
210.989	302.51
211.457	309.54
211.925	297.83
212.393	260.38
212.861	288.47
213.328	323.58
213.796	295.49
214.264	269.75
214.731	339.96
215.199	260.38
215.666	269.75
216.133	307.2
216.601	265.07
217.068	323.58
217.535	297.83
218.003	260.38
218.47	288.47
218.937	253.36
219.404	293.15
219.871	274.43
220.338	176.13
220.805	246.34
221.271	262.73
221.738	262.73
222.205	248.68
222.671	255.7
223.138	234.64
223.605	267.41
224.071	267.41
224.538	279.11
225.004	290.81
225.47	220.6
225.937	251.02
226.403	218.25
226.869	283.79
227.335	267.41
227.801	307.2
228.267	246.34
228.733	276.77
229.199	234.64
229.665	283.79
230.131	246.34
230.597	281.45
231.062	269.75
231.528	276.77
231.994	300.17
232.459	309.54
232.925	267.41
233.39	185.49
233.856	297.83
234.321	318.9
234.786	309.54
235.252	330.6
235.717	279.11
236.182	316.56
236.647	286.13
237.112	290.81
237.577	276.77
238.042	274.43
238.507	297.83
238.972	297.83
239.436	375.07
239.901	372.73
240.366	281.45
240.83	307.2
241.295	311.88
241.76	262.73
242.224	288.47
242.688	262.73
243.153	232.3
243.617	281.45
244.081	272.09
244.545	358.69
245.01	290.81
245.474	302.51
245.938	309.54
246.402	281.45
246.866	309.54
247.33	318.9
247.793	286.13
248.257	318.9
248.721	328.26
249.185	304.85
249.648	332.94
250.112	335.28
250.575	272.09
251.039	244
251.502	321.24
251.965	269.75
252.429	335.28
252.892	267.41
253.355	365.71
253.818	356.35
254.281	307.2
254.744	283.79
255.207	316.56
255.67	295.49
256.133	267.41
256.596	297.83
257.059	314.22
257.522	260.38
257.984	311.88
258.447	269.75
258.909	335.28
259.372	316.56
259.834	293.15
260.297	356.35
260.759	274.43
261.221	311.88
261.684	358.69
262.146	365.71
262.608	300.17
263.07	281.45
263.532	309.54
263.994	262.73
264.456	342.3
264.918	323.58
265.38	328.26
265.842	304.85
266.303	272.09
266.765	241.66
267.227	288.47
267.688	286.13
268.15	330.6
268.611	398.48
269.072	288.47
269.534	368.05
269.995	349.32
270.456	328.26
270.918	330.6
271.379	335.28
271.84	286.13
272.301	258.04
272.762	276.77
273.223	248.68
273.684	325.92
274.144	354.01
274.605	283.79
275.066	283.79
275.527	372.73
275.987	288.47
276.448	349.32
276.908	309.54
277.369	351.67
277.829	265.07
278.289	274.43
278.75	286.13
279.21	314.22
279.67	251.02
280.13	215.91
280.59	281.45
281.05	260.38
281.51	293.15
281.97	330.6
282.43	309.54
282.89	276.77
283.35	335.28
283.809	286.13
284.269	361.03
284.729	300.17
285.188	302.51
285.648	307.2
286.107	311.88
286.567	213.57
287.026	262.73
287.485	314.22
287.944	307.2
288.404	314.22
288.863	288.47
289.322	290.81
289.781	349.32
290.24	311.88
290.699	339.96
291.158	279.11
291.616	332.94
292.075	267.41
292.534	337.62
292.992	337.62
293.451	255.7
293.91	321.24
294.368	325.92
294.827	309.54
295.285	244
295.743	370.39
296.202	276.77
296.66	274.43
297.118	281.45
297.576	365.71
298.034	307.2
298.492	283.79
298.95	323.58
299.408	300.17
299.866	337.62
300.324	349.32
300.781	332.94
301.239	265.07
301.697	234.64
302.154	337.62
302.612	300.17
303.069	246.34
303.527	375.07
303.984	276.77
304.441	309.54
304.899	332.94
305.356	304.85
305.813	351.67
306.27	311.88
306.727	370.39
307.184	283.79
307.641	311.88
308.098	283.79
308.555	286.13
309.012	265.07
309.468	328.26
309.925	211.23
310.382	272.09
310.838	265.07
311.295	295.49
311.751	332.94
312.208	283.79
312.664	351.67
313.12	323.58
313.577	344.64
314.033	293.15
314.489	351.67
314.945	339.96
315.401	279.11
315.857	349.32
316.313	384.43
316.769	316.56
317.225	318.9
317.681	288.47
318.136	290.81
318.592	281.45
319.048	325.92
319.503	314.22
319.959	251.02
320.414	370.39
320.869	295.49
321.325	335.28
321.78	283.79
322.235	297.83
322.691	316.56
323.146	325.92
323.601	274.43
324.056	337.62
324.511	269.75
324.966	302.51
325.421	311.88
325.875	337.62
326.33	295.49
326.785	279.11
327.24	389.11
327.694	300.17
328.149	318.9
328.603	288.47
329.058	297.83
329.512	349.32
329.966	309.54
330.421	342.3
330.875	288.47
331.329	382.09
331.783	328.26
332.237	276.77
332.691	325.92
333.145	302.51
333.599	311.88
334.053	337.62
334.507	288.47
334.96	419.54
335.414	314.22
335.868	356.35
336.321	365.71
336.775	368.05
337.228	358.69
337.682	311.88
338.135	328.26
338.588	286.13
339.042	346.98
339.495	342.3
339.948	356.35
340.401	398.48
340.854	339.96
341.307	272.09
341.76	302.51
342.213	332.94
342.666	382.09
343.119	295.49
343.571	281.45
344.024	346.98
344.477	311.88
344.929	386.77
345.382	321.24
345.834	290.81
346.287	365.71
346.739	272.09
347.191	398.48
347.644	351.67
348.096	323.58
348.548	300.17
349	304.85
349.452	283.79
349.904	265.07
350.356	330.6
350.808	346.98
351.26	372.73
351.711	318.9
352.163	309.54
352.615	318.9
353.066	356.35
353.518	311.88
353.969	290.81
354.421	356.35
354.872	332.94
355.324	351.67
355.775	295.49
356.226	351.67
356.677	351.67
357.128	283.79
357.579	377.41
358.03	311.88
358.481	368.05
358.932	335.28
359.383	290.81
359.834	342.3
360.285	272.09
360.735	314.22
361.186	349.32
361.637	267.41
362.087	297.83
362.538	337.62
362.988	288.47
363.438	286.13
363.889	410.18
364.339	382.09
364.789	281.45
365.239	283.79
365.689	321.24
366.139	335.28
366.589	335.28
367.039	328.26
367.489	346.98
367.939	318.9
368.389	354.01
368.839	377.41
369.288	286.13
369.738	309.54
370.187	328.26
370.637	265.07
371.086	337.62
371.536	293.15
371.985	229.96
372.434	267.41
372.884	389.11
373.333	379.75
373.782	375.07
374.231	335.28
374.68	293.15
375.129	311.88
375.578	293.15
376.027	337.62
376.475	321.24
376.924	314.22
377.373	290.81
377.822	356.35
378.27	300.17
378.719	332.94
379.167	283.79
379.616	309.54
380.064	295.49
380.512	375.07
380.961	269.75
381.409	332.94
381.857	365.71
382.305	274.43
382.753	337.62
383.201	325.92
383.649	339.96
384.097	323.58
384.545	309.54
384.992	332.94
385.44	339.96
385.888	323.58
386.335	335.28
386.783	384.43
387.231	325.92
387.678	361.03
388.125	358.69
388.573	311.88
389.02	304.85
389.467	344.64
389.914	316.56
390.362	389.11
390.809	309.54
391.256	354.01
391.703	335.28
392.15	349.32
392.596	386.77
393.043	403.16
393.49	279.11
393.937	377.41
394.383	318.9
394.83	328.26
395.276	328.26
395.723	321.24
396.169	361.03
396.616	286.13
397.062	314.22
397.508	398.48
397.954	389.11
398.401	311.88
398.847	363.37
399.293	330.6
399.739	330.6
400.185	335.28
400.631	309.54
401.076	297.83
401.522	342.3
401.968	379.75
402.414	311.88
402.859	300.17
403.305	321.24
403.75	307.2
404.196	279.11
404.641	309.54
405.086	351.67
405.532	370.39
405.977	311.88
406.422	302.51
406.867	290.81
407.312	325.92
407.757	354.01
408.202	337.62
408.647	286.13
409.092	337.62
409.537	344.64
409.982	307.2
410.426	314.22
410.871	396.14
411.316	370.39
411.76	311.88
412.205	330.6
412.649	330.6
413.093	300.17
413.538	321.24
413.982	356.35
414.426	267.41
414.87	295.49
415.314	379.75
415.758	323.58
416.202	365.71
416.646	330.6
417.09	377.41
417.534	265.07
417.978	325.92
418.421	342.3
418.865	290.81
419.309	375.07
419.752	286.13
420.196	368.05
420.639	339.96
421.083	342.3
421.526	328.26
421.969	316.56
422.412	318.9
422.856	361.03
423.299	372.73
423.742	276.77
424.185	339.96
424.628	281.45
425.071	358.69
425.513	307.2
425.956	386.77
426.399	309.54
426.842	337.62
427.284	323.58
427.727	321.24
428.169	244
428.612	286.13
429.054	337.62
429.497	297.83
429.939	332.94
430.381	361.03
430.823	382.09
431.265	361.03
431.707	283.79
432.149	236.98
432.591	311.88
433.033	297.83
433.475	339.96
433.917	272.09
434.359	300.17
434.8	300.17
435.242	311.88
435.684	351.67
436.125	370.39
436.567	318.9
437.008	328.26
437.449	361.03
437.891	279.11
438.332	335.28
438.773	267.41
439.214	384.43
439.656	307.2
440.097	358.69
440.538	335.28
440.978	297.83
441.419	365.71
441.86	349.32
442.301	300.17
442.742	283.79
443.182	363.37
443.623	323.58
444.063	337.62
444.504	295.49
444.944	351.67
445.385	302.51
445.825	321.24
446.265	229.96
446.706	358.69
447.146	382.09
447.586	337.62
448.026	337.62
448.466	382.09
448.906	403.16
449.346	307.2
449.786	281.45
450.225	300.17
450.665	297.83
451.105	351.67
451.544	330.6
451.984	346.98
452.424	332.94
452.863	274.43
453.302	377.41
453.742	342.3
454.181	304.85
454.62	344.64
455.059	304.85
455.499	328.26
455.938	363.37
456.377	344.64
456.816	377.41
457.254	265.07
457.693	389.11
458.132	391.45
458.571	372.73
459.01	346.98
459.448	384.43
459.887	400.82
460.325	260.38
460.764	386.77
461.202	323.58
461.641	337.62
462.079	335.28
462.517	316.56
462.955	351.67
463.393	260.38
463.832	328.26
464.27	339.96
464.708	382.09
465.145	358.69
465.583	372.73
466.021	398.48
466.459	304.85
466.897	302.51
467.334	379.75
467.772	311.88
468.209	358.69
468.647	368.05
469.084	337.62
469.522	316.56
469.959	337.62
470.396	304.85
470.833	248.68
471.271	384.43
471.708	358.69
472.145	314.22
472.582	339.96
473.019	372.73
473.456	300.17
473.892	290.81
474.329	354.01
474.766	370.39
475.202	293.15
475.639	314.22
476.076	356.35
476.512	311.88
476.949	354.01
477.385	356.35
477.821	325.92
478.258	318.9
478.694	342.3
479.13	293.15
479.566	342.3
480.002	302.51
480.438	361.03
480.874	297.83
481.31	309.54
481.746	279.11
482.181	361.03
482.617	330.6
483.053	358.69
483.488	332.94
483.924	325.92
484.36	302.51
484.795	323.58
485.23	323.58
485.666	330.6
486.101	335.28
486.536	351.67
486.971	325.92
487.407	283.79
487.842	375.07
488.277	293.15
488.712	330.6
489.146	321.24
489.581	272.09
490.016	375.07
490.451	389.11
490.885	314.22
491.32	323.58
491.755	332.94
492.189	323.58
492.624	311.88
493.058	316.56
493.492	358.69
493.927	288.47
494.361	354.01
494.795	361.03
495.229	307.2
495.663	332.94
496.097	269.75
496.531	386.77
496.965	311.88
497.399	349.32
497.833	311.88
498.266	297.83
498.7	295.49
499.134	342.3
499.567	295.49
500.001	356.35
500.434	330.6
500.868	321.24
501.301	354.01
501.734	335.28
502.168	300.17
502.601	351.67
503.034	281.45
503.467	368.05
503.9	344.64
504.333	272.09
504.766	410.18
505.199	351.67
505.632	323.58
506.064	330.6
506.497	328.26
506.93	386.77
507.362	251.02
507.795	274.43
508.227	337.62
508.66	328.26
509.092	332.94
509.524	302.51
509.956	309.54
510.389	253.36
510.821	337.62
511.253	405.5
511.685	323.58
512.117	342.3
512.549	356.35
512.981	286.13
513.412	267.41
513.844	335.28
514.276	330.6
514.707	379.75
515.139	349.32
515.571	396.14
516.002	236.98
516.433	300.17
516.865	311.88
517.296	323.58
517.727	342.3
518.159	337.62
518.59	393.8
519.021	361.03
519.452	260.38
519.883	302.51
520.314	276.77
520.744	370.39
521.175	339.96
521.606	349.32
522.037	389.11
522.467	335.28
522.898	297.83
523.328	337.62
523.759	309.54
524.189	335.28
524.62	368.05
525.05	307.2
525.48	309.54
525.91	342.3
526.341	307.2
526.771	356.35
527.201	349.32
527.631	258.04
528.061	349.32
528.49	316.56
528.92	403.16
529.35	351.67
529.78	428.9
530.209	229.96
530.639	307.2
531.068	272.09
531.498	297.83
531.927	396.14
532.357	339.96
532.786	311.88
533.215	281.45
533.644	288.47
534.074	314.22
534.503	337.62
534.932	318.9
535.361	375.07
535.79	297.83
536.218	335.28
536.647	384.43
537.076	332.94
537.505	351.67
537.933	330.6
538.362	330.6
538.79	337.62
539.219	325.92
539.647	349.32
540.076	332.94
540.504	356.35
540.932	248.68
541.36	386.77
541.788	370.39
542.217	265.07
542.645	342.3
543.073	396.14
543.5	365.71
543.928	344.64
544.356	309.54
544.784	377.41
545.211	318.9
545.639	375.07
546.067	354.01
546.494	370.39
546.922	407.84
547.349	417.2
547.776	337.62
548.204	358.69
548.631	349.32
549.058	344.64
549.485	339.96
549.912	384.43
550.339	309.54
550.766	281.45
551.193	311.88
551.62	356.35
552.047	328.26
552.474	356.35
552.9	314.22
553.327	295.49
553.754	332.94
554.18	323.58
554.607	356.35
555.033	335.28
555.459	283.79
555.886	330.6
556.312	311.88
556.738	314.22
557.164	321.24
557.59	300.17
558.016	318.9
558.442	393.8
558.868	316.56
559.294	276.77
559.72	318.9
560.145	332.94
560.571	361.03
560.997	344.64
561.422	279.11
561.848	342.3
562.273	236.98
562.699	293.15
563.124	386.77
563.549	354.01
563.974	349.32
564.4	267.41
564.825	272.09
565.25	342.3
565.675	311.88
566.1	393.8
566.525	316.56
566.95	295.49
567.374	302.51
567.799	314.22
568.224	318.9
568.648	302.51
569.073	400.82
569.497	342.3
569.922	335.28
570.346	281.45
570.771	342.3
571.195	307.2
571.619	255.7
572.043	377.41
572.467	328.26
572.891	349.32
573.315	325.92
573.739	309.54
574.163	393.8
574.587	337.62
575.011	309.54
575.435	316.56
575.858	314.22
576.282	328.26
576.705	361.03
577.129	267.41
577.552	330.6
577.976	372.73
578.399	332.94
578.822	330.6
579.245	311.88
579.669	328.26
580.092	354.01
580.515	344.64
580.938	286.13
581.361	272.09
581.784	337.62
582.206	297.83
582.629	293.15
583.052	307.2
583.474	304.85
583.897	309.54
584.32	316.56
584.742	328.26
585.165	349.32
585.587	335.28
586.009	342.3
586.431	251.02
586.854	323.58
587.276	314.22
587.698	316.56
588.12	382.09
588.542	330.6
588.964	293.15
589.386	293.15
589.807	302.51
590.229	321.24
590.651	318.9
591.073	328.26
591.494	332.94
591.916	323.58
592.337	309.54
592.759	379.75
593.18	361.03
593.601	400.82
594.022	293.15
594.444	332.94
594.865	269.75
595.286	321.24
595.707	274.43
596.128	314.22
596.549	335.28
596.97	354.01
597.39	314.22
597.811	328.26
598.232	302.51
598.652	330.6
599.073	307.2
599.494	279.11
599.914	323.58
600.334	351.67
600.755	346.98
601.175	386.77
601.595	288.47
602.015	400.82
602.436	335.28
602.856	421.88
603.276	309.54
603.696	363.37
604.115	372.73
604.535	260.38
604.955	365.71
605.375	332.94
605.794	321.24
606.214	330.6
606.634	316.56
607.053	328.26
607.473	321.24
607.892	328.26
608.311	318.9
608.731	358.69
609.15	309.54
609.569	314.22
609.988	309.54
610.407	318.9
610.826	332.94
611.245	318.9
611.664	349.32
612.083	346.98
612.501	375.07
612.92	316.56
613.339	187.83
613.757	337.62
614.176	309.54
614.594	286.13
615.013	255.7
615.431	314.22
615.85	332.94
616.268	342.3
616.686	382.09
617.104	290.81
617.522	316.56
617.94	288.47
618.358	279.11
618.776	311.88
619.194	361.03
619.612	269.75
620.03	335.28
620.447	269.75
620.865	286.13
621.282	339.96
621.7	325.92
622.117	330.6
622.535	363.37
622.952	363.37
623.369	365.71
623.787	311.88
624.204	361.03
624.621	349.32
625.038	316.56
625.455	262.73
625.872	342.3
626.289	302.51
626.706	304.85
627.123	297.83
627.539	309.54
627.956	339.96
628.373	314.22
628.789	297.83
629.206	396.14
629.622	361.03
630.038	351.67
630.455	321.24
630.871	325.92
631.287	337.62
631.703	283.79
632.12	363.37
632.536	286.13
632.952	368.05
633.368	248.68
633.783	323.58
634.199	302.51
634.615	293.15
635.031	290.81
635.446	311.88
635.862	330.6
636.277	389.11
636.693	361.03
637.108	309.54
637.524	332.94
637.939	300.17
638.354	260.38
638.77	382.09
639.185	332.94
639.6	316.56
640.015	304.85
640.43	339.96
640.845	354.01
641.259	344.64
641.674	246.34
642.089	363.37
642.504	351.67
642.918	335.28
643.333	354.01
643.747	290.81
644.162	358.69
644.576	307.2
644.991	325.92
645.405	349.32
645.819	309.54
646.233	304.85
646.647	316.56
647.061	368.05
647.475	365.71
647.889	304.85
648.303	330.6
648.717	316.56
649.131	370.39
649.545	375.07
649.958	316.56
650.372	314.22
650.785	382.09
651.199	344.64
651.612	342.3
652.026	302.51
652.439	325.92
652.852	283.79
653.266	293.15
653.679	372.73
654.092	365.71
654.505	335.28
654.918	346.98
655.331	332.94
655.744	293.15
656.156	295.49
656.569	330.6
656.982	323.58
657.394	344.64
657.807	346.98
658.22	279.11
658.632	389.11
659.044	354.01
659.457	325.92
659.869	337.62
660.281	391.45
660.693	269.75
661.106	405.5
661.518	372.73
661.93	375.07
662.342	354.01
662.754	382.09
663.165	295.49
663.577	349.32
663.989	356.35
664.401	321.24
664.812	274.43
665.224	368.05
665.635	262.73
666.047	346.98
666.458	267.41
666.869	389.11
667.281	342.3
667.692	351.67
668.103	375.07
668.514	288.47
668.925	330.6
669.336	354.01
669.747	307.2
670.158	342.3
670.569	307.2
670.979	272.09
671.39	349.32
671.801	354.01
672.211	321.24
672.622	330.6
673.032	290.81
673.443	300.17
673.853	325.92
674.263	370.39
674.674	370.39
675.084	258.04
675.494	318.9
675.904	377.41
676.314	321.24
676.724	325.92
677.134	330.6
677.544	295.49
677.953	365.71
678.363	337.62
678.773	335.28
679.182	384.43
679.592	307.2
680.001	290.81
680.411	328.26
680.82	316.56
681.23	276.77
681.639	354.01
682.048	300.17
682.457	332.94
682.866	293.15
683.275	255.7
683.684	368.05
684.093	314.22
684.502	386.77
684.911	337.62
685.32	375.07
685.728	290.81
686.137	307.2
686.546	337.62
686.954	365.71
687.363	342.3
687.771	332.94
688.179	307.2
688.588	300.17
688.996	309.54
689.404	354.01
689.812	400.82
690.22	396.14
690.628	309.54
691.036	346.98
691.444	372.73
691.852	330.6
692.26	351.67
692.667	356.35
693.075	290.81
693.483	363.37
693.89	332.94
694.298	311.88
694.705	295.49
695.112	318.9
695.52	307.2
695.927	316.56
696.334	351.67
696.741	321.24
697.148	346.98
697.555	302.51
697.962	321.24
698.369	400.82
698.776	290.81
699.183	361.03
699.59	309.54
699.996	290.81
700.403	283.79
700.81	351.67
701.216	311.88
701.623	375.07
702.029	258.04
702.435	295.49
702.842	377.41
703.248	361.03
703.654	248.68
704.06	311.88
704.466	311.88
704.872	286.13
705.278	302.51
705.684	302.51
706.09	309.54
706.496	328.26
706.901	307.2
707.307	318.9
707.712	304.85
708.118	375.07
708.523	328.26
708.929	297.83
709.334	337.62
709.74	396.14
710.145	361.03
710.55	342.3
710.955	344.64
711.36	393.8
711.765	304.85
712.17	382.09
712.575	316.56
712.98	925.1
713.385	384.43
713.789	335.28
714.194	316.56
714.599	363.37
715.003	339.96
715.408	332.94
715.812	311.88
716.217	325.92
716.621	311.88
717.025	300.17
717.429	400.82
717.833	304.85
718.238	354.01
718.642	370.39
719.046	314.22
719.449	236.98
719.853	311.88
720.257	311.88
720.661	344.64
721.065	344.64
721.468	290.81
721.872	295.49
722.275	337.62
722.679	344.64
723.082	382.09
723.485	318.9
723.889	368.05
724.292	304.85
724.695	349.32
725.098	358.69
725.501	272.09
725.904	351.67
726.307	325.92
726.71	318.9
727.113	318.9
727.516	286.13
727.918	297.83
728.321	246.34
728.724	281.45
729.126	337.62
729.529	311.88
729.931	321.24
730.333	304.85
730.736	314.22
731.138	356.35
731.54	328.26
731.942	342.3
732.344	307.2
732.746	386.77
733.148	332.94
733.55	304.85
733.952	344.64
734.354	311.88
734.756	328.26
735.157	339.96
735.559	382.09
735.96	396.14
736.362	351.67
736.763	346.98
737.165	295.49
737.566	321.24
737.967	346.98
738.368	325.92
738.77	304.85
739.171	377.41
739.572	356.35
739.973	267.41
740.374	330.6
740.774	325.92
741.175	272.09
741.576	304.85
741.977	297.83
742.377	304.85
742.778	368.05
743.178	244
743.579	330.6
743.979	274.43
744.379	339.96
744.78	295.49
745.18	300.17
745.58	300.17
745.98	337.62
746.38	272.09
746.78	335.28
747.18	332.94
747.58	318.9
747.98	304.85
748.38	281.45
748.779	325.92
749.179	316.56
749.578	281.45
749.978	349.32
750.377	337.62
750.777	288.47
751.176	311.88
751.575	318.9
751.975	309.54
752.374	375.07
752.773	307.2
753.172	276.77
753.571	337.62
753.97	370.39
754.369	304.85
754.768	283.79
755.166	297.83
755.565	375.07
755.964	330.6
756.362	344.64
756.761	342.3
757.159	311.88
757.558	318.9
757.956	239.32
758.354	354.01
758.753	339.96
759.151	384.43
759.549	318.9
759.947	344.64
760.345	288.47
760.743	244
761.141	379.75
761.539	318.9
761.936	302.51
762.334	260.38
762.732	332.94
763.129	251.02
763.527	304.85
763.924	332.94
764.322	311.88
764.719	297.83
765.117	363.37
765.514	368.05
765.911	335.28
