Data from Al_FLMS009871__1027__16-23-58-615.txt Node

Date: Fri Mar 08 16:23:58 CST 2024
User: pe5414po
Spectrometer: FLMS00987
Trigger mode: 0
Integration Time (sec): 1.000000E-1
Scans to average: 1
Electric dark correction enabled: true
Nonlinearity correction enabled: false
Boxcar width: 0
XAxis mode: Wavelengths
Number of Pixels in Spectrum: 2048
>>>>>Begin Spectral Data<<<<<
188.938	-54.12
189.409	-54.12
189.879	-54.12
190.349	-145.41
190.819	-98.6
191.29	-105.62
191.76	-112.64
192.23	-65.83
192.7	-68.17
193.17	-54.12
193.64	-75.19
194.109	-9.65
194.579	-28.38
195.049	13.75
195.519	-7.31
195.988	-0.29
196.458	41.84
196.927	126.1
197.397	86.31
197.866	133.12
198.336	126.1
198.805	62.9
199.274	179.93
199.744	165.89
200.213	184.61
200.682	137.8
201.151	294.61
201.62	212.7
202.089	191.63
202.558	219.72
203.027	271.21
203.495	245.46
203.964	299.3
204.433	268.87
204.902	264.19
205.37	303.98
205.839	292.27
206.307	327.38
206.776	299.3
207.244	212.7
207.712	329.72
208.181	315.68
208.649	280.57
209.117	294.61
209.585	318.02
210.053	301.64
210.521	224.4
210.989	369.51
211.457	254.83
211.925	243.12
212.393	245.46
212.861	308.66
213.328	315.68
213.796	278.23
214.264	229.08
214.731	296.96
215.199	215.04
215.666	275.89
216.133	294.61
216.601	254.83
217.068	285.25
217.535	285.25
218.003	311
218.47	231.42
218.937	287.59
219.404	259.51
219.871	240.78
220.338	292.27
220.805	275.89
221.271	266.53
221.738	271.21
222.205	280.57
222.671	240.78
223.138	273.55
223.605	231.42
224.071	275.89
224.538	257.17
225.004	261.85
225.47	278.23
225.937	271.21
226.403	236.1
226.869	226.74
227.335	215.04
227.801	243.12
228.267	271.21
228.733	236.1
229.199	254.83
229.665	322.7
230.131	243.12
230.597	210.36
231.062	264.19
231.528	273.55
231.994	282.91
232.459	229.08
232.925	245.46
233.39	273.55
233.856	250.14
234.321	226.74
234.786	259.51
235.252	287.59
235.717	273.55
236.182	257.17
236.647	254.83
237.112	266.53
237.577	261.85
238.042	226.74
238.507	245.46
238.972	282.91
239.436	264.19
239.901	210.36
240.366	264.19
240.83	287.59
241.295	259.51
241.76	282.91
242.224	240.78
242.688	287.59
243.153	224.4
243.617	299.3
244.081	282.91
244.545	261.85
245.01	313.34
245.474	271.21
245.938	261.85
246.402	236.1
246.866	275.89
247.33	306.32
247.793	303.98
248.257	280.57
248.721	287.59
249.185	254.83
249.648	289.93
250.112	278.23
250.575	308.66
251.039	332.06
251.502	292.27
251.965	299.3
252.429	289.93
252.892	346.11
253.355	282.91
253.818	240.78
254.281	285.25
254.744	243.12
255.207	285.25
255.67	357.81
256.133	289.93
256.596	268.87
257.059	313.34
257.522	306.32
257.984	240.78
258.447	257.17
258.909	233.76
259.372	306.32
259.834	364.83
260.297	271.21
260.759	245.46
261.221	313.34
261.684	303.98
262.146	243.12
262.608	294.61
263.07	329.72
263.532	339.09
263.994	306.32
264.456	294.61
264.918	226.74
265.38	301.64
265.842	259.51
266.303	252.49
266.765	292.27
267.227	315.68
267.688	315.68
268.15	233.76
268.611	289.93
269.072	353.13
269.534	261.85
269.995	275.89
270.456	289.93
270.918	257.17
271.379	275.89
271.84	266.53
272.301	273.55
272.762	271.21
273.223	287.59
273.684	273.55
274.144	282.91
274.605	231.42
275.066	280.57
275.527	238.44
275.987	311
276.448	301.64
276.908	280.57
277.369	280.57
277.829	278.23
278.289	301.64
278.75	268.87
279.21	336.74
279.67	327.38
280.13	313.34
280.59	334.4
281.05	266.53
281.51	289.93
281.97	247.8
282.43	296.96
282.89	285.25
283.35	320.36
283.809	252.49
284.269	311
284.729	336.74
285.188	357.81
285.648	278.23
286.107	332.06
286.567	292.27
287.026	294.61
287.485	292.27
287.944	294.61
288.404	273.55
288.863	287.59
289.322	287.59
289.781	311
290.24	245.46
290.699	296.96
291.158	322.7
291.616	285.25
292.075	348.45
292.534	264.19
292.992	229.08
293.451	278.23
293.91	296.96
294.368	259.51
294.827	320.36
295.285	282.91
295.743	360.15
296.202	285.25
296.66	261.85
297.118	282.91
297.576	306.32
298.034	343.77
298.492	315.68
298.95	303.98
299.408	282.91
299.866	318.02
300.324	313.34
300.781	327.38
301.239	315.68
301.697	287.59
302.154	266.53
302.612	287.59
303.069	318.02
303.527	369.51
303.984	294.61
304.441	254.83
304.899	285.25
305.356	285.25
305.813	311
306.27	268.87
306.727	301.64
307.184	343.77
307.641	292.27
308.098	371.85
308.555	350.79
309.012	282.91
309.468	341.43
309.925	278.23
310.382	261.85
310.838	245.46
311.295	343.77
311.751	292.27
312.208	303.98
312.664	289.93
313.12	287.59
313.577	299.3
314.033	282.91
314.489	245.46
314.945	299.3
315.401	308.66
315.857	280.57
316.313	320.36
316.769	268.87
317.225	313.34
317.681	350.79
318.136	332.06
318.592	282.91
319.048	308.66
319.503	245.46
319.959	320.36
320.414	254.83
320.869	268.87
321.325	308.66
321.78	320.36
322.235	296.96
322.691	325.04
323.146	313.34
323.601	294.61
324.056	376.53
324.511	303.98
324.966	346.11
325.421	273.55
325.875	339.09
326.33	339.09
326.785	315.68
327.24	294.61
327.694	315.68
328.149	357.81
328.603	306.32
329.058	247.8
329.512	334.4
329.966	252.49
330.421	301.64
330.875	285.25
331.329	413.98
331.783	261.85
332.237	271.21
332.691	278.23
333.145	334.4
333.599	348.45
334.053	360.15
334.507	308.66
334.96	294.61
335.414	318.02
335.868	278.23
336.321	348.45
336.775	378.87
337.228	268.87
337.682	378.87
338.135	257.17
338.588	301.64
339.042	329.72
339.495	257.17
339.948	343.77
340.401	334.4
340.854	311
341.307	367.17
341.76	282.91
342.213	275.89
342.666	275.89
343.119	315.68
343.571	226.74
344.024	301.64
344.477	296.96
344.929	250.14
345.382	322.7
345.834	287.59
346.287	278.23
346.739	266.53
347.191	336.74
347.644	334.4
348.096	374.19
348.548	285.25
349	315.68
349.452	308.66
349.904	275.89
350.356	360.15
350.808	315.68
351.26	313.34
351.711	294.61
352.163	278.23
352.615	287.59
353.066	294.61
353.518	306.32
353.969	334.4
354.421	336.74
354.872	341.43
355.324	325.04
355.775	299.3
356.226	364.83
356.677	289.93
357.128	325.04
357.579	346.11
358.03	266.53
358.481	266.53
358.932	327.38
359.383	299.3
359.834	346.11
360.285	301.64
360.735	343.77
361.186	280.57
361.637	364.83
362.087	327.38
362.538	329.72
362.988	327.38
363.438	271.21
363.889	318.02
364.339	360.15
364.789	292.27
365.239	261.85
365.689	318.02
366.139	294.61
366.589	306.32
367.039	250.14
367.489	299.3
367.939	341.43
368.389	329.72
368.839	318.02
369.288	350.79
369.738	275.89
370.187	339.09
370.637	231.42
371.086	318.02
371.536	217.38
371.985	315.68
372.434	339.09
372.884	308.66
373.333	271.21
373.782	301.64
374.231	229.08
374.68	301.64
375.129	336.74
375.578	313.34
376.027	259.51
376.475	315.68
376.924	296.96
377.373	285.25
377.822	292.27
378.27	303.98
378.719	271.21
379.167	299.3
379.616	362.49
380.064	329.72
380.512	273.55
380.961	275.89
381.409	289.93
381.857	374.19
382.305	292.27
382.753	339.09
383.201	334.4
383.649	261.85
384.097	303.98
384.545	273.55
384.992	339.09
385.44	271.21
385.888	350.79
386.335	296.96
386.783	348.45
387.231	329.72
387.678	285.25
388.125	339.09
388.573	332.06
389.02	292.27
389.467	311
389.914	367.17
390.362	245.46
390.809	254.83
391.256	301.64
391.703	301.64
392.15	278.23
392.596	357.81
393.043	334.4
393.49	329.72
393.937	278.23
394.383	303.98
394.83	339.09
395.276	313.34
395.723	315.68
396.169	322.7
396.616	339.09
397.062	325.04
397.508	357.81
397.954	383.56
398.401	231.42
398.847	362.49
399.293	346.11
399.739	296.96
400.185	271.21
400.631	224.4
401.076	299.3
401.522	308.66
401.968	303.98
402.414	271.21
402.859	294.61
403.305	275.89
403.75	313.34
404.196	329.72
404.641	336.74
405.086	311
405.532	320.36
405.977	334.4
406.422	306.32
406.867	308.66
407.312	362.49
407.757	320.36
408.202	327.38
408.647	341.43
409.092	299.3
409.537	261.85
409.982	343.77
410.426	289.93
410.871	287.59
411.316	299.3
411.76	257.17
412.205	289.93
412.649	257.17
413.093	318.02
413.538	341.43
413.982	212.7
414.426	322.7
414.87	343.77
415.314	299.3
415.758	334.4
416.202	350.79
416.646	320.36
417.09	346.11
417.534	341.43
417.978	346.11
418.421	282.91
418.865	329.72
419.309	383.56
419.752	311
420.196	289.93
420.639	296.96
421.083	381.21
421.526	360.15
421.969	362.49
422.412	322.7
422.856	238.44
423.299	332.06
423.742	273.55
424.185	303.98
424.628	264.19
425.071	353.13
425.513	339.09
425.956	367.17
426.399	245.46
426.842	315.68
427.284	308.66
427.727	357.81
428.169	329.72
428.612	325.04
429.054	327.38
429.497	289.93
429.939	339.09
430.381	268.87
430.823	360.15
431.265	285.25
431.707	261.85
432.149	254.83
432.591	261.85
433.033	339.09
433.475	334.4
433.917	308.66
434.359	268.87
434.8	303.98
435.242	325.04
435.684	327.38
436.125	303.98
436.567	350.79
437.008	357.81
437.449	289.93
437.891	341.43
438.332	259.51
438.773	264.19
439.214	282.91
439.656	322.7
440.097	231.42
440.538	322.7
440.978	278.23
441.419	325.04
441.86	343.77
442.301	350.79
442.742	273.55
443.182	313.34
443.623	252.49
444.063	285.25
444.504	292.27
444.944	278.23
445.385	315.68
445.825	318.02
446.265	320.36
446.706	282.91
447.146	275.89
447.586	308.66
448.026	322.7
448.466	301.64
448.906	353.13
449.346	292.27
449.786	303.98
450.225	296.96
450.665	292.27
451.105	308.66
451.544	348.45
451.984	367.17
452.424	332.06
452.863	301.64
453.302	350.79
453.742	250.14
454.181	296.96
454.62	259.51
455.059	311
455.499	301.64
455.938	388.24
456.377	341.43
456.816	257.17
457.254	301.64
457.693	371.85
458.132	259.51
458.571	343.77
459.01	268.87
459.448	231.42
459.887	289.93
460.325	318.02
460.764	332.06
461.202	285.25
461.641	318.02
462.079	332.06
462.517	224.4
462.955	306.32
463.393	311
463.832	322.7
464.27	254.83
464.708	303.98
465.145	322.7
465.583	367.17
466.021	278.23
466.459	334.4
466.897	278.23
467.334	273.55
467.772	264.19
468.209	332.06
468.647	336.74
469.084	318.02
469.522	343.77
469.959	306.32
470.396	329.72
470.833	341.43
471.271	346.11
471.708	327.38
472.145	322.7
472.582	306.32
473.019	315.68
473.456	294.61
473.892	369.51
474.329	325.04
474.766	327.38
475.202	308.66
475.639	301.64
476.076	311
476.512	341.43
476.949	341.43
477.385	332.06
477.821	348.45
478.258	376.53
478.694	273.55
479.13	254.83
479.566	278.23
480.002	292.27
480.438	311
480.874	315.68
481.31	329.72
481.746	233.76
482.181	343.77
482.617	315.68
483.053	383.56
483.488	329.72
483.924	355.47
484.36	303.98
484.795	275.89
485.23	360.15
485.666	264.19
486.101	369.51
486.536	334.4
486.971	268.87
487.407	362.49
487.842	296.96
488.277	315.68
488.712	289.93
489.146	294.61
489.581	327.38
490.016	308.66
490.451	271.21
490.885	346.11
491.32	329.72
491.755	318.02
492.189	341.43
492.624	327.38
493.058	341.43
493.492	278.23
493.927	378.87
494.361	343.77
494.795	322.7
495.229	287.59
495.663	355.47
496.097	385.9
496.531	332.06
496.965	264.19
497.399	308.66
497.833	308.66
498.266	325.04
498.7	339.09
499.134	296.96
499.567	289.93
500.001	350.79
500.434	299.3
500.868	301.64
501.301	318.02
501.734	303.98
502.168	339.09
502.601	350.79
503.034	320.36
503.467	341.43
503.9	329.72
504.333	292.27
504.766	329.72
505.199	353.13
505.632	315.68
506.064	320.36
506.497	292.27
506.93	273.55
507.362	285.25
507.795	332.06
508.227	329.72
508.66	371.85
509.092	343.77
509.524	334.4
509.956	362.49
510.389	339.09
510.821	303.98
511.253	303.98
511.685	289.93
512.117	369.51
512.549	306.32
512.981	325.04
513.412	315.68
513.844	346.11
514.276	259.51
514.707	378.87
515.139	303.98
515.571	299.3
516.002	378.87
516.433	313.34
516.865	268.87
517.296	381.21
517.727	318.02
518.159	339.09
518.59	329.72
519.021	341.43
519.452	336.74
519.883	341.43
520.314	329.72
520.744	273.55
521.175	264.19
521.606	346.11
522.037	311
522.467	306.32
522.898	273.55
523.328	362.49
523.759	336.74
524.189	320.36
524.62	360.15
525.05	315.68
525.48	402.28
525.91	336.74
526.341	325.04
526.771	329.72
527.201	322.7
527.631	341.43
528.061	313.34
528.49	322.7
528.92	292.27
529.35	343.77
529.78	334.4
530.209	339.09
530.639	325.04
531.068	301.64
531.498	318.02
531.927	266.53
532.357	292.27
532.786	275.89
533.215	306.32
533.644	299.3
534.074	367.17
534.503	371.85
534.932	292.27
535.361	285.25
535.79	336.74
536.218	329.72
536.647	313.34
537.076	320.36
537.505	287.59
537.933	299.3
538.362	371.85
538.79	292.27
539.219	264.19
539.647	308.66
540.076	299.3
540.504	266.53
540.932	367.17
541.36	282.91
541.788	308.66
542.217	313.34
542.645	301.64
543.073	339.09
543.5	334.4
543.928	336.74
544.356	339.09
544.784	278.23
545.211	296.96
545.639	336.74
546.067	243.12
546.494	320.36
546.922	247.8
547.349	303.98
547.776	313.34
548.204	285.25
548.631	329.72
549.058	296.96
549.485	329.72
549.912	371.85
550.339	311
550.766	282.91
551.193	303.98
551.62	343.77
552.047	252.49
552.474	292.27
552.9	301.64
553.327	329.72
553.754	318.02
554.18	327.38
554.607	334.4
555.033	301.64
555.459	343.77
555.886	332.06
556.312	360.15
556.738	285.25
557.164	268.87
557.59	271.21
558.016	296.96
558.442	292.27
558.868	278.23
559.294	360.15
559.72	378.87
560.145	271.21
560.571	282.91
560.997	332.06
561.422	301.64
561.848	306.32
562.273	369.51
562.699	282.91
563.124	367.17
563.549	339.09
563.974	332.06
564.4	282.91
564.825	296.96
565.25	301.64
565.675	315.68
566.1	413.98
566.525	301.64
566.95	322.7
567.374	264.19
567.799	303.98
568.224	240.78
568.648	282.91
569.073	231.42
569.497	343.77
569.922	325.04
570.346	299.3
570.771	311
571.195	303.98
571.619	308.66
572.043	299.3
572.467	285.25
572.891	268.87
573.315	343.77
573.739	392.92
574.163	350.79
574.587	259.51
575.011	313.34
575.435	294.61
575.858	318.02
576.282	339.09
576.705	280.57
577.129	296.96
577.552	301.64
577.976	289.93
578.399	339.09
578.822	374.19
579.245	350.79
579.669	315.68
580.092	350.79
580.515	329.72
580.938	355.47
581.361	367.17
581.784	318.02
582.206	315.68
582.629	240.78
583.052	266.53
583.474	357.81
583.897	327.38
584.32	322.7
584.742	308.66
585.165	268.87
585.587	278.23
586.009	303.98
586.431	325.04
586.854	299.3
587.276	318.02
587.698	294.61
588.12	273.55
588.542	285.25
588.964	350.79
589.386	257.17
589.807	343.77
590.229	343.77
590.651	306.32
591.073	385.9
591.494	353.13
591.916	303.98
592.337	257.17
592.759	350.79
593.18	306.32
593.601	318.02
594.022	301.64
594.444	343.77
594.865	339.09
595.286	350.79
595.707	299.3
596.128	334.4
596.549	266.53
596.97	320.36
597.39	348.45
597.811	332.06
598.232	308.66
598.652	296.96
599.073	311
599.494	320.36
599.914	311
600.334	322.7
600.755	318.02
601.175	292.27
601.595	306.32
602.015	339.09
602.436	226.74
602.856	406.96
603.276	334.4
603.696	383.56
604.115	282.91
604.535	343.77
604.955	278.23
605.375	285.25
605.794	261.85
606.214	254.83
606.634	266.53
607.053	308.66
607.473	348.45
607.892	322.7
608.311	325.04
608.731	339.09
609.15	332.06
609.569	315.68
609.988	292.27
610.407	299.3
610.826	301.64
611.245	254.83
611.664	421
612.083	339.09
612.501	275.89
612.92	301.64
613.339	353.13
613.757	308.66
614.176	250.14
614.594	296.96
615.013	334.4
615.431	332.06
615.85	346.11
616.268	205.67
616.686	336.74
617.104	308.66
617.522	296.96
617.94	318.02
618.358	346.11
618.776	271.21
619.194	327.38
619.612	247.8
620.03	332.06
620.447	271.21
620.865	261.85
621.282	289.93
621.7	381.21
622.117	339.09
622.535	303.98
622.952	303.98
623.369	322.7
623.787	308.66
624.204	231.42
624.621	311
625.038	325.04
625.455	315.68
625.872	294.61
626.289	261.85
626.706	343.77
627.123	299.3
627.539	299.3
627.956	306.32
628.373	346.11
628.789	285.25
629.206	350.79
629.622	299.3
630.038	322.7
630.455	313.34
630.871	315.68
631.287	320.36
631.703	257.17
632.12	301.64
632.536	362.49
632.952	266.53
633.368	301.64
633.783	306.32
634.199	287.59
634.615	280.57
635.031	353.13
635.446	325.04
635.862	336.74
636.277	322.7
636.693	289.93
637.108	336.74
637.524	289.93
637.939	350.79
638.354	329.72
638.77	299.3
639.185	364.83
639.6	308.66
640.015	325.04
640.43	325.04
640.845	299.3
641.259	322.7
641.674	294.61
642.089	243.12
642.504	289.93
642.918	346.11
643.333	254.83
643.747	245.46
644.162	299.3
644.576	336.74
644.991	289.93
645.405	329.72
645.819	371.85
646.233	280.57
646.647	285.25
647.061	341.43
647.475	282.91
647.889	289.93
648.303	350.79
648.717	282.91
649.131	334.4
649.545	306.32
649.958	336.74
650.372	339.09
650.785	264.19
651.199	271.21
651.612	238.44
652.026	303.98
652.439	301.64
652.852	329.72
653.266	308.66
653.679	273.55
654.092	273.55
654.505	264.19
654.918	315.68
655.331	318.02
655.744	353.13
656.156	348.45
656.569	339.09
656.982	294.61
657.394	299.3
657.807	327.38
658.22	268.87
658.632	282.91
659.044	264.19
659.457	275.89
659.869	350.79
660.281	374.19
660.693	278.23
661.106	306.32
661.518	329.72
661.93	334.4
662.342	341.43
662.754	308.66
663.165	280.57
663.577	301.64
663.989	303.98
664.401	301.64
664.812	275.89
665.224	369.51
665.635	273.55
666.047	301.64
666.458	320.36
666.869	367.17
667.281	348.45
667.692	311
668.103	236.1
668.514	348.45
668.925	278.23
669.336	301.64
669.747	292.27
670.158	301.64
670.569	301.64
670.979	261.85
671.39	273.55
671.801	311
672.211	362.49
672.622	296.96
673.032	294.61
673.443	301.64
673.853	315.68
674.263	336.74
674.674	318.02
675.084	296.96
675.494	250.14
675.904	308.66
676.314	374.19
676.724	355.47
677.134	346.11
677.544	252.49
677.953	313.34
678.363	346.11
678.773	318.02
679.182	322.7
679.592	299.3
680.001	348.45
680.411	336.74
680.82	336.74
681.23	287.59
681.639	294.61
682.048	390.58
682.457	266.53
682.866	289.93
683.275	257.17
683.684	320.36
684.093	289.93
684.502	315.68
684.911	327.38
685.32	250.14
685.728	278.23
686.137	289.93
686.546	299.3
686.954	285.25
687.363	336.74
687.771	308.66
688.179	233.76
688.588	280.57
688.996	320.36
689.404	285.25
689.812	299.3
690.22	303.98
690.628	294.61
691.036	325.04
691.444	367.17
691.852	341.43
692.26	254.83
692.667	259.51
693.075	336.74
693.483	273.55
693.89	376.53
694.298	278.23
694.705	336.74
695.112	346.11
695.52	315.68
695.927	348.45
696.334	327.38
696.741	346.11
697.148	322.7
697.555	299.3
697.962	301.64
698.369	332.06
698.776	374.19
699.183	250.14
699.59	336.74
699.996	296.96
700.403	306.32
700.81	289.93
701.216	294.61
701.623	322.7
702.029	285.25
702.435	364.83
702.842	266.53
703.248	268.87
703.654	320.36
704.06	311
704.466	318.02
704.872	311
705.278	364.83
705.684	250.14
706.09	306.32
706.496	336.74
706.901	292.27
707.307	308.66
707.712	233.76
708.118	294.61
708.523	266.53
708.929	362.49
709.334	327.38
709.74	299.3
710.145	329.72
710.55	264.19
710.955	313.34
711.36	350.79
711.765	289.93
712.17	348.45
712.575	301.64
712.98	858.68
713.385	325.04
713.789	289.93
714.194	311
714.599	334.4
715.003	275.89
715.408	271.21
715.812	332.06
716.217	296.96
716.621	271.21
717.025	371.85
717.429	397.6
717.833	287.59
718.238	275.89
718.642	322.7
719.046	303.98
719.449	264.19
719.853	332.06
720.257	362.49
720.661	301.64
721.065	222.06
721.468	268.87
721.872	315.68
722.275	360.15
722.679	320.36
723.082	229.08
723.485	261.85
723.889	294.61
724.292	301.64
724.695	311
725.098	264.19
725.501	271.21
725.904	292.27
726.307	329.72
726.71	306.32
727.113	311
727.516	299.3
727.918	301.64
728.321	259.51
728.724	299.3
729.126	273.55
729.529	336.74
729.931	357.81
730.333	280.57
730.736	294.61
731.138	292.27
731.54	275.89
731.942	254.83
732.344	322.7
732.746	268.87
733.148	334.4
733.55	245.46
733.952	381.21
734.354	282.91
734.756	271.21
735.157	261.85
735.559	325.04
735.96	327.38
736.362	292.27
736.763	275.89
737.165	388.24
737.566	280.57
737.967	299.3
738.368	325.04
738.77	301.64
739.171	357.81
739.572	285.25
739.973	308.66
740.374	294.61
740.774	287.59
741.175	296.96
741.576	292.27
741.977	294.61
742.377	296.96
742.778	308.66
743.178	332.06
743.579	339.09
743.979	334.4
744.379	285.25
744.78	308.66
745.18	282.91
745.58	282.91
745.98	285.25
746.38	311
746.78	266.53
747.18	301.64
747.58	357.81
747.98	236.1
748.38	348.45
748.779	311
749.179	362.49
749.578	245.46
749.978	296.96
750.377	306.32
750.777	357.81
751.176	308.66
751.575	320.36
751.975	308.66
752.374	285.25
752.773	353.13
753.172	280.57
753.571	273.55
753.97	360.15
754.369	343.77
754.768	322.7
755.166	318.02
755.565	315.68
755.964	306.32
756.362	261.85
756.761	306.32
757.159	364.83
757.558	318.02
757.956	275.89
758.354	280.57
758.753	322.7
759.151	336.74
759.549	336.74
759.947	296.96
760.345	294.61
760.743	236.1
761.141	313.34
761.539	266.53
761.936	318.02
762.334	306.32
762.732	254.83
763.129	343.77
763.527	343.77
763.924	322.7
764.322	336.74
764.719	282.91
765.117	318.02
765.514	280.57
765.911	278.23
766.308	308.66
766.705	301.64
767.102	336.74
