Data from Al_FLMS009871__1037__16-23-59-615.txt Node

Date: Fri Mar 08 16:23:59 CST 2024
User: pe5414po
Spectrometer: FLMS00987
Trigger mode: 0
Integration Time (sec): 1.000000E-1
Scans to average: 1
Electric dark correction enabled: true
Nonlinearity correction enabled: false
Boxcar width: 0
XAxis mode: Wavelengths
Number of Pixels in Spectrum: 2048
>>>>>Begin Spectral Data<<<<<
188.938	-32.91
189.409	-32.91
189.879	-32.91
190.349	-72.7
190.819	-91.43
191.29	-72.7
191.76	-84.41
192.23	-91.43
192.7	-56.32
193.17	-51.64
193.64	-37.59
194.109	-93.77
194.579	-0.15
195.049	32.62
195.519	53.69
195.988	37.3
196.458	-32.91
196.927	18.58
197.397	142.63
197.866	114.54
198.336	121.56
198.805	208.16
199.274	247.95
199.744	187.1
200.213	229.23
200.682	205.82
201.151	257.31
201.62	236.25
202.089	219.86
202.558	306.46
203.027	266.67
203.495	311.14
203.964	219.86
204.433	278.38
204.902	311.14
205.37	311.14
205.839	327.53
206.307	306.46
206.776	297.1
207.244	271.36
207.712	313.49
208.181	280.72
208.649	343.91
209.117	353.27
209.585	290.08
210.053	315.83
210.521	299.44
210.989	348.59
211.457	311.14
211.925	280.72
212.393	311.14
212.861	294.76
213.328	271.36
213.796	299.44
214.264	304.12
214.731	332.21
215.199	315.83
215.666	318.17
216.133	243.27
216.601	292.42
217.068	283.06
217.535	297.1
218.003	257.31
218.47	308.8
218.937	299.44
219.404	360.3
219.871	222.2
220.338	278.38
220.805	224.55
221.271	257.31
221.738	254.97
222.205	278.38
222.671	259.65
223.138	290.08
223.605	212.84
224.071	266.67
224.538	287.74
225.004	254.97
225.47	280.72
225.937	264.33
226.403	301.78
226.869	198.8
227.335	210.5
227.801	224.55
228.267	280.72
228.733	294.76
229.199	243.27
229.665	315.83
230.131	308.8
230.597	327.53
231.062	283.06
231.528	285.4
231.994	292.42
232.459	318.17
232.925	341.57
233.39	266.67
233.856	297.1
234.321	191.78
234.786	261.99
235.252	254.97
235.717	283.06
236.182	208.16
236.647	278.38
237.112	322.85
237.577	261.99
238.042	332.21
238.507	229.23
238.972	306.46
239.436	297.1
239.901	271.36
240.366	254.97
240.83	259.65
241.295	292.42
241.76	292.42
242.224	350.93
242.688	285.4
243.153	259.65
243.617	355.62
244.081	252.63
244.545	240.93
245.01	292.42
245.474	292.42
245.938	318.17
246.402	285.4
246.866	301.78
247.33	327.53
247.793	369.66
248.257	322.85
248.721	278.38
249.185	327.53
249.648	313.49
250.112	264.33
250.575	273.7
251.039	278.38
251.502	276.04
251.965	315.83
252.429	304.12
252.892	346.25
253.355	339.23
253.818	348.59
254.281	339.23
254.744	306.46
255.207	313.49
255.67	304.12
256.133	252.63
256.596	318.17
257.059	287.74
257.522	315.83
257.984	297.1
258.447	280.72
258.909	280.72
259.372	301.78
259.834	297.1
260.297	311.14
260.759	276.04
261.221	369.66
261.684	318.17
262.146	292.42
262.608	294.76
263.07	311.14
263.532	301.78
263.994	290.08
264.456	416.47
264.918	329.87
265.38	271.36
265.842	290.08
266.303	280.72
266.765	283.06
267.227	322.85
267.688	308.8
268.15	290.08
268.611	318.17
269.072	355.62
269.534	348.59
269.995	336.89
270.456	304.12
270.918	299.44
271.379	313.49
271.84	313.49
272.301	327.53
272.762	297.1
273.223	294.76
273.684	325.19
274.144	339.23
274.605	290.08
275.066	250.29
275.527	334.55
275.987	320.51
276.448	341.57
276.908	313.49
277.369	348.59
277.829	372
278.289	304.12
278.75	236.25
279.21	334.55
279.67	313.49
280.13	259.65
280.59	292.42
281.05	322.85
281.51	264.33
281.97	306.46
282.43	353.27
282.89	313.49
283.35	297.1
283.809	327.53
284.269	283.06
284.729	320.51
285.188	334.55
285.648	292.42
286.107	313.49
286.567	276.04
287.026	276.04
287.485	343.91
287.944	304.12
288.404	343.91
288.863	306.46
289.322	334.55
289.781	315.83
290.24	283.06
290.699	254.97
291.158	250.29
291.616	311.14
292.075	367.32
292.534	304.12
292.992	336.89
293.451	325.19
293.91	336.89
294.368	308.8
294.827	339.23
295.285	299.44
295.743	259.65
296.202	261.99
296.66	257.31
297.118	261.99
297.576	360.3
298.034	353.27
298.492	304.12
298.95	269.02
299.408	313.49
299.866	297.1
300.324	273.7
300.781	264.33
301.239	297.1
301.697	334.55
302.154	287.74
302.612	247.95
303.069	294.76
303.527	320.51
303.984	339.23
304.441	353.27
304.899	320.51
305.356	334.55
305.813	271.36
306.27	294.76
306.727	245.61
307.184	318.17
307.641	348.59
308.098	322.85
308.555	245.61
309.012	360.3
309.468	304.12
309.925	341.57
310.382	367.32
310.838	355.62
311.295	297.1
311.751	348.59
312.208	367.32
312.664	257.31
313.12	313.49
313.577	311.14
314.033	280.72
314.489	285.4
314.945	315.83
315.401	283.06
315.857	290.08
316.313	318.17
316.769	339.23
317.225	297.1
317.681	383.7
318.136	327.53
318.592	313.49
319.048	318.17
319.503	353.27
319.959	271.36
320.414	327.53
320.869	273.7
321.325	285.4
321.78	325.19
322.235	285.4
322.691	276.04
323.146	308.8
323.601	278.38
324.056	357.96
324.511	287.74
324.966	292.42
325.421	304.12
325.875	367.32
326.33	383.7
326.785	362.64
327.24	327.53
327.694	315.83
328.149	369.66
328.603	322.85
329.058	334.55
329.512	280.72
329.966	311.14
330.421	297.1
330.875	254.97
331.329	283.06
331.783	243.27
332.237	290.08
332.691	306.46
333.145	280.72
333.599	332.21
334.053	318.17
334.507	336.89
334.96	283.06
335.414	355.62
335.868	386.04
336.321	350.93
336.775	332.21
337.228	360.3
337.682	336.89
338.135	285.4
338.588	311.14
339.042	343.91
339.495	320.51
339.948	280.72
340.401	325.19
340.854	341.57
341.307	334.55
341.76	364.98
342.213	294.76
342.666	311.14
343.119	334.55
343.571	348.59
344.024	280.72
344.477	250.29
344.929	364.98
345.382	278.38
345.834	332.21
346.287	346.25
346.739	329.87
347.191	252.63
347.644	273.7
348.096	325.19
348.548	290.08
349	355.62
349.452	299.44
349.904	294.76
350.356	315.83
350.808	383.7
351.26	383.7
351.711	252.63
352.163	287.74
352.615	357.96
353.066	346.25
353.518	280.72
353.969	285.4
354.421	259.65
354.872	294.76
355.324	355.62
355.775	322.85
356.226	297.1
356.677	367.32
357.128	283.06
357.579	294.76
358.03	320.51
358.481	315.83
358.932	276.04
359.383	318.17
359.834	292.42
360.285	346.25
360.735	297.1
361.186	357.96
361.637	374.34
362.087	271.36
362.538	369.66
362.988	325.19
363.438	271.36
363.889	308.8
364.339	346.25
364.789	376.68
365.239	283.06
365.689	341.57
366.139	341.57
366.589	341.57
367.039	299.44
367.489	360.3
367.939	362.64
368.389	329.87
368.839	343.91
369.288	322.85
369.738	404.77
370.187	348.59
370.637	308.8
371.086	297.1
371.536	297.1
371.985	318.17
372.434	308.8
372.884	308.8
373.333	400.09
373.782	273.7
374.231	290.08
374.68	322.85
375.129	332.21
375.578	348.59
376.027	355.62
376.475	271.36
376.924	348.59
377.373	362.64
377.822	285.4
378.27	332.21
378.719	313.49
379.167	322.85
379.616	315.83
380.064	273.7
380.512	320.51
380.961	311.14
381.409	367.32
381.857	325.19
382.305	252.63
382.753	261.99
383.201	327.53
383.649	369.66
384.097	325.19
384.545	332.21
384.992	336.89
385.44	350.93
385.888	301.78
386.335	329.87
386.783	325.19
387.231	374.34
387.678	320.51
388.125	364.98
388.573	313.49
389.02	287.74
389.467	304.12
389.914	252.63
390.362	290.08
390.809	292.42
391.256	287.74
391.703	320.51
392.15	350.93
392.596	322.85
393.043	308.8
393.49	329.87
393.937	290.08
394.383	339.23
394.83	320.51
395.276	350.93
395.723	346.25
396.169	313.49
396.616	322.85
397.062	360.3
397.508	315.83
397.954	271.36
398.401	329.87
398.847	311.14
399.293	357.96
399.739	311.14
400.185	261.99
400.631	280.72
401.076	318.17
401.522	341.57
401.968	280.72
402.414	322.85
402.859	360.3
403.305	346.25
403.75	264.33
404.196	322.85
404.641	343.91
405.086	348.59
405.532	341.57
405.977	336.89
406.422	334.55
406.867	320.51
407.312	266.67
407.757	236.25
408.202	318.17
408.647	273.7
409.092	266.67
409.537	334.55
409.982	322.85
410.426	350.93
410.871	332.21
411.316	357.96
411.76	409.45
412.205	339.23
412.649	353.27
413.093	278.38
413.538	261.99
413.982	325.19
414.426	318.17
414.87	315.83
415.314	334.55
415.758	346.25
416.202	292.42
416.646	318.17
417.09	292.42
417.534	357.96
417.978	388.38
418.421	393.06
418.865	364.98
419.309	327.53
419.752	355.62
420.196	372
420.639	341.57
421.083	299.44
421.526	332.21
421.969	318.17
422.412	283.06
422.856	362.64
423.299	294.76
423.742	353.27
424.185	374.34
424.628	318.17
425.071	315.83
425.513	278.38
425.956	320.51
426.399	318.17
426.842	350.93
427.284	325.19
427.727	348.59
428.169	332.21
428.612	313.49
429.054	339.23
429.497	343.91
429.939	336.89
430.381	329.87
430.823	269.02
431.265	360.3
431.707	292.42
432.149	369.66
432.591	388.38
433.033	329.87
433.475	301.78
433.917	290.08
434.359	329.87
434.8	278.38
435.242	299.44
435.684	294.76
436.125	374.34
436.567	285.4
437.008	339.23
437.449	379.02
437.891	381.36
438.332	332.21
438.773	343.91
439.214	369.66
439.656	348.59
440.097	353.27
440.538	297.1
440.978	357.96
441.419	315.83
441.86	322.85
442.301	343.91
442.742	353.27
443.182	290.08
443.623	292.42
444.063	334.55
444.504	311.14
444.944	297.1
445.385	308.8
445.825	308.8
446.265	311.14
446.706	308.8
447.146	311.14
447.586	322.85
448.026	327.53
448.466	350.93
448.906	369.66
449.346	355.62
449.786	269.02
450.225	341.57
450.665	306.46
451.105	381.36
451.544	341.57
451.984	339.23
452.424	334.55
452.863	311.14
453.302	367.32
453.742	297.1
454.181	341.57
454.62	339.23
455.059	374.34
455.499	332.21
455.938	301.78
456.377	343.91
456.816	350.93
457.254	364.98
457.693	362.64
458.132	346.25
458.571	297.1
459.01	343.91
459.448	407.11
459.887	315.83
460.325	336.89
460.764	325.19
461.202	306.46
461.641	339.23
462.079	390.72
462.517	280.72
462.955	306.46
463.393	306.46
463.832	336.89
464.27	334.55
464.708	346.25
465.145	325.19
465.583	287.74
466.021	336.89
466.459	362.64
466.897	350.93
467.334	315.83
467.772	339.23
468.209	374.34
468.647	269.02
469.084	395.4
469.522	353.27
469.959	290.08
470.396	313.49
470.833	325.19
471.271	379.02
471.708	390.72
472.145	355.62
472.582	311.14
473.019	381.36
473.456	315.83
473.892	325.19
474.329	318.17
474.766	308.8
475.202	372
475.639	287.74
476.076	287.74
476.512	369.66
476.949	374.34
477.385	311.14
477.821	283.06
478.258	343.91
478.694	306.46
479.13	299.44
479.566	318.17
480.002	355.62
480.438	306.46
480.874	320.51
481.31	322.85
481.746	402.43
482.181	318.17
482.617	334.55
483.053	355.62
483.488	339.23
483.924	336.89
484.36	308.8
484.795	325.19
485.23	355.62
485.666	308.8
486.101	322.85
486.536	383.7
486.971	301.78
487.407	290.08
487.842	299.44
488.277	301.78
488.712	388.38
489.146	336.89
489.581	355.62
490.016	393.06
490.451	360.3
490.885	357.96
491.32	346.25
491.755	313.49
492.189	322.85
492.624	343.91
493.058	304.12
493.492	355.62
493.927	325.19
494.361	329.87
494.795	362.64
495.229	325.19
495.663	388.38
496.097	306.46
496.531	285.4
496.965	395.4
497.399	334.55
497.833	362.64
498.266	339.23
498.7	278.38
499.134	322.85
499.567	339.23
500.001	329.87
500.434	350.93
500.868	334.55
501.301	278.38
501.734	308.8
502.168	355.62
502.601	278.38
503.034	311.14
503.467	334.55
503.9	290.08
504.333	346.25
504.766	287.74
505.199	364.98
505.632	315.83
506.064	322.85
506.497	308.8
506.93	353.27
507.362	294.76
507.795	315.83
508.227	353.27
508.66	294.76
509.092	381.36
509.524	376.68
509.956	334.55
510.389	320.51
510.821	301.78
511.253	339.23
511.685	318.17
512.117	325.19
512.549	304.12
512.981	308.8
513.412	327.53
513.844	341.57
514.276	315.83
514.707	325.19
515.139	318.17
515.571	322.85
516.002	306.46
516.433	334.55
516.865	343.91
517.296	318.17
517.727	259.65
518.159	269.02
518.59	325.19
519.021	320.51
519.452	304.12
519.883	339.23
520.314	362.64
520.744	283.06
521.175	322.85
521.606	301.78
522.037	318.17
522.467	278.38
522.898	318.17
523.328	343.91
523.759	355.62
524.189	346.25
524.62	273.7
525.05	397.74
525.48	297.1
525.91	308.8
526.341	332.21
526.771	374.34
527.201	381.36
527.631	315.83
528.061	290.08
528.49	320.51
528.92	350.93
529.35	292.42
529.78	245.61
530.209	308.8
530.639	299.44
531.068	311.14
531.498	322.85
531.927	341.57
532.357	397.74
532.786	355.62
533.215	327.53
533.644	306.46
534.074	283.06
534.503	376.68
534.932	421.15
535.361	332.21
535.79	381.36
536.218	346.25
536.647	327.53
537.076	360.3
537.505	353.27
537.933	357.96
538.362	341.57
538.79	341.57
539.219	400.09
539.647	329.87
540.076	322.85
540.504	353.27
540.932	301.78
541.36	320.51
541.788	318.17
542.217	386.04
542.645	339.23
543.073	360.3
543.5	322.85
543.928	350.93
544.356	271.36
544.784	308.8
545.211	367.32
545.639	334.55
546.067	301.78
546.494	332.21
546.922	318.17
547.349	322.85
547.776	325.19
548.204	341.57
548.631	283.06
549.058	280.72
549.485	315.83
549.912	306.46
550.339	325.19
550.766	383.7
551.193	318.17
551.62	297.1
552.047	362.64
552.474	320.51
552.9	383.7
553.327	355.62
553.754	386.04
554.18	395.4
554.607	280.72
555.033	290.08
555.459	322.85
555.886	318.17
556.312	346.25
556.738	336.89
557.164	369.66
557.59	376.68
558.016	327.53
558.442	318.17
558.868	332.21
559.294	367.32
559.72	280.72
560.145	346.25
560.571	346.25
560.997	362.64
561.422	402.43
561.848	350.93
562.273	346.25
562.699	383.7
563.124	325.19
563.549	379.02
563.974	390.72
564.4	350.93
564.825	290.08
565.25	325.19
565.675	353.27
566.1	320.51
566.525	339.23
566.95	285.4
567.374	381.36
567.799	292.42
568.224	355.62
568.648	332.21
569.073	353.27
569.497	348.59
569.922	369.66
570.346	364.98
570.771	400.09
571.195	339.23
571.619	327.53
572.043	372
572.467	388.38
572.891	348.59
573.315	308.8
573.739	304.12
574.163	311.14
574.587	325.19
575.011	341.57
575.435	313.49
575.858	386.04
576.282	313.49
576.705	357.96
577.129	353.27
577.552	320.51
577.976	341.57
578.399	273.7
578.822	350.93
579.245	362.64
579.669	318.17
580.092	339.23
580.515	383.7
580.938	315.83
581.361	362.64
581.784	308.8
582.206	285.4
582.629	364.98
583.052	297.1
583.474	334.55
583.897	308.8
584.32	287.74
584.742	327.53
585.165	311.14
585.587	343.91
586.009	318.17
586.431	348.59
586.854	346.25
587.276	393.06
587.698	357.96
588.12	318.17
588.542	350.93
588.964	379.02
589.386	327.53
589.807	364.98
590.229	327.53
590.651	301.78
591.073	259.65
591.494	322.85
591.916	439.87
592.337	355.62
592.759	322.85
593.18	325.19
593.601	343.91
594.022	364.98
594.444	360.3
594.865	353.27
595.286	362.64
595.707	306.46
596.128	271.36
596.549	390.72
596.97	400.09
597.39	315.83
597.811	311.14
598.232	308.8
598.652	297.1
599.073	329.87
599.494	339.23
599.914	313.49
600.334	308.8
600.755	292.42
601.175	322.85
601.595	290.08
602.015	325.19
602.436	318.17
602.856	496.05
603.276	329.87
603.696	350.93
604.115	343.91
604.535	355.62
604.955	304.12
605.375	336.89
605.794	372
606.214	297.1
606.634	355.62
607.053	367.32
607.473	336.89
607.892	325.19
608.311	353.27
608.731	332.21
609.15	285.4
609.569	332.21
609.988	362.64
610.407	325.19
610.826	353.27
611.245	339.23
611.664	329.87
612.083	306.46
612.501	273.7
612.92	339.23
613.339	336.89
613.757	350.93
614.176	325.19
614.594	355.62
615.013	346.25
615.431	350.93
615.85	297.1
616.268	357.96
616.686	383.7
617.104	383.7
617.522	357.96
617.94	339.23
618.358	350.93
618.776	388.38
619.194	350.93
619.612	350.93
620.03	360.3
620.447	348.59
620.865	301.78
621.282	259.65
621.7	381.36
622.117	315.83
622.535	308.8
622.952	318.17
623.369	292.42
623.787	362.64
624.204	329.87
624.621	332.21
625.038	364.98
625.455	332.21
625.872	386.04
626.289	355.62
626.706	372
627.123	388.38
627.539	339.23
627.956	280.72
628.373	393.06
628.789	362.64
629.206	343.91
629.622	393.06
630.038	374.34
630.455	304.12
630.871	292.42
631.287	292.42
631.703	308.8
632.12	280.72
632.536	367.32
632.952	308.8
633.368	332.21
633.783	346.25
634.199	299.44
634.615	336.89
635.031	318.17
635.446	278.38
635.862	350.93
636.277	290.08
636.693	313.49
637.108	308.8
637.524	339.23
637.939	329.87
638.354	336.89
638.77	297.1
639.185	299.44
639.6	304.12
640.015	341.57
640.43	285.4
640.845	339.23
641.259	266.67
641.674	343.91
642.089	353.27
642.504	348.59
642.918	285.4
643.333	381.36
643.747	348.59
644.162	315.83
644.576	383.7
644.991	348.59
645.405	343.91
645.819	322.85
646.233	329.87
646.647	332.21
647.061	336.89
647.475	343.91
647.889	348.59
648.303	341.57
648.717	357.96
649.131	304.12
649.545	273.7
649.958	280.72
650.372	240.93
650.785	322.85
651.199	273.7
651.612	364.98
652.026	341.57
652.439	372
652.852	297.1
653.266	322.85
653.679	299.44
654.092	315.83
654.505	315.83
654.918	311.14
655.331	343.91
655.744	285.4
656.156	367.32
656.569	320.51
656.982	280.72
657.394	283.06
657.807	301.78
658.22	383.7
658.632	346.25
659.044	350.93
659.457	341.57
659.869	308.8
660.281	322.85
660.693	336.89
661.106	334.55
661.518	320.51
661.93	308.8
662.342	250.29
662.754	336.89
663.165	372
663.577	444.56
663.989	322.85
664.401	343.91
664.812	360.3
665.224	334.55
665.635	301.78
666.047	311.14
666.458	269.02
666.869	390.72
667.281	325.19
667.692	285.4
668.103	336.89
668.514	283.06
668.925	315.83
669.336	343.91
669.747	339.23
670.158	299.44
670.569	346.25
670.979	297.1
671.39	343.91
671.801	322.85
672.211	374.34
672.622	360.3
673.032	339.23
673.443	231.57
673.853	353.27
674.263	341.57
674.674	292.42
675.084	355.62
675.494	381.36
675.904	292.42
676.314	292.42
676.724	350.93
677.134	383.7
677.544	348.59
677.953	285.4
678.363	252.63
678.773	456.26
679.182	290.08
679.592	364.98
680.001	348.59
680.411	252.63
680.82	292.42
681.23	336.89
681.639	266.67
682.048	308.8
682.457	336.89
682.866	350.93
683.275	327.53
683.684	320.51
684.093	327.53
684.502	276.04
684.911	390.72
685.32	322.85
685.728	332.21
686.137	294.76
686.546	306.46
686.954	353.27
687.363	287.74
687.771	301.78
688.179	376.68
688.588	362.64
688.996	283.06
689.404	287.74
689.812	276.04
690.22	350.93
690.628	348.59
691.036	360.3
691.444	334.55
691.852	353.27
692.26	372
692.667	360.3
693.075	311.14
693.483	292.42
693.89	320.51
694.298	376.68
694.705	278.38
695.112	341.57
695.52	313.49
695.927	388.38
696.334	294.76
696.741	376.68
697.148	357.96
697.555	353.27
697.962	287.74
698.369	311.14
698.776	369.66
699.183	346.25
699.59	367.32
699.996	343.91
700.403	341.57
700.81	367.32
701.216	313.49
701.623	360.3
702.029	376.68
702.435	245.61
702.842	290.08
703.248	315.83
703.654	320.51
704.06	299.44
704.466	308.8
704.872	332.21
705.278	353.27
705.684	299.44
706.09	318.17
706.496	369.66
706.901	311.14
707.307	325.19
707.712	332.21
708.118	327.53
708.523	437.53
708.929	285.4
709.334	292.42
709.74	334.55
710.145	341.57
710.55	325.19
710.955	297.1
711.36	280.72
711.765	348.59
712.17	339.23
712.575	325.19
712.98	877.55
713.385	374.34
713.789	346.25
714.194	299.44
714.599	334.55
715.003	367.32
715.408	369.66
715.812	294.76
716.217	280.72
716.621	325.19
717.025	322.85
717.429	372
717.833	306.46
718.238	294.76
718.642	343.91
719.046	315.83
719.449	376.68
719.853	278.38
720.257	329.87
720.661	329.87
721.065	348.59
721.468	327.53
721.872	311.14
722.275	304.12
722.679	355.62
723.082	346.25
723.485	308.8
723.889	276.04
724.292	339.23
724.695	276.04
725.098	341.57
725.501	322.85
725.904	409.45
726.307	252.63
726.71	325.19
727.113	297.1
727.516	222.2
727.918	315.83
728.321	355.62
728.724	315.83
729.126	320.51
729.529	306.46
729.931	311.14
730.333	285.4
730.736	306.46
731.138	346.25
731.54	334.55
731.942	313.49
732.344	348.59
732.746	311.14
733.148	379.02
733.55	320.51
733.952	315.83
734.354	261.99
734.756	285.4
735.157	329.87
735.559	266.67
735.96	306.46
736.362	327.53
736.763	343.91
737.165	299.44
737.566	325.19
737.967	367.32
738.368	336.89
738.77	283.06
739.171	383.7
739.572	297.1
739.973	285.4
740.374	322.85
740.774	350.93
741.175	341.57
741.576	329.87
741.977	306.46
742.377	334.55
742.778	376.68
743.178	329.87
743.579	261.99
743.979	301.78
744.379	386.04
744.78	285.4
745.18	360.3
745.58	304.12
745.98	299.44
746.38	327.53
746.78	348.59
747.18	325.19
747.58	273.7
747.98	294.76
748.38	383.7
748.779	327.53
749.179	311.14
749.578	341.57
749.978	362.64
750.377	280.72
750.777	285.4
751.176	238.59
751.575	353.27
751.975	301.78
752.374	318.17
752.773	278.38
753.172	287.74
753.571	395.4
753.97	393.06
754.369	327.53
754.768	264.33
755.166	329.87
755.565	299.44
755.964	308.8
756.362	341.57
756.761	327.53
757.159	299.44
757.558	341.57
757.956	346.25
758.354	329.87
758.753	290.08
759.151	304.12
759.549	315.83
759.947	285.4
760.345	364.98
760.743	364.98
761.141	283.06
761.539	315.83
761.936	367.32
762.334	294.76
762.732	327.53
763.129	402.43
763.527	250.29
763.924	350.93
764.322	315.83
764.719	322.85
765.117	327.53
765.514	259.65
765.911	362.64
766.308	278.38
