Data from Al_FLMS009871__1028__16-23-58-715.txt Node

Date: Fri Mar 08 16:23:58 CST 2024
User: pe5414po
Spectrometer: FLMS00987
Trigger mode: 0
Integration Time (sec): 1.000000E-1
Scans to average: 1
Electric dark correction enabled: true
Nonlinearity correction enabled: false
Boxcar width: 0
XAxis mode: Wavelengths
Number of Pixels in Spectrum: 2048
>>>>>Begin Spectral Data<<<<<
188.938	-68.17
189.409	-68.17
189.879	-68.17
190.349	-84.55
190.819	-138.38
191.29	-89.23
191.76	-103.28
192.23	-100.94
192.7	-79.87
193.17	-21.36
193.64	-30.72
194.109	-37.74
194.579	-30.72
195.049	6.73
195.519	13.75
195.988	27.79
196.458	51.2
196.927	23.11
197.397	93.33
197.866	105.03
198.336	172.91
198.805	142.48
199.274	147.16
199.744	168.23
200.213	184.61
200.682	203.33
201.151	179.93
201.62	224.4
202.089	215.04
202.558	196.31
203.027	252.49
203.495	268.87
203.964	303.98
204.433	294.61
204.902	252.49
205.37	261.85
205.839	266.53
206.307	250.14
206.776	311
207.244	252.49
207.712	299.3
208.181	278.23
208.649	308.66
209.117	282.91
209.585	257.17
210.053	229.08
210.521	303.98
210.989	299.3
211.457	273.55
211.925	250.14
212.393	278.23
212.861	254.83
213.328	233.76
213.796	240.78
214.264	247.8
214.731	247.8
215.199	268.87
215.666	303.98
216.133	186.95
216.601	240.78
217.068	254.83
217.535	294.61
218.003	259.51
218.47	303.98
218.937	299.3
219.404	236.1
219.871	254.83
220.338	200.99
220.805	268.87
221.271	247.8
221.738	268.87
222.205	236.1
222.671	231.42
223.138	308.66
223.605	212.7
224.071	224.4
224.538	306.32
225.004	303.98
225.47	233.76
225.937	186.95
226.403	229.08
226.869	252.49
227.335	222.06
227.801	247.8
228.267	252.49
228.733	203.33
229.199	257.17
229.665	303.98
230.131	287.59
230.597	200.99
231.062	266.53
231.528	240.78
231.994	273.55
232.459	238.44
232.925	301.64
233.39	231.42
233.856	294.61
234.321	268.87
234.786	259.51
235.252	264.19
235.717	252.49
236.182	259.51
236.647	261.85
237.112	224.4
237.577	296.96
238.042	233.76
238.507	318.02
238.972	243.12
239.436	243.12
239.901	294.61
240.366	289.93
240.83	308.66
241.295	327.38
241.76	289.93
242.224	334.4
242.688	299.3
243.153	257.17
243.617	275.89
244.081	318.02
244.545	238.44
245.01	243.12
245.474	287.59
245.938	362.49
246.402	224.4
246.866	301.64
247.33	280.57
247.793	233.76
248.257	299.3
248.721	271.21
249.185	287.59
249.648	271.21
250.112	266.53
250.575	271.21
251.039	308.66
251.502	266.53
251.965	318.02
252.429	268.87
252.892	280.57
253.355	275.89
253.818	264.19
254.281	271.21
254.744	233.76
255.207	275.89
255.67	240.78
256.133	301.64
256.596	271.21
257.059	294.61
257.522	240.78
257.984	224.4
258.447	236.1
258.909	308.66
259.372	240.78
259.834	327.38
260.297	238.44
260.759	287.59
261.221	280.57
261.684	327.38
262.146	205.67
262.608	278.23
263.07	332.06
263.532	294.61
263.994	266.53
264.456	318.02
264.918	322.7
265.38	306.32
265.842	287.59
266.303	226.74
266.765	322.7
267.227	226.74
267.688	313.34
268.15	299.3
268.611	259.51
269.072	278.23
269.534	259.51
269.995	292.27
270.456	303.98
270.918	289.93
271.379	233.76
271.84	332.06
272.301	371.85
272.762	296.96
273.223	313.34
273.684	303.98
274.144	273.55
274.605	238.44
275.066	327.38
275.527	329.72
275.987	278.23
276.448	371.85
276.908	254.83
277.369	285.25
277.829	231.42
278.289	266.53
278.75	369.51
279.21	311
279.67	315.68
280.13	303.98
280.59	320.36
281.05	325.04
281.51	217.38
281.97	261.85
282.43	240.78
282.89	287.59
283.35	243.12
283.809	357.81
284.269	247.8
284.729	215.04
285.188	247.8
285.648	280.57
286.107	282.91
286.567	315.68
287.026	299.3
287.485	236.1
287.944	271.21
288.404	287.59
288.863	261.85
289.322	275.89
289.781	264.19
290.24	252.49
290.699	280.57
291.158	327.38
291.616	325.04
292.075	254.83
292.534	261.85
292.992	238.44
293.451	308.66
293.91	238.44
294.368	208.02
294.827	280.57
295.285	315.68
295.743	229.08
296.202	226.74
296.66	254.83
297.118	318.02
297.576	289.93
298.034	278.23
298.492	278.23
298.95	329.72
299.408	322.7
299.866	294.61
300.324	280.57
300.781	388.24
301.239	292.27
301.697	259.51
302.154	292.27
302.612	289.93
303.069	273.55
303.527	245.46
303.984	275.89
304.441	250.14
304.899	327.38
305.356	245.46
305.813	334.4
306.27	348.45
306.727	303.98
307.184	266.53
307.641	282.91
308.098	247.8
308.555	268.87
309.012	282.91
309.468	292.27
309.925	226.74
310.382	301.64
310.838	327.38
311.295	268.87
311.751	296.96
312.208	268.87
312.664	264.19
313.12	238.44
313.577	280.57
314.033	257.17
314.489	275.89
314.945	264.19
315.401	296.96
315.857	233.76
316.313	301.64
316.769	240.78
317.225	329.72
317.681	299.3
318.136	271.21
318.592	320.36
319.048	271.21
319.503	259.51
319.959	275.89
320.414	224.4
320.869	311
321.325	210.36
321.78	322.7
322.235	306.32
322.691	303.98
323.146	264.19
323.601	306.32
324.056	278.23
324.511	346.11
324.966	254.83
325.421	226.74
325.875	313.34
326.33	327.38
326.785	280.57
327.24	245.46
327.694	282.91
328.149	175.25
328.603	299.3
329.058	243.12
329.512	343.77
329.966	278.23
330.421	271.21
330.875	294.61
331.329	252.49
331.783	294.61
332.237	275.89
332.691	336.74
333.145	343.77
333.599	271.21
334.053	245.46
334.507	282.91
334.96	332.06
335.414	247.8
335.868	322.7
336.321	329.72
336.775	301.64
337.228	278.23
337.682	254.83
338.135	278.23
338.588	282.91
339.042	273.55
339.495	215.04
339.948	287.59
340.401	346.11
340.854	236.1
341.307	240.78
341.76	350.79
342.213	299.3
342.666	346.11
343.119	282.91
343.571	285.25
344.024	320.36
344.477	322.7
344.929	285.25
345.382	240.78
345.834	325.04
346.287	315.68
346.739	287.59
347.191	282.91
347.644	308.66
348.096	332.06
348.548	285.25
349	271.21
349.452	259.51
349.904	369.51
350.356	348.45
350.808	367.17
351.26	271.21
351.711	303.98
352.163	311
352.615	278.23
353.066	250.14
353.518	303.98
353.969	226.74
354.421	240.78
354.872	252.49
355.324	275.89
355.775	311
356.226	226.74
356.677	243.12
357.128	275.89
357.579	325.04
358.03	282.91
358.481	315.68
358.932	327.38
359.383	273.55
359.834	261.85
360.285	273.55
360.735	285.25
361.186	332.06
361.637	296.96
362.087	299.3
362.538	362.49
362.988	282.91
363.438	278.23
363.889	229.08
364.339	336.74
364.789	360.15
365.239	325.04
365.689	322.7
366.139	245.46
366.589	322.7
367.039	287.59
367.489	332.06
367.939	320.36
368.389	301.64
368.839	287.59
369.288	327.38
369.738	315.68
370.187	357.81
370.637	268.87
371.086	294.61
371.536	275.89
371.985	275.89
372.434	254.83
372.884	285.25
373.333	325.04
373.782	301.64
374.231	311
374.68	301.64
375.129	282.91
375.578	238.44
376.027	371.85
376.475	301.64
376.924	301.64
377.373	296.96
377.822	287.59
378.27	266.53
378.719	311
379.167	292.27
379.616	285.25
380.064	313.34
380.512	325.04
380.961	311
381.409	296.96
381.857	301.64
382.305	306.32
382.753	308.66
383.201	264.19
383.649	280.57
384.097	325.04
384.545	303.98
384.992	336.74
385.44	296.96
385.888	294.61
386.335	308.66
386.783	362.49
387.231	308.66
387.678	303.98
388.125	268.87
388.573	275.89
389.02	294.61
389.467	289.93
389.914	315.68
390.362	210.36
390.809	278.23
391.256	329.72
391.703	303.98
392.15	294.61
392.596	287.59
393.043	261.85
393.49	240.78
393.937	306.32
394.383	306.32
394.83	364.83
395.276	327.38
395.723	355.47
396.169	299.3
396.616	346.11
397.062	247.8
397.508	313.34
397.954	233.76
398.401	275.89
398.847	318.02
399.293	259.51
399.739	264.19
400.185	252.49
400.631	268.87
401.076	266.53
401.522	327.38
401.968	320.36
402.414	369.51
402.859	266.53
403.305	245.46
403.75	318.02
404.196	343.77
404.641	287.59
405.086	278.23
405.532	287.59
405.977	261.85
406.422	318.02
406.867	275.89
407.312	266.53
407.757	364.83
408.202	308.66
408.647	313.34
409.092	315.68
409.537	212.7
409.982	308.66
410.426	280.57
410.871	334.4
411.316	364.83
411.76	294.61
412.205	252.49
412.649	303.98
413.093	346.11
413.538	275.89
413.982	320.36
414.426	322.7
414.87	259.51
415.314	280.57
415.758	268.87
416.202	296.96
416.646	357.81
417.09	294.61
417.534	327.38
417.978	322.7
418.421	327.38
418.865	268.87
419.309	306.32
419.752	369.51
420.196	287.59
420.639	280.57
421.083	280.57
421.526	350.79
421.969	259.51
422.412	322.7
422.856	313.34
423.299	313.34
423.742	287.59
424.185	313.34
424.628	311
425.071	367.17
425.513	273.55
425.956	205.67
426.399	170.57
426.842	254.83
427.284	268.87
427.727	353.13
428.169	275.89
428.612	240.78
429.054	329.72
429.497	285.25
429.939	271.21
430.381	240.78
430.823	332.06
431.265	339.09
431.707	296.96
432.149	247.8
432.591	280.57
433.033	385.9
433.475	245.46
433.917	289.93
434.359	306.32
434.8	266.53
435.242	371.85
435.684	311
436.125	327.38
436.567	327.38
437.008	343.77
437.449	332.06
437.891	268.87
438.332	318.02
438.773	341.43
439.214	233.76
439.656	353.13
440.097	294.61
440.538	336.74
440.978	273.55
441.419	289.93
441.86	318.02
442.301	292.27
442.742	275.89
443.182	334.4
443.623	280.57
444.063	303.98
444.504	315.68
444.944	259.51
445.385	313.34
445.825	303.98
446.265	287.59
446.706	294.61
447.146	313.34
447.586	212.7
448.026	296.96
448.466	280.57
448.906	296.96
449.346	250.14
449.786	299.3
450.225	215.04
450.665	294.61
451.105	294.61
451.544	280.57
451.984	299.3
452.424	303.98
452.863	259.51
453.302	245.46
453.742	233.76
454.181	318.02
454.62	334.4
455.059	280.57
455.499	273.55
455.938	318.02
456.377	233.76
456.816	327.38
457.254	346.11
457.693	329.72
458.132	257.17
458.571	252.49
459.01	289.93
459.448	252.49
459.887	278.23
460.325	282.91
460.764	275.89
461.202	308.66
461.641	350.79
462.079	364.83
462.517	353.13
462.955	339.09
463.393	313.34
463.832	268.87
464.27	303.98
464.708	346.11
465.145	292.27
465.583	315.68
466.021	299.3
466.459	217.38
466.897	271.21
467.334	292.27
467.772	266.53
468.209	261.85
468.647	348.45
469.084	285.25
469.522	296.96
469.959	339.09
470.396	266.53
470.833	296.96
471.271	306.32
471.708	238.44
472.145	390.58
472.582	306.32
473.019	313.34
473.456	327.38
473.892	222.06
474.329	322.7
474.766	285.25
475.202	226.74
475.639	327.38
476.076	280.57
476.512	278.23
476.949	329.72
477.385	325.04
477.821	299.3
478.258	289.93
478.694	318.02
479.13	287.59
479.566	299.3
480.002	346.11
480.438	261.85
480.874	313.34
481.31	289.93
481.746	327.38
482.181	289.93
482.617	318.02
483.053	334.4
483.488	308.66
483.924	243.12
484.36	303.98
484.795	247.8
485.23	285.25
485.666	275.89
486.101	322.7
486.536	273.55
486.971	268.87
487.407	287.59
487.842	339.09
488.277	334.4
488.712	278.23
489.146	327.38
489.581	252.49
490.016	325.04
490.451	257.17
490.885	318.02
491.32	355.47
491.755	247.8
492.189	364.83
492.624	296.96
493.058	346.11
493.492	280.57
493.927	339.09
494.361	313.34
494.795	294.61
495.229	243.12
495.663	299.3
496.097	306.32
496.531	292.27
496.965	245.46
497.399	318.02
497.833	261.85
498.266	261.85
498.7	320.36
499.134	278.23
499.567	289.93
500.001	257.17
500.434	233.76
500.868	259.51
501.301	318.02
501.734	355.47
502.168	315.68
502.601	303.98
503.034	252.49
503.467	238.44
503.9	275.89
504.333	303.98
504.766	329.72
505.199	313.34
505.632	282.91
506.064	301.64
506.497	282.91
506.93	315.68
507.362	292.27
507.795	329.72
508.227	245.46
508.66	362.49
509.092	355.47
509.524	296.96
509.956	362.49
510.389	306.32
510.821	313.34
511.253	336.74
511.685	318.02
512.117	266.53
512.549	327.38
512.981	245.46
513.412	308.66
513.844	294.61
514.276	278.23
514.707	299.3
515.139	334.4
515.571	299.3
516.002	325.04
516.433	322.7
516.865	280.57
517.296	318.02
517.727	350.79
518.159	313.34
518.59	329.72
519.021	266.53
519.452	308.66
519.883	315.68
520.314	273.55
520.744	306.32
521.175	296.96
521.606	299.3
522.037	402.28
522.467	292.27
522.898	294.61
523.328	275.89
523.759	285.25
524.189	318.02
524.62	264.19
525.05	287.59
525.48	259.51
525.91	292.27
526.341	271.21
526.771	343.77
527.201	327.38
527.631	350.79
528.061	301.64
528.49	299.3
528.92	285.25
529.35	313.34
529.78	250.14
530.209	296.96
530.639	289.93
531.068	329.72
531.498	287.59
531.927	360.15
532.357	275.89
532.786	266.53
533.215	315.68
533.644	313.34
534.074	287.59
534.503	282.91
534.932	334.4
535.361	327.38
535.79	325.04
536.218	308.66
536.647	254.83
537.076	275.89
537.505	332.06
537.933	299.3
538.362	346.11
538.79	334.4
539.219	296.96
539.647	301.64
540.076	257.17
540.504	313.34
540.932	252.49
541.36	341.43
541.788	315.68
542.217	264.19
542.645	311
543.073	383.56
543.5	311
543.928	303.98
544.356	301.64
544.784	334.4
545.211	369.51
545.639	371.85
546.067	329.72
546.494	254.83
546.922	332.06
547.349	236.1
547.776	275.89
548.204	282.91
548.631	278.23
549.058	329.72
549.485	217.38
549.912	292.27
550.339	301.64
550.766	271.21
551.193	320.36
551.62	273.55
552.047	287.59
552.474	268.87
552.9	215.04
553.327	287.59
553.754	273.55
554.18	275.89
554.607	308.66
555.033	266.53
555.459	266.53
555.886	315.68
556.312	339.09
556.738	261.85
557.164	268.87
557.59	296.96
558.016	294.61
558.442	250.14
558.868	280.57
559.294	257.17
559.72	289.93
560.145	254.83
560.571	224.4
560.997	271.21
561.422	334.4
561.848	313.34
562.273	311
562.699	280.57
563.124	303.98
563.549	360.15
563.974	296.96
564.4	325.04
564.825	346.11
565.25	325.04
565.675	250.14
566.1	285.25
566.525	299.3
566.95	303.98
567.374	350.79
567.799	299.3
568.224	268.87
568.648	336.74
569.073	325.04
569.497	348.45
569.922	275.89
570.346	308.66
570.771	303.98
571.195	341.43
571.619	301.64
572.043	259.51
572.467	233.76
572.891	306.32
573.315	315.68
573.739	301.64
574.163	341.43
574.587	289.93
575.011	299.3
575.435	285.25
575.858	287.59
576.282	292.27
576.705	308.66
577.129	299.3
577.552	367.17
577.976	303.98
578.399	315.68
578.822	313.34
579.245	294.61
579.669	278.23
580.092	259.51
580.515	271.21
580.938	320.36
581.361	264.19
581.784	313.34
582.206	332.06
582.629	308.66
583.052	348.45
583.474	217.38
583.897	278.23
584.32	292.27
584.742	289.93
585.165	334.4
585.587	320.36
586.009	275.89
586.431	362.49
586.854	261.85
587.276	303.98
587.698	268.87
588.12	334.4
588.542	355.47
588.964	318.02
589.386	282.91
589.807	322.7
590.229	303.98
590.651	322.7
591.073	313.34
591.494	325.04
591.916	264.19
592.337	306.32
592.759	343.77
593.18	287.59
593.601	411.64
594.022	292.27
594.444	233.76
594.865	336.74
595.286	341.43
595.707	271.21
596.128	320.36
596.549	271.21
596.97	327.38
597.39	306.32
597.811	247.8
598.232	296.96
598.652	313.34
599.073	294.61
599.494	388.24
599.914	296.96
600.334	252.49
600.755	245.46
601.175	231.42
601.595	254.83
602.015	346.11
602.436	313.34
602.856	484.2
603.276	257.17
603.696	296.96
604.115	261.85
604.535	296.96
604.955	299.3
605.375	301.64
605.794	285.25
606.214	299.3
606.634	313.34
607.053	247.8
607.473	268.87
607.892	301.64
608.311	289.93
608.731	273.55
609.15	329.72
609.569	332.06
609.988	334.4
610.407	299.3
610.826	357.81
611.245	357.81
611.664	282.91
612.083	313.34
612.501	332.06
612.92	264.19
613.339	334.4
613.757	301.64
614.176	212.7
614.594	320.36
615.013	254.83
615.431	364.83
615.85	268.87
616.268	289.93
616.686	306.32
617.104	325.04
617.522	332.06
617.94	238.44
618.358	289.93
618.776	303.98
619.194	275.89
619.612	273.55
620.03	287.59
620.447	285.25
620.865	301.64
621.282	315.68
621.7	268.87
622.117	318.02
622.535	311
622.952	353.13
623.369	294.61
623.787	350.79
624.204	383.56
624.621	306.32
625.038	285.25
625.455	292.27
625.872	296.96
626.289	280.57
626.706	360.15
627.123	301.64
627.539	250.14
627.956	318.02
628.373	364.83
628.789	273.55
629.206	329.72
629.622	327.38
630.038	355.47
630.455	299.3
630.871	254.83
631.287	329.72
631.703	303.98
632.12	271.21
632.536	322.7
632.952	259.51
633.368	268.87
633.783	292.27
634.199	336.74
634.615	245.46
635.031	308.66
635.446	275.89
635.862	278.23
636.277	332.06
636.693	250.14
637.108	313.34
637.524	329.72
637.939	266.53
638.354	273.55
638.77	271.21
639.185	367.17
639.6	320.36
640.015	273.55
640.43	264.19
640.845	285.25
641.259	292.27
641.674	287.59
642.089	292.27
642.504	268.87
642.918	287.59
643.333	306.32
643.747	341.43
644.162	301.64
644.576	285.25
644.991	350.79
645.405	238.44
645.819	301.64
646.233	311
646.647	306.32
647.061	320.36
647.475	353.13
647.889	282.91
648.303	268.87
648.717	261.85
649.131	320.36
649.545	364.83
649.958	268.87
650.372	346.11
650.785	266.53
651.199	278.23
651.612	257.17
652.026	308.66
652.439	303.98
652.852	320.36
653.266	332.06
653.679	301.64
654.092	299.3
654.505	278.23
654.918	268.87
655.331	306.32
655.744	292.27
656.156	215.04
656.569	303.98
656.982	341.43
657.394	313.34
657.807	287.59
658.22	289.93
658.632	325.04
659.044	268.87
659.457	301.64
659.869	285.25
660.281	318.02
660.693	294.61
661.106	341.43
661.518	311
661.93	296.96
662.342	322.7
662.754	315.68
663.165	320.36
663.577	311
663.989	360.15
664.401	296.96
664.812	275.89
665.224	315.68
665.635	301.64
666.047	296.96
666.458	313.34
666.869	264.19
667.281	285.25
667.692	301.64
668.103	299.3
668.514	329.72
668.925	357.81
669.336	381.21
669.747	278.23
670.158	318.02
670.569	226.74
670.979	282.91
671.39	308.66
671.801	285.25
672.211	313.34
672.622	296.96
673.032	301.64
673.443	313.34
673.853	259.51
674.263	282.91
674.674	378.87
675.084	311
675.494	292.27
675.904	346.11
676.314	236.1
676.724	278.23
677.134	264.19
677.544	231.42
677.953	299.3
678.363	268.87
678.773	332.06
679.182	292.27
679.592	275.89
680.001	275.89
680.411	318.02
680.82	278.23
681.23	296.96
681.639	296.96
682.048	315.68
682.457	280.57
682.866	299.3
683.275	327.38
683.684	280.57
684.093	303.98
684.502	289.93
684.911	266.53
685.32	271.21
685.728	294.61
686.137	273.55
686.546	313.34
686.954	325.04
687.363	303.98
687.771	357.81
688.179	226.74
688.588	236.1
688.996	271.21
689.404	282.91
689.812	292.27
690.22	367.17
690.628	362.49
691.036	271.21
691.444	287.59
691.852	315.68
692.26	343.77
692.667	327.38
693.075	322.7
693.483	318.02
693.89	266.53
694.298	332.06
694.705	210.36
695.112	287.59
695.52	313.34
695.927	320.36
696.334	296.96
696.741	278.23
697.148	275.89
697.555	306.32
697.962	311
698.369	261.85
698.776	327.38
699.183	301.64
699.59	275.89
699.996	320.36
700.403	313.34
700.81	327.38
701.216	268.87
701.623	259.51
702.029	329.72
702.435	315.68
702.842	285.25
703.248	289.93
703.654	322.7
704.06	311
704.466	336.74
704.872	315.68
705.278	327.38
705.684	329.72
706.09	325.04
706.496	271.21
706.901	341.43
707.307	322.7
707.712	325.04
708.118	299.3
708.523	341.43
708.929	282.91
709.334	296.96
709.74	369.51
710.145	238.44
710.55	329.72
710.955	301.64
711.36	308.66
711.765	217.38
712.17	273.55
712.575	282.91
712.98	830.6
713.385	346.11
713.789	311
714.194	282.91
714.599	320.36
715.003	308.66
715.408	271.21
715.812	353.13
716.217	292.27
716.621	325.04
717.025	303.98
717.429	318.02
717.833	313.34
718.238	334.4
718.642	271.21
719.046	296.96
719.449	303.98
719.853	315.68
720.257	303.98
720.661	318.02
721.065	308.66
721.468	282.91
721.872	294.61
722.275	264.19
722.679	346.11
723.082	369.51
723.485	245.46
723.889	273.55
724.292	301.64
724.695	322.7
725.098	357.81
725.501	259.51
725.904	273.55
726.307	339.09
726.71	301.64
727.113	311
727.516	346.11
727.918	367.17
728.321	226.74
728.724	334.4
729.126	292.27
729.529	303.98
729.931	362.49
730.333	296.96
730.736	266.53
731.138	301.64
731.54	273.55
731.942	215.04
732.344	336.74
732.746	273.55
733.148	334.4
733.55	334.4
733.952	308.66
734.354	257.17
734.756	268.87
735.157	327.38
735.559	294.61
735.96	215.04
736.362	292.27
736.763	355.47
737.165	336.74
737.566	362.49
737.967	252.49
738.368	250.14
738.77	243.12
739.171	313.34
739.572	327.38
739.973	303.98
740.374	285.25
740.774	322.7
741.175	264.19
741.576	383.56
741.977	343.77
742.377	306.32
742.778	301.64
743.178	282.91
743.579	243.12
743.979	318.02
744.379	299.3
744.78	278.23
745.18	348.45
745.58	238.44
745.98	289.93
746.38	303.98
746.78	318.02
747.18	315.68
747.58	334.4
747.98	350.79
748.38	296.96
748.779	275.89
749.179	308.66
749.578	294.61
749.978	296.96
750.377	294.61
750.777	273.55
751.176	294.61
751.575	282.91
751.975	303.98
752.374	306.32
752.773	254.83
753.172	320.36
753.571	315.68
753.97	245.46
754.369	285.25
754.768	296.96
755.166	362.49
755.565	322.7
755.964	278.23
756.362	292.27
756.761	313.34
757.159	308.66
757.558	264.19
757.956	294.61
758.354	301.64
758.753	282.91
759.151	247.8
759.549	306.32
759.947	292.27
760.345	268.87
760.743	278.23
761.141	264.19
761.539	355.47
761.936	268.87
762.334	308.66
762.732	261.85
763.129	250.14
763.527	271.21
763.924	360.15
764.322	308.66
764.719	261.85
765.117	285.25
765.514	289.93
765.911	353.13
766.308	243.12
