Data from Al_FLMS009871__1024__16-23-58-315.txt Node

Date: Fri Mar 08 16:23:58 CST 2024
User: pe5414po
Spectrometer: FLMS00987
Trigger mode: 0
Integration Time (sec): 1.000000E-1
Scans to average: 1
Electric dark correction enabled: true
Nonlinearity correction enabled: false
Boxcar width: 0
XAxis mode: Wavelengths
Number of Pixels in Spectrum: 2048
>>>>>Begin Spectral Data<<<<<
188.938	-108.83
189.409	-108.83
189.879	-108.83
190.349	-113.52
190.819	-139.26
191.29	-120.54
191.76	-80.75
192.23	-113.52
192.7	-76.07
193.17	-80.75
193.64	-43.3
194.109	-45.64
194.579	-62.02
195.049	36.28
195.519	43.3
195.988	19.89
196.458	-24.58
196.927	127.56
197.397	162.67
197.866	94.79
198.336	162.67
198.805	188.41
199.274	197.78
199.744	165.01
200.213	186.07
200.682	169.69
201.151	200.12
201.62	181.39
202.089	197.78
202.558	293.74
203.027	228.2
203.495	333.53
203.964	263.31
204.433	246.93
204.902	239.9
205.37	225.86
205.839	291.4
206.307	242.25
206.776	263.31
207.244	286.72
207.712	326.5
208.181	345.23
208.649	256.29
209.117	298.42
209.585	314.8
210.053	209.48
210.521	303.1
210.989	352.25
211.457	284.38
211.925	235.22
212.393	296.08
212.861	249.27
213.328	249.27
213.796	244.59
214.264	260.97
214.731	277.35
215.199	221.18
215.666	239.9
216.133	214.16
216.601	270.33
217.068	221.18
217.535	291.4
218.003	249.27
218.47	256.29
218.937	303.1
219.404	296.08
219.871	270.33
220.338	211.82
220.805	207.14
221.271	239.9
221.738	239.9
222.205	270.33
222.671	286.72
223.138	265.65
223.605	282.03
224.071	244.59
224.538	307.78
225.004	239.9
225.47	197.78
225.937	279.69
226.403	204.8
226.869	186.07
227.335	221.18
227.801	256.29
228.267	307.78
228.733	190.75
229.199	232.88
229.665	267.99
230.131	300.76
230.597	265.65
231.062	253.95
231.528	270.33
231.994	211.82
232.459	284.38
232.925	277.35
233.39	312.46
233.856	275.01
234.321	263.31
234.786	300.76
235.252	291.4
235.717	352.25
236.182	333.53
236.647	307.78
237.112	275.01
237.577	223.52
238.042	253.95
238.507	230.54
238.972	209.48
239.436	253.95
239.901	223.52
240.366	298.42
240.83	225.86
241.295	253.95
241.76	265.65
242.224	246.93
242.688	279.69
243.153	279.69
243.617	284.38
244.081	314.8
244.545	310.12
245.01	279.69
245.474	223.52
245.938	328.85
246.402	225.86
246.866	275.01
247.33	265.65
247.793	289.06
248.257	284.38
248.721	228.2
249.185	235.22
249.648	155.65
250.112	270.33
250.575	291.4
251.039	239.9
251.502	303.1
251.965	263.31
252.429	289.06
252.892	256.29
253.355	244.59
253.818	305.44
254.281	298.42
254.744	209.48
255.207	235.22
255.67	251.61
256.133	286.72
256.596	275.01
257.059	291.4
257.522	326.5
257.984	256.29
258.447	314.8
258.909	305.44
259.372	331.19
259.834	303.1
260.297	291.4
260.759	230.54
261.221	286.72
261.684	282.03
262.146	277.35
262.608	307.78
263.07	305.44
263.532	361.61
263.994	307.78
264.456	291.4
264.918	279.69
265.38	300.76
265.842	277.35
266.303	321.82
266.765	307.78
267.227	284.38
267.688	326.5
268.15	333.53
268.611	235.22
269.072	251.61
269.534	314.8
269.995	284.38
270.456	244.59
270.918	284.38
271.379	275.01
271.84	258.63
272.301	221.18
272.762	270.33
273.223	253.95
273.684	239.9
274.144	277.35
274.605	207.14
275.066	326.5
275.527	303.1
275.987	272.67
276.448	225.86
276.908	265.65
277.369	312.46
277.829	310.12
278.289	279.69
278.75	232.88
279.21	286.72
279.67	267.99
280.13	232.88
280.59	246.93
281.05	265.65
281.51	267.99
281.97	291.4
282.43	275.01
282.89	253.95
283.35	263.31
283.809	249.27
284.269	260.97
284.729	267.99
285.188	270.33
285.648	284.38
286.107	296.08
286.567	293.74
287.026	305.44
287.485	270.33
287.944	296.08
288.404	263.31
288.863	356.93
289.322	300.76
289.781	279.69
290.24	305.44
290.699	284.38
291.158	321.82
291.616	289.06
292.075	326.5
292.534	296.08
292.992	300.76
293.451	267.99
293.91	275.01
294.368	303.1
294.827	263.31
295.285	307.78
295.743	291.4
296.202	267.99
296.66	272.67
297.118	237.56
297.576	307.78
298.034	284.38
298.492	300.76
298.95	218.84
299.408	338.21
299.866	284.38
300.324	263.31
300.781	345.23
301.239	291.4
301.697	289.06
302.154	291.4
302.612	312.46
303.069	312.46
303.527	335.87
303.984	303.1
304.441	260.97
304.899	272.67
305.356	291.4
305.813	270.33
306.27	282.03
306.727	312.46
307.184	326.5
307.641	307.78
308.098	317.14
308.555	251.61
309.012	338.21
309.468	317.14
309.925	317.14
310.382	279.69
310.838	293.74
311.295	335.87
311.751	340.55
312.208	246.93
312.664	289.06
313.12	385.02
313.577	293.74
314.033	296.08
314.489	282.03
314.945	265.65
315.401	335.87
315.857	314.8
316.313	258.63
316.769	326.5
317.225	399.06
317.681	359.27
318.136	263.31
318.592	258.63
319.048	340.55
319.503	296.08
319.959	305.44
320.414	340.55
320.869	347.57
321.325	258.63
321.78	300.76
322.235	296.08
322.691	277.35
323.146	317.14
323.601	286.72
324.056	326.5
324.511	305.44
324.966	361.61
325.421	298.42
325.875	272.67
326.33	293.74
326.785	305.44
327.24	305.44
327.694	284.38
328.149	378
328.603	352.25
329.058	277.35
329.512	253.95
329.966	286.72
330.421	296.08
330.875	263.31
331.329	258.63
331.783	335.87
332.237	300.76
332.691	333.53
333.145	265.65
333.599	258.63
334.053	251.61
334.507	251.61
334.96	342.89
335.414	324.16
335.868	282.03
336.321	284.38
336.775	307.78
337.228	244.59
337.682	324.16
338.135	246.93
338.588	249.27
339.042	331.19
339.495	242.25
339.948	314.8
340.401	296.08
340.854	324.16
341.307	296.08
341.76	270.33
342.213	314.8
342.666	314.8
343.119	319.48
343.571	310.12
344.024	317.14
344.477	282.03
344.929	342.89
345.382	382.68
345.834	331.19
346.287	331.19
346.739	298.42
347.191	286.72
347.644	368.63
348.096	300.76
348.548	338.21
349	284.38
349.452	328.85
349.904	277.35
350.356	321.82
350.808	307.78
351.26	267.99
351.711	223.52
352.163	286.72
352.615	305.44
353.066	284.38
353.518	272.67
353.969	307.78
354.421	258.63
354.872	319.48
355.324	296.08
355.775	373.32
356.226	293.74
356.677	296.08
357.128	303.1
357.579	277.35
358.03	321.82
358.481	282.03
358.932	258.63
359.383	314.8
359.834	347.57
360.285	333.53
360.735	359.27
361.186	324.16
361.637	300.76
362.087	345.23
362.538	352.25
362.988	291.4
363.438	310.12
363.889	335.87
364.339	256.29
364.789	333.53
365.239	242.25
365.689	289.06
366.139	335.87
366.589	342.89
367.039	253.95
367.489	246.93
367.939	275.01
368.389	345.23
368.839	342.89
369.288	331.19
369.738	314.8
370.187	277.35
370.637	265.65
371.086	328.85
371.536	356.93
371.985	356.93
372.434	305.44
372.884	352.25
373.333	293.74
373.782	326.5
374.231	335.87
374.68	319.48
375.129	314.8
375.578	300.76
376.027	363.95
376.475	260.97
376.924	275.01
377.373	291.4
377.822	284.38
378.27	246.93
378.719	275.01
379.167	286.72
379.616	345.23
380.064	333.53
380.512	296.08
380.961	272.67
381.409	291.4
381.857	307.78
382.305	291.4
382.753	291.4
383.201	317.14
383.649	307.78
384.097	232.88
384.545	326.5
384.992	251.61
385.44	293.74
385.888	331.19
386.335	270.33
386.783	232.88
387.231	303.1
387.678	338.21
388.125	342.89
388.573	279.69
389.02	293.74
389.467	253.95
389.914	284.38
390.362	389.7
390.809	284.38
391.256	253.95
391.703	260.97
392.15	286.72
392.596	286.72
393.043	296.08
393.49	303.1
393.937	340.55
394.383	333.53
394.83	239.9
395.276	291.4
395.723	291.4
396.169	277.35
396.616	319.48
397.062	305.44
397.508	293.74
397.954	345.23
398.401	319.48
398.847	279.69
399.293	347.57
399.739	282.03
400.185	284.38
400.631	363.95
401.076	298.42
401.522	307.78
401.968	293.74
402.414	310.12
402.859	260.97
403.305	312.46
403.75	312.46
404.196	286.72
404.641	349.91
405.086	279.69
405.532	310.12
405.977	277.35
406.422	333.53
406.867	263.31
407.312	256.29
407.757	284.38
408.202	300.76
408.647	291.4
409.092	359.27
409.537	314.8
409.982	385.02
410.426	265.65
410.871	246.93
411.316	263.31
411.76	319.48
412.205	387.36
412.649	361.61
413.093	296.08
413.538	289.06
413.982	242.25
414.426	305.44
414.87	263.31
415.314	282.03
415.758	331.19
416.202	223.52
416.646	277.35
417.09	331.19
417.534	321.82
417.978	258.63
418.421	260.97
418.865	249.27
419.309	282.03
419.752	314.8
420.196	352.25
420.639	321.82
421.083	305.44
421.526	298.42
421.969	361.61
422.412	310.12
422.856	347.57
423.299	300.76
423.742	307.78
424.185	296.08
424.628	340.55
425.071	340.55
425.513	293.74
425.956	349.91
426.399	310.12
426.842	249.27
427.284	328.85
427.727	324.16
428.169	282.03
428.612	378
429.054	282.03
429.497	298.42
429.939	352.25
430.381	289.06
430.823	239.9
431.265	279.69
431.707	312.46
432.149	253.95
432.591	293.74
433.033	235.22
433.475	349.91
433.917	282.03
434.359	279.69
434.8	282.03
435.242	312.46
435.684	361.61
436.125	326.5
436.567	349.91
437.008	326.5
437.449	272.67
437.891	291.4
438.332	354.59
438.773	356.93
439.214	293.74
439.656	340.55
440.097	312.46
440.538	326.5
440.978	317.14
441.419	291.4
441.86	328.85
442.301	338.21
442.742	307.78
443.182	326.5
443.623	289.06
444.063	275.01
444.504	251.61
444.944	326.5
445.385	289.06
445.825	293.74
446.265	277.35
446.706	354.59
447.146	284.38
447.586	279.69
448.026	352.25
448.466	314.8
448.906	326.5
449.346	291.4
449.786	335.87
450.225	291.4
450.665	310.12
451.105	335.87
451.544	340.55
451.984	303.1
452.424	275.01
452.863	331.19
453.302	303.1
453.742	319.48
454.181	342.89
454.62	286.72
455.059	310.12
455.499	282.03
455.938	298.42
456.377	286.72
456.816	286.72
457.254	345.23
457.693	298.42
458.132	312.46
458.571	361.61
459.01	328.85
459.448	392.04
459.887	303.1
460.325	267.99
460.764	296.08
461.202	279.69
461.641	335.87
462.079	356.93
462.517	258.63
462.955	305.44
463.393	317.14
463.832	359.27
464.27	331.19
464.708	324.16
465.145	291.4
465.583	289.06
466.021	366.29
466.459	319.48
466.897	296.08
467.334	289.06
467.772	349.91
468.209	345.23
468.647	256.29
469.084	300.76
469.522	349.91
469.959	310.12
470.396	289.06
470.833	310.12
471.271	373.32
471.708	338.21
472.145	298.42
472.582	298.42
473.019	303.1
473.456	321.82
473.892	265.65
474.329	335.87
474.766	345.23
475.202	338.21
475.639	347.57
476.076	324.16
476.512	354.59
476.949	359.27
477.385	317.14
477.821	270.33
478.258	291.4
478.694	326.5
479.13	291.4
479.566	317.14
480.002	275.01
480.438	373.32
480.874	340.55
481.31	275.01
481.746	331.19
482.181	399.06
482.617	307.78
483.053	272.67
483.488	291.4
483.924	272.67
484.36	300.76
484.795	270.33
485.23	368.63
485.666	335.87
486.101	275.01
486.536	326.5
486.971	307.78
487.407	221.18
487.842	326.5
488.277	333.53
488.712	293.74
489.146	340.55
489.581	319.48
490.016	265.65
490.451	319.48
490.885	286.72
491.32	385.02
491.755	303.1
492.189	310.12
492.624	260.97
493.058	375.66
493.492	293.74
493.927	342.89
494.361	246.93
494.795	298.42
495.229	275.01
495.663	282.03
496.097	272.67
496.531	286.72
496.965	293.74
497.399	296.08
497.833	298.42
498.266	275.01
498.7	272.67
499.134	300.76
499.567	314.8
500.001	289.06
500.434	300.76
500.868	204.8
501.301	307.78
501.734	263.31
502.168	321.82
502.601	279.69
503.034	382.68
503.467	298.42
503.9	270.33
504.333	235.22
504.766	321.82
505.199	260.97
505.632	303.1
506.064	284.38
506.497	345.23
506.93	375.66
507.362	251.61
507.795	342.89
508.227	310.12
508.66	321.82
509.092	331.19
509.524	312.46
509.956	352.25
510.389	326.5
510.821	324.16
511.253	333.53
511.685	282.03
512.117	286.72
512.549	275.01
512.981	310.12
513.412	314.8
513.844	340.55
514.276	310.12
514.707	314.8
515.139	382.68
515.571	258.63
516.002	380.34
516.433	279.69
516.865	310.12
517.296	335.87
517.727	305.44
518.159	319.48
518.59	349.91
519.021	326.5
519.452	331.19
519.883	328.85
520.314	331.19
520.744	314.8
521.175	284.38
521.606	296.08
522.037	303.1
522.467	333.53
522.898	296.08
523.328	342.89
523.759	296.08
524.189	314.8
524.62	300.76
525.05	319.48
525.48	333.53
525.91	333.53
526.341	310.12
526.771	298.42
527.201	363.95
527.631	296.08
528.061	310.12
528.49	363.95
528.92	354.59
529.35	354.59
529.78	310.12
530.209	284.38
530.639	307.78
531.068	293.74
531.498	284.38
531.927	359.27
532.357	314.8
532.786	284.38
533.215	333.53
533.644	267.99
534.074	375.66
534.503	366.29
534.932	258.63
535.361	263.31
535.79	324.16
536.218	335.87
536.647	298.42
537.076	310.12
537.505	265.65
537.933	352.25
538.362	326.5
538.79	284.38
539.219	340.55
539.647	282.03
540.076	305.44
540.504	270.33
540.932	361.61
541.36	282.03
541.788	321.82
542.217	249.27
542.645	237.56
543.073	314.8
543.5	279.69
543.928	375.66
544.356	305.44
544.784	314.8
545.211	366.29
545.639	363.95
546.067	293.74
546.494	356.93
546.922	282.03
547.349	307.78
547.776	312.46
548.204	333.53
548.631	303.1
549.058	321.82
549.485	275.01
549.912	282.03
550.339	291.4
550.766	253.95
551.193	310.12
551.62	239.9
552.047	251.61
552.474	312.46
552.9	317.14
553.327	401.4
553.754	352.25
554.18	335.87
554.607	286.72
555.033	260.97
555.459	293.74
555.886	314.8
556.312	349.91
556.738	356.93
557.164	326.5
557.59	291.4
558.016	310.12
558.442	296.08
558.868	293.74
559.294	354.59
559.72	289.06
560.145	317.14
560.571	305.44
560.997	310.12
561.422	349.91
561.848	317.14
562.273	232.88
562.699	249.27
563.124	303.1
563.549	408.42
563.974	307.78
564.4	289.06
564.825	328.85
565.25	277.35
565.675	319.48
566.1	317.14
566.525	354.59
566.95	317.14
567.374	305.44
567.799	335.87
568.224	345.23
568.648	275.01
569.073	326.5
569.497	291.4
569.922	317.14
570.346	312.46
570.771	328.85
571.195	345.23
571.619	256.29
572.043	312.46
572.467	319.48
572.891	298.42
573.315	317.14
573.739	319.48
574.163	300.76
574.587	363.95
575.011	284.38
575.435	246.93
575.858	279.69
576.282	331.19
576.705	298.42
577.129	296.08
577.552	305.44
577.976	265.65
578.399	305.44
578.822	256.29
579.245	328.85
579.669	263.31
580.092	249.27
580.515	370.97
580.938	324.16
581.361	289.06
581.784	340.55
582.206	272.67
582.629	244.59
583.052	408.42
583.474	312.46
583.897	342.89
584.32	326.5
584.742	307.78
585.165	305.44
585.587	296.08
586.009	310.12
586.431	317.14
586.854	331.19
587.276	263.31
587.698	305.44
588.12	349.91
588.542	401.4
588.964	282.03
589.386	265.65
589.807	356.93
590.229	291.4
590.651	298.42
591.073	303.1
591.494	310.12
591.916	312.46
592.337	321.82
592.759	251.61
593.18	310.12
593.601	354.59
594.022	319.48
594.444	324.16
594.865	307.78
595.286	293.74
595.707	289.06
596.128	349.91
596.549	286.72
596.97	317.14
597.39	258.63
597.811	293.74
598.232	291.4
598.652	277.35
599.073	265.65
599.494	314.8
599.914	310.12
600.334	298.42
600.755	305.44
601.175	253.95
601.595	296.08
602.015	321.82
602.436	204.8
602.856	431.83
603.276	331.19
603.696	356.93
604.115	296.08
604.535	382.68
604.955	326.5
605.375	356.93
605.794	293.74
606.214	277.35
606.634	331.19
607.053	312.46
607.473	312.46
607.892	277.35
608.311	305.44
608.731	263.31
609.15	272.67
609.569	338.21
609.988	314.8
610.407	296.08
610.826	363.95
611.245	284.38
611.664	321.82
612.083	347.57
612.501	324.16
612.92	293.74
613.339	300.76
613.757	319.48
614.176	246.93
614.594	310.12
615.013	300.76
615.431	326.5
615.85	270.33
616.268	333.53
616.686	275.01
617.104	265.65
617.522	303.1
617.94	326.5
618.358	347.57
618.776	263.31
619.194	272.67
619.612	263.31
620.03	293.74
620.447	265.65
620.865	359.27
621.282	321.82
621.7	284.38
622.117	314.8
622.535	342.89
622.952	319.48
623.369	296.08
623.787	333.53
624.204	314.8
624.621	235.22
625.038	331.19
625.455	310.12
625.872	356.93
626.289	310.12
626.706	321.82
627.123	328.85
627.539	289.06
627.956	298.42
628.373	181.39
628.789	258.63
629.206	232.88
629.622	326.5
630.038	307.78
630.455	361.61
630.871	333.53
631.287	293.74
631.703	275.01
632.12	279.69
632.536	305.44
632.952	267.99
633.368	253.95
633.783	356.93
634.199	303.1
634.615	328.85
635.031	305.44
635.446	289.06
635.862	289.06
636.277	361.61
636.693	256.29
637.108	272.67
637.524	298.42
637.939	307.78
638.354	399.06
638.77	310.12
639.185	307.78
639.6	345.23
640.015	270.33
640.43	319.48
640.845	303.1
641.259	307.78
641.674	359.27
642.089	340.55
642.504	340.55
642.918	282.03
643.333	359.27
643.747	314.8
644.162	253.95
644.576	319.48
644.991	303.1
645.405	305.44
645.819	338.21
646.233	331.19
646.647	232.88
647.061	291.4
647.475	291.4
647.889	321.82
648.303	314.8
648.717	298.42
649.131	284.38
649.545	331.19
649.958	300.76
650.372	314.8
650.785	317.14
651.199	333.53
651.612	253.95
652.026	298.42
652.439	267.99
652.852	312.46
653.266	361.61
653.679	335.87
654.092	256.29
654.505	300.76
654.918	324.16
655.331	370.97
655.744	289.06
656.156	305.44
656.569	317.14
656.982	310.12
657.394	300.76
657.807	303.1
658.22	286.72
658.632	284.38
659.044	284.38
659.457	256.29
659.869	338.21
660.281	253.95
660.693	300.76
661.106	361.61
661.518	352.25
661.93	335.87
662.342	326.5
662.754	289.06
663.165	352.25
663.577	291.4
663.989	317.14
664.401	415.45
664.812	284.38
665.224	324.16
665.635	354.59
666.047	246.93
666.458	338.21
666.869	356.93
667.281	310.12
667.692	270.33
668.103	277.35
668.514	284.38
668.925	345.23
669.336	289.06
669.747	260.97
670.158	403.74
670.569	300.76
670.979	331.19
671.39	279.69
671.801	326.5
672.211	392.04
672.622	293.74
673.032	305.44
673.443	340.55
673.853	345.23
674.263	289.06
674.674	328.85
675.084	286.72
675.494	319.48
675.904	293.74
676.314	270.33
676.724	303.1
677.134	272.67
677.544	345.23
677.953	342.89
678.363	298.42
678.773	291.4
679.182	293.74
679.592	265.65
680.001	310.12
680.411	275.01
680.82	284.38
681.23	310.12
681.639	244.59
682.048	335.87
682.457	356.93
682.866	263.31
683.275	270.33
683.684	326.5
684.093	307.78
684.502	359.27
684.911	270.33
685.32	326.5
685.728	307.78
686.137	251.61
686.546	286.72
686.954	293.74
687.363	340.55
687.771	293.74
688.179	303.1
688.588	291.4
688.996	286.72
689.404	277.35
689.812	305.44
690.22	305.44
690.628	270.33
691.036	356.93
691.444	286.72
691.852	361.61
692.26	305.44
692.667	340.55
693.075	275.01
693.483	300.76
693.89	314.8
694.298	296.08
694.705	291.4
695.112	352.25
695.52	279.69
695.927	272.67
696.334	328.85
696.741	256.29
697.148	370.97
697.555	279.69
697.962	321.82
698.369	340.55
698.776	244.59
699.183	314.8
699.59	260.97
699.996	300.76
700.403	277.35
700.81	260.97
701.216	366.29
701.623	303.1
702.029	340.55
702.435	328.85
702.842	368.63
703.248	275.01
703.654	342.89
704.06	333.53
704.466	317.14
704.872	258.63
705.278	356.93
705.684	310.12
706.09	347.57
706.496	312.46
706.901	314.8
707.307	246.93
707.712	284.38
708.118	293.74
708.523	319.48
708.929	342.89
709.334	342.89
709.74	324.16
710.145	333.53
710.55	275.01
710.955	310.12
711.36	286.72
711.765	249.27
712.17	305.44
712.575	319.48
712.98	789.93
713.385	310.12
713.789	324.16
714.194	319.48
714.599	340.55
715.003	338.21
715.408	289.06
715.812	253.95
716.217	289.06
716.621	296.08
717.025	312.46
717.429	307.78
717.833	303.1
718.238	293.74
718.642	300.76
719.046	342.89
719.449	340.55
719.853	291.4
720.257	305.44
720.661	265.65
721.065	338.21
721.468	253.95
721.872	312.46
722.275	253.95
722.679	282.03
723.082	260.97
723.485	289.06
723.889	347.57
724.292	265.65
724.695	260.97
725.098	303.1
725.501	307.78
725.904	260.97
726.307	277.35
726.71	340.55
727.113	305.44
727.516	256.29
727.918	265.65
728.321	324.16
728.724	286.72
729.126	267.99
729.529	324.16
729.931	314.8
730.333	300.76
730.736	296.08
731.138	267.99
731.54	296.08
731.942	319.48
732.344	349.91
732.746	333.53
733.148	310.12
733.55	361.61
733.952	298.42
734.354	375.66
734.756	277.35
735.157	321.82
735.559	310.12
735.96	307.78
736.362	293.74
736.763	361.61
737.165	324.16
737.566	237.56
737.967	256.29
738.368	352.25
738.77	333.53
739.171	291.4
739.572	333.53
739.973	352.25
740.374	338.21
740.774	347.57
741.175	303.1
741.576	314.8
741.977	296.08
742.377	359.27
742.778	317.14
743.178	286.72
743.579	361.61
743.979	328.85
744.379	296.08
744.78	307.78
745.18	305.44
745.58	319.48
745.98	335.87
746.38	258.63
746.78	331.19
747.18	286.72
747.58	275.01
747.98	307.78
748.38	324.16
748.779	267.99
749.179	342.89
749.578	310.12
749.978	209.48
750.377	282.03
750.777	225.86
751.176	370.97
751.575	251.61
751.975	267.99
752.374	265.65
752.773	312.46
753.172	314.8
753.571	279.69
753.97	263.31
754.369	291.4
754.768	314.8
755.166	399.06
755.565	289.06
755.964	363.95
756.362	209.48
756.761	338.21
757.159	277.35
757.558	293.74
757.956	354.59
758.354	291.4
758.753	275.01
759.151	263.31
759.549	296.08
759.947	331.19
760.345	265.65
760.743	347.57
761.141	321.82
761.539	347.57
761.936	296.08
762.334	300.76
762.732	289.06
763.129	319.48
763.527	260.97
763.924	356.93
764.322	303.1
764.719	270.33
765.117	359.27
765.514	321.82
765.911	345.23
