Data from Al_FLMS009871__565__14-44-55-918.txt Node

Date: Fri Mar 08 14:44:55 CST 2024
User: pe5414po
Spectrometer: FLMS00987
Trigger mode: 0
Integration Time (sec): 1.000000E-1
Scans to average: 1
Electric dark correction enabled: true
Nonlinearity correction enabled: false
Boxcar width: 0
XAxis mode: Wavelengths
Number of Pixels in Spectrum: 2048
>>>>>Begin Spectral Data<<<<<
188.938	-85.14
189.409	-85.14
189.879	-85.14
190.349	-155.35
190.819	-61.73
191.29	-117.9
191.76	-96.84
192.23	-150.67
192.7	-78.12
193.17	-45.35
193.64	-87.48
194.109	34.23
194.579	27.21
195.049	-12.58
195.519	31.89
195.988	48.27
196.458	67
196.927	83.38
197.397	67
197.866	104.45
198.336	125.51
198.805	205.09
199.274	247.22
199.744	186.37
200.213	200.41
200.682	198.07
201.151	247.22
201.62	216.79
202.089	294.03
202.558	254.24
203.027	275.31
203.495	169.98
203.964	289.35
204.433	296.37
204.902	312.75
205.37	333.82
205.839	303.39
206.307	275.31
206.776	375.95
207.244	244.88
207.712	315.09
208.181	305.73
208.649	310.41
209.117	256.58
209.585	336.16
210.053	319.78
210.521	301.05
210.989	289.35
211.457	301.05
211.925	317.44
212.393	382.97
212.861	279.99
213.328	251.9
213.796	251.9
214.264	284.67
214.731	284.67
215.199	270.62
215.666	317.44
216.133	303.39
216.601	258.92
217.068	291.69
217.535	298.71
218.003	256.58
218.47	291.69
218.937	268.28
219.404	322.12
219.871	261.26
220.338	240.2
220.805	251.9
221.271	268.28
221.738	249.56
222.205	256.58
222.671	277.65
223.138	284.67
223.605	240.2
224.071	221.47
224.538	272.96
225.004	263.6
225.47	212.11
225.937	310.41
226.403	361.91
226.869	223.81
227.335	237.86
227.801	263.6
228.267	312.75
228.733	305.73
229.199	345.52
229.665	230.84
230.131	284.67
230.597	258.92
231.062	310.41
231.528	270.62
231.994	296.37
232.459	310.41
232.925	287.01
233.39	294.03
233.856	294.03
234.321	268.28
234.786	336.16
235.252	310.41
235.717	240.2
236.182	230.84
236.647	282.33
237.112	289.35
237.577	308.07
238.042	254.24
238.507	319.78
238.972	237.86
239.436	275.31
239.901	303.39
240.366	322.12
240.83	298.71
241.295	310.41
241.76	282.33
242.224	277.65
242.688	305.73
243.153	279.99
243.617	303.39
244.081	289.35
244.545	268.28
245.01	263.6
245.474	326.8
245.938	277.65
246.402	336.16
246.866	277.65
247.33	270.62
247.793	298.71
248.257	296.37
248.721	284.67
249.185	254.24
249.648	233.18
250.112	289.35
250.575	268.28
251.039	347.86
251.502	270.62
251.965	251.9
252.429	289.35
252.892	319.78
253.355	303.39
253.818	275.31
254.281	298.71
254.744	298.71
255.207	289.35
255.67	240.2
256.133	287.01
256.596	294.03
257.059	317.44
257.522	326.8
257.984	324.46
258.447	352.54
258.909	347.86
259.372	294.03
259.834	289.35
260.297	244.88
260.759	272.96
261.221	284.67
261.684	333.82
262.146	261.26
262.608	265.94
263.07	284.67
263.532	235.52
263.994	282.33
264.456	340.84
264.918	282.33
265.38	291.69
265.842	317.44
266.303	336.16
266.765	319.78
267.227	298.71
267.688	308.07
268.15	312.75
268.611	317.44
269.072	322.12
269.534	294.03
269.995	270.62
270.456	324.46
270.918	261.26
271.379	301.05
271.84	291.69
272.301	294.03
272.762	361.91
273.223	303.39
273.684	359.56
274.144	279.99
274.605	296.37
275.066	174.66
275.527	305.73
275.987	301.05
276.448	275.31
276.908	240.2
277.369	277.65
277.829	277.65
278.289	251.9
278.75	352.54
279.21	291.69
279.67	333.82
280.13	315.09
280.59	312.75
281.05	235.52
281.51	322.12
281.97	319.78
282.43	310.41
282.89	301.05
283.35	317.44
283.809	268.28
284.269	326.8
284.729	247.22
285.188	331.48
285.648	354.88
286.107	310.41
286.567	312.75
287.026	305.73
287.485	282.33
287.944	322.12
288.404	317.44
288.863	287.01
289.322	319.78
289.781	308.07
290.24	315.09
290.699	298.71
291.158	244.88
291.616	275.31
292.075	270.62
292.534	268.28
292.992	289.35
293.451	275.31
293.91	319.78
294.368	237.86
294.827	329.14
295.285	322.12
295.743	258.92
296.202	308.07
296.66	315.09
297.118	308.07
297.576	296.37
298.034	352.54
298.492	289.35
298.95	263.6
299.408	308.07
299.866	287.01
300.324	268.28
300.781	331.48
301.239	265.94
301.697	331.48
302.154	343.18
302.612	282.33
303.069	375.95
303.527	263.6
303.984	263.6
304.441	338.5
304.899	317.44
305.356	326.8
305.813	275.31
306.27	359.56
306.727	331.48
307.184	354.88
307.641	308.07
308.098	324.46
308.555	315.09
309.012	282.33
309.468	345.52
309.925	298.71
310.382	329.14
310.838	282.33
311.295	350.2
311.751	312.75
312.208	265.94
312.664	326.8
313.12	326.8
313.577	310.41
314.033	324.46
314.489	333.82
314.945	359.56
315.401	312.75
315.857	317.44
316.313	338.5
316.769	254.24
317.225	272.96
317.681	319.78
318.136	331.48
318.592	336.16
319.048	322.12
319.503	270.62
319.959	289.35
320.414	315.09
320.869	294.03
321.325	301.05
321.78	326.8
322.235	242.54
322.691	319.78
323.146	375.95
323.601	317.44
324.056	298.71
324.511	298.71
324.966	382.97
325.421	322.12
325.875	345.52
326.33	308.07
326.785	317.44
327.24	312.75
327.694	268.28
328.149	336.16
328.603	350.2
329.058	279.99
329.512	338.5
329.966	352.54
330.421	378.29
330.875	347.86
331.329	331.48
331.783	279.99
332.237	329.14
332.691	305.73
333.145	331.48
333.599	333.82
334.053	303.39
334.507	368.93
334.96	305.73
335.414	301.05
335.868	315.09
336.321	333.82
336.775	319.78
337.228	329.14
337.682	298.71
338.135	258.92
338.588	361.91
339.042	298.71
339.495	322.12
339.948	331.48
340.401	282.33
340.854	361.91
341.307	350.2
341.76	347.86
342.213	249.56
342.666	368.93
343.119	310.41
343.571	319.78
344.024	312.75
344.477	324.46
344.929	258.92
345.382	289.35
345.834	350.2
346.287	361.91
346.739	258.92
347.191	338.5
347.644	308.07
348.096	375.95
348.548	357.22
349	268.28
349.452	312.75
349.904	237.86
350.356	331.48
350.808	322.12
351.26	333.82
351.711	343.18
352.163	324.46
352.615	418.08
353.066	268.28
353.518	310.41
353.969	333.82
354.421	301.05
354.872	375.95
355.324	310.41
355.775	331.48
356.226	324.46
356.677	289.35
357.128	336.16
357.579	279.99
358.03	188.71
358.481	315.09
358.932	298.71
359.383	345.52
359.834	364.25
360.285	340.84
360.735	352.54
361.186	350.2
361.637	209.77
362.087	322.12
362.538	305.73
362.988	352.54
363.438	301.05
363.889	343.18
364.339	375.95
364.789	305.73
365.239	338.5
365.689	308.07
366.139	263.6
366.589	340.84
367.039	310.41
367.489	279.99
367.939	378.29
368.389	364.25
368.839	305.73
369.288	303.39
369.738	345.52
370.187	347.86
370.637	289.35
371.086	291.69
371.536	343.18
371.985	303.39
372.434	284.67
372.884	322.12
373.333	317.44
373.782	343.18
374.231	329.14
374.68	329.14
375.129	301.05
375.578	312.75
376.027	272.96
376.475	270.62
376.924	387.65
377.373	322.12
377.822	343.18
378.27	312.75
378.719	336.16
379.167	296.37
379.616	333.82
380.064	329.14
380.512	282.33
380.961	322.12
381.409	357.22
381.857	357.22
382.305	298.71
382.753	368.93
383.201	413.4
383.649	322.12
384.097	317.44
384.545	294.03
384.992	357.22
385.44	289.35
385.888	333.82
386.335	359.56
386.783	277.65
387.231	289.35
387.678	279.99
388.125	249.56
388.573	329.14
389.02	277.65
389.467	284.67
389.914	322.12
390.362	329.14
390.809	397.01
391.256	380.63
391.703	287.01
392.15	291.69
392.596	345.52
393.043	296.37
393.49	310.41
393.937	338.5
394.383	317.44
394.83	279.99
395.276	296.37
395.723	322.12
396.169	373.61
396.616	345.52
397.062	298.71
397.508	319.78
397.954	258.92
398.401	265.94
398.847	326.8
399.293	368.93
399.739	242.54
400.185	301.05
400.631	352.54
401.076	331.48
401.522	319.78
401.968	373.61
402.414	364.25
402.859	258.92
403.305	333.82
403.75	378.29
404.196	233.18
404.641	331.48
405.086	329.14
405.532	272.96
405.977	287.01
406.422	336.16
406.867	263.6
407.312	350.2
407.757	298.71
408.202	319.78
408.647	294.03
409.092	368.93
409.537	329.14
409.982	303.39
410.426	387.65
410.871	301.05
411.316	315.09
411.76	345.52
412.205	366.59
412.649	338.5
413.093	242.54
413.538	329.14
413.982	317.44
414.426	350.2
414.87	298.71
415.314	303.39
415.758	331.48
416.202	303.39
416.646	352.54
417.09	312.75
417.534	324.46
417.978	296.37
418.421	258.92
418.865	263.6
419.309	268.28
419.752	408.72
420.196	305.73
420.639	324.46
421.083	322.12
421.526	263.6
421.969	324.46
422.412	347.86
422.856	324.46
423.299	324.46
423.742	368.93
424.185	319.78
424.628	350.2
425.071	338.5
425.513	287.01
425.956	329.14
426.399	312.75
426.842	324.46
427.284	415.74
427.727	343.18
428.169	378.29
428.612	282.33
429.054	305.73
429.497	296.37
429.939	357.22
430.381	352.54
430.823	322.12
431.265	366.59
431.707	352.54
432.149	261.26
432.591	310.41
433.033	343.18
433.475	317.44
433.917	329.14
434.359	294.03
434.8	298.71
435.242	347.86
435.684	364.25
436.125	439.14
436.567	277.65
437.008	373.61
437.449	294.03
437.891	368.93
438.332	326.8
438.773	287.01
439.214	275.31
439.656	343.18
440.097	333.82
440.538	350.2
440.978	315.09
441.419	343.18
441.86	366.59
442.301	287.01
442.742	305.73
443.182	333.82
443.623	230.84
444.063	312.75
444.504	305.73
444.944	324.46
445.385	319.78
445.825	305.73
446.265	366.59
446.706	333.82
447.146	310.41
447.586	368.93
448.026	343.18
448.466	340.84
448.906	277.65
449.346	279.99
449.786	333.82
450.225	277.65
450.665	305.73
451.105	315.09
451.544	364.25
451.984	277.65
452.424	296.37
452.863	357.22
453.302	305.73
453.742	312.75
454.181	305.73
454.62	408.72
455.059	336.16
455.499	287.01
455.938	357.22
456.377	347.86
456.816	301.05
457.254	308.07
457.693	333.82
458.132	279.99
458.571	294.03
459.01	373.61
459.448	284.67
459.887	315.09
460.325	392.33
460.764	249.56
461.202	317.44
461.641	343.18
462.079	305.73
462.517	265.94
462.955	296.37
463.393	359.56
463.832	301.05
464.27	352.54
464.708	329.14
465.145	371.27
465.583	291.69
466.021	406.38
466.459	347.86
466.897	340.84
467.334	338.5
467.772	265.94
468.209	329.14
468.647	336.16
469.084	319.78
469.522	294.03
469.959	324.46
470.396	359.56
470.833	326.8
471.271	336.16
471.708	315.09
472.145	338.5
472.582	324.46
473.019	322.12
473.456	354.88
473.892	315.09
474.329	317.44
474.766	319.78
475.202	310.41
475.639	336.16
476.076	347.86
476.512	317.44
476.949	326.8
477.385	336.16
477.821	336.16
478.258	350.2
478.694	308.07
479.13	354.88
479.566	317.44
480.002	326.8
480.438	338.5
480.874	345.52
481.31	247.22
481.746	368.93
482.181	308.07
482.617	312.75
483.053	340.84
483.488	361.91
483.924	385.31
484.36	294.03
484.795	366.59
485.23	343.18
485.666	333.82
486.101	312.75
486.536	380.63
486.971	359.56
487.407	343.18
487.842	310.41
488.277	333.82
488.712	287.01
489.146	310.41
489.581	343.18
490.016	284.67
490.451	315.09
490.885	357.22
491.32	279.99
491.755	333.82
492.189	371.27
492.624	333.82
493.058	354.88
493.492	317.44
493.927	268.28
494.361	347.86
494.795	319.78
495.229	303.39
495.663	298.71
496.097	343.18
496.531	331.48
496.965	303.39
497.399	347.86
497.833	312.75
498.266	361.91
498.7	287.01
499.134	361.91
499.567	378.29
500.001	375.95
500.434	282.33
500.868	338.5
501.301	249.56
501.734	291.69
502.168	289.35
502.601	242.54
503.034	251.9
503.467	324.46
503.9	265.94
504.333	331.48
504.766	340.84
505.199	322.12
505.632	329.14
506.064	277.65
506.497	366.59
506.93	291.69
507.362	296.37
507.795	350.2
508.227	319.78
508.66	312.75
509.092	387.65
509.524	310.41
509.956	347.86
510.389	308.07
510.821	329.14
511.253	352.54
511.685	256.58
512.117	279.99
512.549	340.84
512.981	298.71
513.412	291.69
513.844	338.5
514.276	322.12
514.707	333.82
515.139	308.07
515.571	312.75
516.002	392.33
516.433	352.54
516.865	324.46
517.296	298.71
517.727	343.18
518.159	322.12
518.59	361.91
519.021	371.27
519.452	308.07
519.883	319.78
520.314	305.73
520.744	366.59
521.175	235.52
521.606	368.93
522.037	378.29
522.467	291.69
522.898	340.84
523.328	364.25
523.759	301.05
524.189	235.52
524.62	331.48
525.05	296.37
525.48	345.52
525.91	308.07
526.341	340.84
526.771	296.37
527.201	361.91
527.631	294.03
528.061	308.07
528.49	230.84
528.92	329.14
529.35	329.14
529.78	287.01
530.209	312.75
530.639	287.01
531.068	256.58
531.498	336.16
531.927	352.54
532.357	333.82
532.786	347.86
533.215	343.18
533.644	364.25
534.074	329.14
534.503	282.33
534.932	359.56
535.361	366.59
535.79	359.56
536.218	289.35
536.647	354.88
537.076	352.54
537.505	354.88
537.933	380.63
538.362	364.25
538.79	312.75
539.219	258.92
539.647	392.33
540.076	319.78
540.504	294.03
540.932	272.96
541.36	324.46
541.788	350.2
542.217	340.84
542.645	305.73
543.073	289.35
543.5	287.01
543.928	329.14
544.356	319.78
544.784	287.01
545.211	289.35
545.639	375.95
546.067	340.84
546.494	312.75
546.922	305.73
547.349	373.61
547.776	308.07
548.204	385.31
548.631	333.82
549.058	287.01
549.485	289.35
549.912	331.48
550.339	331.48
550.766	310.41
551.193	361.91
551.62	279.99
552.047	389.99
552.474	263.6
552.9	350.2
553.327	357.22
553.754	284.67
554.18	343.18
554.607	294.03
555.033	361.91
555.459	359.56
555.886	338.5
556.312	310.41
556.738	282.33
557.164	310.41
557.59	319.78
558.016	214.45
558.442	345.52
558.868	350.2
559.294	303.39
559.72	265.94
560.145	275.31
560.571	350.2
560.997	329.14
561.422	329.14
561.848	329.14
562.273	357.22
562.699	301.05
563.124	261.26
563.549	303.39
563.974	336.16
564.4	368.93
564.825	359.56
565.25	336.16
565.675	291.69
566.1	345.52
566.525	268.28
566.95	296.37
567.374	359.56
567.799	331.48
568.224	270.62
568.648	366.59
569.073	301.05
569.497	361.91
569.922	343.18
570.346	336.16
570.771	289.35
571.195	289.35
571.619	352.54
572.043	277.65
572.467	294.03
572.891	279.99
573.315	350.2
573.739	329.14
574.163	352.54
574.587	277.65
575.011	345.52
575.435	291.69
575.858	345.52
576.282	413.4
576.705	291.69
577.129	359.56
577.552	336.16
577.976	364.25
578.399	317.44
578.822	289.35
579.245	319.78
579.669	331.48
580.092	298.71
580.515	382.97
580.938	308.07
581.361	326.8
581.784	338.5
582.206	373.61
582.629	303.39
583.052	308.07
583.474	336.16
583.897	350.2
584.32	368.93
584.742	347.86
585.165	336.16
585.587	322.12
586.009	352.54
586.431	347.86
586.854	312.75
587.276	294.03
587.698	310.41
588.12	324.46
588.542	312.75
588.964	366.59
589.386	315.09
589.807	397.01
590.229	291.69
590.651	343.18
591.073	340.84
591.494	287.01
591.916	357.22
592.337	303.39
592.759	315.09
593.18	315.09
593.601	357.22
594.022	340.84
594.444	310.41
594.865	324.46
595.286	310.41
595.707	359.56
596.128	324.46
596.549	350.2
596.97	324.46
597.39	331.48
597.811	446.16
598.232	343.18
598.652	315.09
599.073	296.37
599.494	361.91
599.914	361.91
600.334	352.54
600.755	357.22
601.175	319.78
601.595	296.37
602.015	361.91
602.436	338.5
602.856	467.23
603.276	284.67
603.696	291.69
604.115	301.05
604.535	364.25
604.955	336.16
605.375	268.28
605.794	382.97
606.214	265.94
606.634	322.12
607.053	378.29
607.473	343.18
607.892	284.67
608.311	296.37
608.731	333.82
609.15	230.84
609.569	333.82
609.988	310.41
610.407	329.14
610.826	249.56
611.245	366.59
611.664	333.82
612.083	317.44
612.501	387.65
612.92	333.82
613.339	312.75
613.757	338.5
614.176	368.93
614.594	310.41
615.013	343.18
615.431	272.96
615.85	331.48
616.268	310.41
616.686	331.48
617.104	343.18
617.522	359.56
617.94	296.37
618.358	397.01
618.776	324.46
619.194	375.95
619.612	329.14
620.03	277.65
620.447	361.91
620.865	310.41
621.282	345.52
621.7	326.8
622.117	343.18
622.535	329.14
622.952	308.07
623.369	256.58
623.787	298.71
624.204	366.59
624.621	364.25
625.038	289.35
625.455	347.86
625.872	373.61
626.289	322.12
626.706	401.69
627.123	331.48
627.539	312.75
627.956	312.75
628.373	347.86
628.789	354.88
629.206	352.54
629.622	263.6
630.038	333.82
630.455	289.35
630.871	298.71
631.287	319.78
631.703	322.12
632.12	343.18
632.536	340.84
632.952	312.75
633.368	284.67
633.783	301.05
634.199	352.54
634.615	324.46
635.031	305.73
635.446	347.86
635.862	312.75
636.277	357.22
636.693	380.63
637.108	329.14
637.524	354.88
637.939	291.69
638.354	294.03
638.77	333.82
639.185	364.25
639.6	279.99
640.015	256.58
640.43	301.05
640.845	310.41
641.259	345.52
641.674	298.71
642.089	352.54
642.504	322.12
642.918	354.88
643.333	294.03
643.747	275.31
644.162	329.14
644.576	357.22
644.991	322.12
645.405	319.78
645.819	347.86
646.233	279.99
646.647	322.12
647.061	338.5
647.475	317.44
647.889	326.8
648.303	294.03
648.717	329.14
649.131	331.48
649.545	284.67
649.958	265.94
650.372	301.05
650.785	312.75
651.199	329.14
651.612	319.78
652.026	287.01
652.439	312.75
652.852	268.28
653.266	368.93
653.679	364.25
654.092	343.18
654.505	333.82
654.918	287.01
655.331	301.05
655.744	336.16
656.156	315.09
656.569	287.01
656.982	366.59
657.394	336.16
657.807	303.39
658.22	347.86
658.632	305.73
659.044	279.99
659.457	345.52
659.869	343.18
660.281	308.07
660.693	343.18
661.106	303.39
661.518	289.35
661.93	310.41
662.342	265.94
662.754	319.78
663.165	258.92
663.577	312.75
663.989	354.88
664.401	338.5
664.812	270.62
665.224	352.54
665.635	301.05
666.047	340.84
666.458	326.8
666.869	303.39
667.281	315.09
667.692	279.99
668.103	347.86
668.514	303.39
668.925	418.08
669.336	315.09
669.747	354.88
670.158	331.48
670.569	389.99
670.979	263.6
671.39	296.37
671.801	368.93
672.211	263.6
672.622	296.37
673.032	322.12
673.443	319.78
673.853	319.78
674.263	298.71
674.674	352.54
675.084	385.31
675.494	354.88
675.904	364.25
676.314	378.29
676.724	324.46
677.134	242.54
677.544	312.75
677.953	298.71
678.363	394.67
678.773	301.05
679.182	331.48
679.592	305.73
680.001	359.56
680.411	368.93
680.82	294.03
681.23	324.46
681.639	343.18
682.048	287.01
682.457	343.18
682.866	272.96
683.275	357.22
683.684	319.78
684.093	361.91
684.502	361.91
684.911	270.62
685.32	326.8
685.728	279.99
686.137	287.01
686.546	287.01
686.954	354.88
687.363	322.12
687.771	336.16
688.179	301.05
688.588	235.52
688.996	298.71
689.404	277.65
689.812	415.74
690.22	359.56
690.628	312.75
691.036	284.67
691.444	371.27
691.852	282.33
692.26	319.78
692.667	347.86
693.075	329.14
693.483	310.41
693.89	359.56
694.298	326.8
694.705	270.62
695.112	392.33
695.52	308.07
695.927	343.18
696.334	368.93
696.741	308.07
697.148	350.2
697.555	279.99
697.962	324.46
698.369	272.96
698.776	270.62
699.183	329.14
699.59	256.58
699.996	315.09
700.403	350.2
700.81	308.07
701.216	326.8
701.623	357.22
702.029	333.82
702.435	361.91
702.842	289.35
703.248	387.65
703.654	331.48
704.06	263.6
704.466	343.18
704.872	336.16
705.278	319.78
705.684	380.63
706.09	247.22
706.496	263.6
706.901	354.88
707.307	289.35
707.712	315.09
708.118	366.59
708.523	270.62
708.929	354.88
709.334	317.44
709.74	366.59
710.145	326.8
710.55	336.16
710.955	326.8
711.36	279.99
711.765	303.39
712.17	294.03
712.575	303.39
712.98	790.22
713.385	294.03
713.789	347.86
714.194	287.01
714.599	343.18
715.003	385.31
715.408	361.91
715.812	345.52
716.217	329.14
716.621	329.14
717.025	331.48
717.429	333.82
717.833	279.99
718.238	303.39
718.642	322.12
719.046	315.09
719.449	315.09
719.853	368.93
720.257	333.82
720.661	357.22
721.065	357.22
721.468	329.14
721.872	305.73
722.275	324.46
722.679	354.88
723.082	359.56
723.485	284.67
723.889	258.92
724.292	268.28
724.695	373.61
725.098	277.65
725.501	319.78
725.904	338.5
726.307	347.86
726.71	303.39
727.113	333.82
727.516	368.93
727.918	345.52
728.321	294.03
728.724	277.65
729.126	296.37
729.529	338.5
729.931	373.61
730.333	329.14
730.736	347.86
731.138	310.41
731.54	340.84
731.942	397.01
732.344	284.67
732.746	298.71
733.148	294.03
733.55	329.14
733.952	333.82
734.354	310.41
734.756	331.48
735.157	319.78
735.559	354.88
735.96	357.22
736.362	261.26
736.763	375.95
737.165	312.75
737.566	265.94
737.967	308.07
738.368	289.35
738.77	308.07
739.171	347.86
739.572	258.92
739.973	303.39
740.374	308.07
740.774	382.97
741.175	289.35
741.576	291.69
741.977	324.46
742.377	345.52
742.778	345.52
743.178	308.07
743.579	336.16
743.979	319.78
744.379	284.67
744.78	270.62
745.18	350.2
745.58	294.03
745.98	336.16
746.38	347.86
746.78	340.84
747.18	310.41
747.58	291.69
747.98	340.84
748.38	326.8
748.779	310.41
749.179	350.2
749.578	345.52
749.978	263.6
750.377	340.84
750.777	364.25
751.176	333.82
751.575	294.03
751.975	364.25
752.374	305.73
752.773	322.12
753.172	291.69
753.571	371.27
753.97	279.99
754.369	287.01
754.768	287.01
755.166	298.71
755.565	324.46
755.964	256.58
756.362	380.63
756.761	305.73
757.159	294.03
757.558	315.09
757.956	380.63
758.354	352.54
758.753	296.37
759.151	268.28
759.549	287.01
759.947	291.69
760.345	343.18
760.743	287.01
761.141	324.46
761.539	333.82
761.936	387.65
762.334	343.18
762.732	329.14
763.129	329.14
763.527	315.09
763.924	324.46
764.322	240.2
