Data from Al_FLMS009871__568__14-44-56-218.txt Node

Date: Fri Mar 08 14:44:56 CST 2024
User: pe5414po
Spectrometer: FLMS00987
Trigger mode: 0
Integration Time (sec): 1.000000E-1
Scans to average: 1
Electric dark correction enabled: true
Nonlinearity correction enabled: false
Boxcar width: 0
XAxis mode: Wavelengths
Number of Pixels in Spectrum: 2048
>>>>>Begin Spectral Data<<<<<
188.938	-40.96
189.409	-40.96
189.879	-40.96
190.349	-38.62
190.819	-85.43
191.29	-122.88
191.76	-97.13
192.23	-66.71
192.7	-115.86
193.17	-92.45
193.64	-8.19
194.109	-38.62
194.579	5.85
195.049	45.64
195.519	43.3
195.988	19.89
196.458	29.26
196.927	83.09
197.397	90.11
197.866	134.58
198.336	90.11
198.805	141.6
199.274	230.54
199.744	200.12
200.213	232.88
200.682	265.65
201.151	253.95
201.62	237.56
202.089	209.48
202.558	253.95
203.027	275.01
203.495	286.72
203.964	373.32
204.433	321.82
204.902	361.61
205.37	326.5
205.839	303.1
206.307	342.89
206.776	307.78
207.244	378
207.712	296.08
208.181	293.74
208.649	293.74
209.117	333.53
209.585	335.87
210.053	298.42
210.521	214.16
210.989	345.23
211.457	275.01
211.925	314.8
212.393	319.48
212.861	225.86
213.328	282.03
213.796	298.42
214.264	298.42
214.731	310.12
215.199	328.85
215.666	253.95
216.133	244.59
216.601	300.76
217.068	338.21
217.535	282.03
218.003	347.57
218.47	305.44
218.937	207.14
219.404	319.48
219.871	342.89
220.338	277.35
220.805	293.74
221.271	253.95
221.738	267.99
222.205	256.29
222.671	289.06
223.138	237.56
223.605	249.27
224.071	289.06
224.538	307.78
225.004	300.76
225.47	260.97
225.937	260.97
226.403	263.31
226.869	272.67
227.335	197.78
227.801	282.03
228.267	319.48
228.733	267.99
229.199	319.48
229.665	356.93
230.131	319.48
230.597	277.35
231.062	265.65
231.528	249.27
231.994	263.31
232.459	338.21
232.925	307.78
233.39	354.59
233.856	260.97
234.321	225.86
234.786	361.61
235.252	333.53
235.717	385.02
236.182	272.67
236.647	272.67
237.112	289.06
237.577	251.61
238.042	375.66
238.507	328.85
238.972	286.72
239.436	207.14
239.901	291.4
240.366	314.8
240.83	230.54
241.295	293.74
241.76	305.44
242.224	277.35
242.688	321.82
243.153	256.29
243.617	317.14
244.081	373.32
244.545	307.78
245.01	293.74
245.474	265.65
245.938	347.57
246.402	277.35
246.866	267.99
247.33	307.78
247.793	260.97
248.257	338.21
248.721	279.69
249.185	284.38
249.648	244.59
250.112	310.12
250.575	207.14
251.039	277.35
251.502	256.29
251.965	328.85
252.429	347.57
252.892	282.03
253.355	298.42
253.818	293.74
254.281	277.35
254.744	324.16
255.207	305.44
255.67	258.63
256.133	279.69
256.596	298.42
257.059	307.78
257.522	420.13
257.984	256.29
258.447	296.08
258.909	310.12
259.372	249.27
259.834	282.03
260.297	260.97
260.759	265.65
261.221	352.25
261.684	237.56
262.146	300.76
262.608	314.8
263.07	349.91
263.532	307.78
263.994	321.82
264.456	342.89
264.918	321.82
265.38	289.06
265.842	356.93
266.303	293.74
266.765	321.82
267.227	293.74
267.688	310.12
268.15	296.08
268.611	293.74
269.072	317.14
269.534	345.23
269.995	286.72
270.456	326.5
270.918	317.14
271.379	333.53
271.84	296.08
272.301	321.82
272.762	319.48
273.223	310.12
273.684	270.33
274.144	298.42
274.605	326.5
275.066	361.61
275.527	324.16
275.987	305.44
276.448	272.67
276.908	286.72
277.369	246.93
277.829	321.82
278.289	354.59
278.75	328.85
279.21	298.42
279.67	303.1
280.13	335.87
280.59	319.48
281.05	300.76
281.51	291.4
281.97	246.93
282.43	380.34
282.89	296.08
283.35	314.8
283.809	314.8
284.269	317.14
284.729	317.14
285.188	293.74
285.648	293.74
286.107	275.01
286.567	305.44
287.026	300.76
287.485	326.5
287.944	321.82
288.404	237.56
288.863	349.91
289.322	267.99
289.781	342.89
290.24	354.59
290.699	345.23
291.158	349.91
291.616	345.23
292.075	275.01
292.534	333.53
292.992	342.89
293.451	354.59
293.91	319.48
294.368	312.46
294.827	349.91
295.285	326.5
295.743	258.63
296.202	333.53
296.66	363.95
297.118	275.01
297.576	305.44
298.034	298.42
298.492	275.01
298.95	286.72
299.408	354.59
299.866	289.06
300.324	314.8
300.781	349.91
301.239	289.06
301.697	263.31
302.154	277.35
302.612	354.59
303.069	303.1
303.527	277.35
303.984	352.25
304.441	317.14
304.899	314.8
305.356	326.5
305.813	335.87
306.27	326.5
306.727	272.67
307.184	335.87
307.641	300.76
308.098	338.21
308.555	319.48
309.012	319.48
309.468	347.57
309.925	277.35
310.382	282.03
310.838	286.72
311.295	319.48
311.751	277.35
312.208	298.42
312.664	319.48
313.12	321.82
313.577	282.03
314.033	331.19
314.489	305.44
314.945	347.57
315.401	321.82
315.857	328.85
316.313	284.38
316.769	317.14
317.225	310.12
317.681	289.06
318.136	272.67
318.592	298.42
319.048	375.66
319.503	394.38
319.959	342.89
320.414	291.4
320.869	352.25
321.325	296.08
321.78	370.97
322.235	387.36
322.691	310.12
323.146	289.06
323.601	307.78
324.056	378
324.511	354.59
324.966	375.66
325.421	375.66
325.875	361.61
326.33	303.1
326.785	305.44
327.24	347.57
327.694	277.35
328.149	298.42
328.603	317.14
329.058	326.5
329.512	366.29
329.966	312.46
330.421	300.76
330.875	324.16
331.329	356.93
331.783	324.16
332.237	326.5
332.691	324.16
333.145	312.46
333.599	361.61
334.053	387.36
334.507	328.85
334.96	326.5
335.414	265.65
335.868	284.38
336.321	265.65
336.775	267.99
337.228	324.16
337.682	354.59
338.135	331.19
338.588	345.23
339.042	349.91
339.495	392.04
339.948	352.25
340.401	260.97
340.854	286.72
341.307	312.46
341.76	370.97
342.213	312.46
342.666	333.53
343.119	307.78
343.571	340.55
344.024	354.59
344.477	331.19
344.929	368.63
345.382	319.48
345.834	303.1
346.287	305.44
346.739	289.06
347.191	307.78
347.644	324.16
348.096	335.87
348.548	275.01
349	342.89
349.452	342.89
349.904	331.19
350.356	352.25
350.808	321.82
351.26	363.95
351.711	256.29
352.163	317.14
352.615	298.42
353.066	312.46
353.518	300.76
353.969	284.38
354.421	324.16
354.872	375.66
355.324	307.78
355.775	338.21
356.226	317.14
356.677	354.59
357.128	389.7
357.579	328.85
358.03	291.4
358.481	286.72
358.932	319.48
359.383	331.19
359.834	291.4
360.285	347.57
360.735	354.59
361.186	324.16
361.637	382.68
362.087	314.8
362.538	282.03
362.988	300.76
363.438	363.95
363.889	380.34
364.339	298.42
364.789	347.57
365.239	333.53
365.689	380.34
366.139	345.23
366.589	338.21
367.039	380.34
367.489	326.5
367.939	298.42
368.389	310.12
368.839	356.93
369.288	303.1
369.738	296.08
370.187	375.66
370.637	342.89
371.086	352.25
371.536	335.87
371.985	359.27
372.434	361.61
372.884	307.78
373.333	340.55
373.782	342.89
374.231	382.68
374.68	335.87
375.129	366.29
375.578	359.27
376.027	279.69
376.475	324.16
376.924	328.85
377.373	310.12
377.822	307.78
378.27	399.06
378.719	289.06
379.167	342.89
379.616	342.89
380.064	282.03
380.512	335.87
380.961	319.48
381.409	298.42
381.857	354.59
382.305	310.12
382.753	328.85
383.201	347.57
383.649	403.74
384.097	338.21
384.545	352.25
384.992	324.16
385.44	352.25
385.888	272.67
386.335	286.72
386.783	340.55
387.231	345.23
387.678	387.36
388.125	342.89
388.573	326.5
389.02	312.46
389.467	347.57
389.914	289.06
390.362	368.63
390.809	370.97
391.256	317.14
391.703	356.93
392.15	328.85
392.596	345.23
393.043	279.69
393.49	338.21
393.937	356.93
394.383	324.16
394.83	296.08
395.276	305.44
395.723	305.44
396.169	272.67
396.616	392.04
397.062	345.23
397.508	326.5
397.954	345.23
398.401	338.21
398.847	272.67
399.293	380.34
399.739	319.48
400.185	366.29
400.631	324.16
401.076	319.48
401.522	349.91
401.968	324.16
402.414	310.12
402.859	363.95
403.305	356.93
403.75	317.14
404.196	368.63
404.641	333.53
405.086	342.89
405.532	282.03
405.977	342.89
406.422	312.46
406.867	331.19
407.312	363.95
407.757	300.76
408.202	317.14
408.647	354.59
409.092	368.63
409.537	347.57
409.982	366.29
410.426	338.21
410.871	272.67
411.316	349.91
411.76	385.02
412.205	291.4
412.649	324.16
413.093	361.61
413.538	307.78
413.982	324.16
414.426	305.44
414.87	321.82
415.314	349.91
415.758	347.57
416.202	307.78
416.646	349.91
417.09	312.46
417.534	284.38
417.978	342.89
418.421	375.66
418.865	321.82
419.309	354.59
419.752	382.68
420.196	265.65
420.639	319.48
421.083	256.29
421.526	310.12
421.969	328.85
422.412	335.87
422.856	324.16
423.299	335.87
423.742	310.12
424.185	338.21
424.628	389.7
425.071	363.95
425.513	305.44
425.956	408.42
426.399	300.76
426.842	349.91
427.284	380.34
427.727	326.5
428.169	340.55
428.612	347.57
429.054	312.46
429.497	354.59
429.939	300.76
430.381	298.42
430.823	342.89
431.265	340.55
431.707	366.29
432.149	342.89
432.591	305.44
433.033	270.33
433.475	298.42
433.917	267.99
434.359	312.46
434.8	307.78
435.242	333.53
435.684	338.21
436.125	326.5
436.567	345.23
437.008	319.48
437.449	279.69
437.891	338.21
438.332	342.89
438.773	324.16
439.214	361.61
439.656	338.21
440.097	333.53
440.538	312.46
440.978	321.82
441.419	317.14
441.86	385.02
442.301	363.95
442.742	307.78
443.182	349.91
443.623	394.38
444.063	352.25
444.504	328.85
444.944	347.57
445.385	331.19
445.825	319.48
446.265	340.55
446.706	319.48
447.146	328.85
447.586	354.59
448.026	370.97
448.466	406.08
448.906	286.72
449.346	380.34
449.786	394.38
450.225	307.78
450.665	396.72
451.105	321.82
451.544	321.82
451.984	342.89
452.424	385.02
452.863	303.1
453.302	363.95
453.742	340.55
454.181	406.08
454.62	282.03
455.059	307.78
455.499	328.85
455.938	378
456.377	340.55
456.816	356.93
457.254	342.89
457.693	333.53
458.132	378
458.571	359.27
459.01	328.85
459.448	340.55
459.887	368.63
460.325	326.5
460.764	340.55
461.202	361.61
461.641	326.5
462.079	293.74
462.517	375.66
462.955	275.01
463.393	349.91
463.832	328.85
464.27	279.69
464.708	314.8
465.145	321.82
465.583	349.91
466.021	277.35
466.459	356.93
466.897	335.87
467.334	298.42
467.772	312.46
468.209	307.78
468.647	324.16
469.084	310.12
469.522	347.57
469.959	363.95
470.396	272.67
470.833	326.5
471.271	366.29
471.708	282.03
472.145	380.34
472.582	324.16
473.019	338.21
473.456	366.29
473.892	314.8
474.329	307.78
474.766	406.08
475.202	342.89
475.639	366.29
476.076	331.19
476.512	333.53
476.949	303.1
477.385	340.55
477.821	319.48
478.258	349.91
478.694	331.19
479.13	307.78
479.566	387.36
480.002	347.57
480.438	354.59
480.874	335.87
481.31	310.12
481.746	312.46
482.181	389.7
482.617	366.29
483.053	333.53
483.488	338.21
483.924	298.42
484.36	275.01
484.795	347.57
485.23	354.59
485.666	403.74
486.101	385.02
486.536	293.74
486.971	310.12
487.407	380.34
487.842	394.38
488.277	356.93
488.712	345.23
489.146	328.85
489.581	368.63
490.016	338.21
490.451	324.16
490.885	394.38
491.32	389.7
491.755	359.27
492.189	366.29
492.624	401.4
493.058	342.89
493.492	317.14
493.927	326.5
494.361	310.12
494.795	319.48
495.229	340.55
495.663	356.93
496.097	314.8
496.531	338.21
496.965	314.8
497.399	312.46
497.833	347.57
498.266	321.82
498.7	328.85
499.134	340.55
499.567	326.5
500.001	314.8
500.434	321.82
500.868	361.61
501.301	354.59
501.734	319.48
502.168	368.63
502.601	326.5
503.034	335.87
503.467	328.85
503.9	333.53
504.333	298.42
504.766	314.8
505.199	347.57
505.632	305.44
506.064	349.91
506.497	296.08
506.93	317.14
507.362	319.48
507.795	326.5
508.227	331.19
508.66	321.82
509.092	361.61
509.524	314.8
509.956	338.21
510.389	312.46
510.821	331.19
511.253	331.19
511.685	363.95
512.117	366.29
512.549	307.78
512.981	396.72
513.412	359.27
513.844	310.12
514.276	333.53
514.707	352.25
515.139	312.46
515.571	345.23
516.002	361.61
516.433	387.36
516.865	331.19
517.296	312.46
517.727	352.25
518.159	312.46
518.59	293.74
519.021	289.06
519.452	378
519.883	317.14
520.314	363.95
520.744	312.46
521.175	352.25
521.606	340.55
522.037	314.8
522.467	370.97
522.898	293.74
523.328	401.4
523.759	420.13
524.189	382.68
524.62	321.82
525.05	293.74
525.48	347.57
525.91	328.85
526.341	277.35
526.771	382.68
527.201	345.23
527.631	310.12
528.061	385.02
528.49	331.19
528.92	403.74
529.35	286.72
529.78	328.85
530.209	263.31
530.639	349.91
531.068	305.44
531.498	289.06
531.927	338.21
532.357	282.03
532.786	359.27
533.215	340.55
533.644	314.8
534.074	361.61
534.503	399.06
534.932	354.59
535.361	312.46
535.79	345.23
536.218	326.5
536.647	317.14
537.076	342.89
537.505	289.06
537.933	342.89
538.362	319.48
538.79	333.53
539.219	349.91
539.647	328.85
540.076	317.14
540.504	361.61
540.932	392.04
541.36	321.82
541.788	361.61
542.217	342.89
542.645	275.01
543.073	380.34
543.5	373.32
543.928	326.5
544.356	340.55
544.784	307.78
545.211	349.91
545.639	319.48
546.067	352.25
546.494	368.63
546.922	356.93
547.349	293.74
547.776	342.89
548.204	415.45
548.631	335.87
549.058	300.76
549.485	349.91
549.912	335.87
550.339	298.42
550.766	314.8
551.193	356.93
551.62	378
552.047	366.29
552.474	385.02
552.9	368.63
553.327	370.97
553.754	335.87
554.18	347.57
554.607	361.61
555.033	284.38
555.459	321.82
555.886	338.21
556.312	347.57
556.738	335.87
557.164	354.59
557.59	424.81
558.016	389.7
558.442	370.97
558.868	328.85
559.294	338.21
559.72	289.06
560.145	326.5
560.571	354.59
560.997	380.34
561.422	389.7
561.848	366.29
562.273	385.02
562.699	361.61
563.124	354.59
563.549	396.72
563.974	347.57
564.4	361.61
564.825	368.63
565.25	324.16
565.675	312.46
566.1	342.89
566.525	354.59
566.95	312.46
567.374	284.38
567.799	331.19
568.224	387.36
568.648	296.08
569.073	331.19
569.497	345.23
569.922	420.13
570.346	349.91
570.771	359.27
571.195	289.06
571.619	314.8
572.043	356.93
572.467	363.95
572.891	368.63
573.315	361.61
573.739	349.91
574.163	347.57
574.587	277.35
575.011	317.14
575.435	335.87
575.858	359.27
576.282	263.31
576.705	317.14
577.129	305.44
577.552	328.85
577.976	335.87
578.399	310.12
578.822	370.97
579.245	331.19
579.669	347.57
580.092	314.8
580.515	319.48
580.938	335.87
581.361	312.46
581.784	310.12
582.206	382.68
582.629	333.53
583.052	258.63
583.474	312.46
583.897	300.76
584.32	333.53
584.742	317.14
585.165	307.78
585.587	326.5
586.009	300.76
586.431	382.68
586.854	300.76
587.276	310.12
587.698	324.16
588.12	333.53
588.542	324.16
588.964	319.48
589.386	356.93
589.807	293.74
590.229	354.59
590.651	392.04
591.073	319.48
591.494	291.4
591.916	354.59
592.337	333.53
592.759	370.97
593.18	342.89
593.601	356.93
594.022	305.44
594.444	335.87
594.865	349.91
595.286	317.14
595.707	328.85
596.128	307.78
596.549	413.1
596.97	340.55
597.39	352.25
597.811	296.08
598.232	324.16
598.652	296.08
599.073	317.14
599.494	345.23
599.914	298.42
600.334	321.82
600.755	373.32
601.175	310.12
601.595	361.61
602.015	342.89
602.436	312.46
602.856	399.06
603.276	319.48
603.696	340.55
604.115	293.74
604.535	303.1
604.955	373.32
605.375	399.06
605.794	307.78
606.214	331.19
606.634	303.1
607.053	380.34
607.473	392.04
607.892	366.29
608.311	340.55
608.731	312.46
609.15	378
609.569	333.53
609.988	338.21
610.407	298.42
610.826	298.42
611.245	396.72
611.664	387.36
612.083	375.66
612.501	389.7
612.92	300.76
613.339	335.87
613.757	368.63
614.176	333.53
614.594	317.14
615.013	352.25
615.431	314.8
615.85	298.42
616.268	246.93
616.686	333.53
617.104	359.27
617.522	354.59
617.94	370.97
618.358	303.1
618.776	317.14
619.194	256.29
619.612	296.08
620.03	378
620.447	349.91
620.865	361.61
621.282	326.5
621.7	335.87
622.117	340.55
622.535	307.78
622.952	363.95
623.369	277.35
623.787	394.38
624.204	298.42
624.621	300.76
625.038	319.48
625.455	392.04
625.872	300.76
626.289	380.34
626.706	342.89
627.123	347.57
627.539	300.76
627.956	394.38
628.373	345.23
628.789	345.23
629.206	389.7
629.622	319.48
630.038	366.29
630.455	258.63
630.871	352.25
631.287	335.87
631.703	319.48
632.12	347.57
632.536	354.59
632.952	410.76
633.368	300.76
633.783	342.89
634.199	310.12
634.615	328.85
635.031	375.66
635.446	352.25
635.862	321.82
636.277	319.48
636.693	352.25
637.108	361.61
637.524	438.85
637.939	298.42
638.354	389.7
638.77	307.78
639.185	401.4
639.6	338.21
640.015	333.53
640.43	317.14
640.845	399.06
641.259	333.53
641.674	366.29
642.089	326.5
642.504	319.48
642.918	331.19
643.333	335.87
643.747	328.85
644.162	324.16
644.576	342.89
644.991	340.55
645.405	328.85
645.819	347.57
646.233	392.04
646.647	298.42
647.061	359.27
647.475	300.76
647.889	319.48
648.303	310.12
648.717	324.16
649.131	359.27
649.545	291.4
649.958	314.8
650.372	338.21
650.785	401.4
651.199	303.1
651.612	314.8
652.026	378
652.439	291.4
652.852	319.48
653.266	260.97
653.679	340.55
654.092	284.38
654.505	314.8
654.918	277.35
655.331	324.16
655.744	307.78
656.156	312.46
656.569	242.25
656.982	335.87
657.394	359.27
657.807	333.53
658.22	378
658.632	328.85
659.044	366.29
659.457	275.01
659.869	326.5
660.281	289.06
660.693	333.53
661.106	352.25
661.518	378
661.93	286.72
662.342	352.25
662.754	349.91
663.165	349.91
663.577	293.74
663.989	373.32
664.401	317.14
664.812	265.65
665.224	354.59
665.635	303.1
666.047	319.48
666.458	338.21
666.869	378
667.281	389.7
667.692	321.82
668.103	230.54
668.514	338.21
668.925	307.78
669.336	335.87
669.747	345.23
670.158	331.19
670.569	333.53
670.979	356.93
671.39	375.66
671.801	366.29
672.211	326.5
672.622	335.87
673.032	333.53
673.443	342.89
673.853	347.57
674.263	338.21
674.674	352.25
675.084	349.91
675.494	326.5
675.904	319.48
676.314	399.06
676.724	368.63
677.134	373.32
677.544	333.53
677.953	324.16
678.363	378
678.773	401.4
679.182	342.89
679.592	331.19
680.001	317.14
680.411	331.19
680.82	314.8
681.23	307.78
681.639	363.95
682.048	399.06
682.457	321.82
682.866	363.95
683.275	314.8
683.684	347.57
684.093	331.19
684.502	307.78
684.911	361.61
685.32	326.5
685.728	314.8
686.137	392.04
686.546	366.29
686.954	345.23
687.363	342.89
687.771	359.27
688.179	347.57
688.588	385.02
688.996	338.21
689.404	298.42
689.812	335.87
690.22	366.29
690.628	399.06
691.036	338.21
691.444	342.89
691.852	347.57
692.26	347.57
692.667	359.27
693.075	305.44
693.483	349.91
693.89	370.97
694.298	333.53
694.705	340.55
695.112	349.91
695.52	298.42
695.927	359.27
696.334	378
696.741	340.55
697.148	363.95
697.555	342.89
697.962	331.19
698.369	307.78
698.776	317.14
699.183	338.21
699.59	303.1
699.996	401.4
700.403	296.08
700.81	380.34
701.216	328.85
701.623	251.61
702.029	258.63
702.435	293.74
702.842	307.78
703.248	310.12
703.654	328.85
704.06	335.87
704.466	349.91
704.872	319.48
705.278	347.57
705.684	370.97
706.09	370.97
706.496	307.78
706.901	319.48
707.307	347.57
707.712	275.01
708.118	331.19
708.523	361.61
708.929	356.93
709.334	361.61
709.74	279.69
710.145	279.69
710.55	359.27
710.955	328.85
711.36	387.36
711.765	300.76
712.17	333.53
712.575	378
712.98	815.68
713.385	331.19
713.789	413.1
714.194	335.87
714.599	345.23
715.003	333.53
715.408	317.14
715.812	342.89
716.217	324.16
716.621	361.61
717.025	378
717.429	314.8
717.833	368.63
718.238	354.59
718.642	293.74
719.046	326.5
719.449	307.78
719.853	289.06
720.257	342.89
720.661	331.19
721.065	380.34
721.468	347.57
721.872	347.57
722.275	363.95
722.679	378
723.082	307.78
723.485	352.25
723.889	352.25
724.292	347.57
724.695	303.1
725.098	403.74
725.501	312.46
725.904	326.5
726.307	347.57
726.71	354.59
727.113	342.89
727.516	345.23
727.918	352.25
728.321	375.66
728.724	286.72
729.126	275.01
729.529	324.16
729.931	340.55
730.333	296.08
730.736	293.74
731.138	331.19
731.54	312.46
731.942	307.78
732.344	293.74
732.746	354.59
733.148	363.95
733.55	326.5
733.952	380.34
734.354	303.1
734.756	361.61
735.157	347.57
735.559	342.89
735.96	340.55
736.362	317.14
736.763	284.38
737.165	286.72
737.566	321.82
737.967	335.87
738.368	342.89
738.77	289.06
739.171	307.78
739.572	354.59
739.973	347.57
740.374	251.61
740.774	314.8
741.175	375.66
741.576	333.53
741.977	347.57
742.377	361.61
742.778	349.91
743.178	352.25
743.579	396.72
743.979	342.89
744.379	345.23
744.78	289.06
745.18	392.04
745.58	373.32
745.98	317.14
746.38	333.53
746.78	352.25
747.18	356.93
747.58	333.53
747.98	328.85
748.38	349.91
748.779	307.78
749.179	356.93
749.578	349.91
749.978	300.76
750.377	368.63
750.777	333.53
751.176	333.53
751.575	307.78
751.975	352.25
752.374	345.23
752.773	317.14
753.172	331.19
753.571	324.16
753.97	321.82
754.369	328.85
754.768	328.85
755.166	321.82
755.565	303.1
755.964	335.87
756.362	319.48
756.761	324.16
757.159	303.1
757.558	312.46
757.956	375.66
758.354	338.21
758.753	270.33
759.151	331.19
759.549	382.68
759.947	333.53
760.345	408.42
760.743	310.12
761.141	331.19
761.539	366.29
761.936	289.06
762.334	368.63
762.732	352.25
763.129	340.55
763.527	324.16
763.924	291.4
764.322	406.08
764.719	317.14
765.117	321.82
765.514	363.95
765.911	314.8
