Data from Al_FLMS009871__572__14-44-56-619.txt Node

Date: Fri Mar 08 14:44:56 CST 2024
User: pe5414po
Spectrometer: FLMS00987
Trigger mode: 0
Integration Time (sec): 1.000000E-1
Scans to average: 1
Electric dark correction enabled: true
Nonlinearity correction enabled: false
Boxcar width: 0
XAxis mode: Wavelengths
Number of Pixels in Spectrum: 2048
>>>>>Begin Spectral Data<<<<<
188.938	-76.21
189.409	-76.21
189.879	-76.21
190.349	-87.92
190.819	-64.51
191.29	-78.55
191.76	-125.36
192.23	-48.13
192.7	-85.58
193.17	-41.11
193.64	-160.47
194.109	-15.36
194.579	24.43
195.049	5.71
195.519	3.36
195.988	10.39
196.458	73.58
196.927	78.26
197.397	96.99
197.866	115.71
198.336	146.14
198.805	146.14
199.274	162.52
199.744	139.12
200.213	181.25
200.682	256.14
201.151	176.56
201.62	204.65
202.089	188.27
202.558	260.82
203.027	274.87
203.495	253.8
203.964	263.16
204.433	361.47
204.902	253.8
205.37	293.59
205.839	272.53
206.307	277.21
206.776	331.04
207.244	272.53
207.712	284.23
208.181	286.57
208.649	317
209.117	279.55
209.585	338.06
210.053	293.59
210.521	242.1
210.989	319.34
211.457	244.44
211.925	249.12
212.393	312.32
212.861	328.7
213.328	286.57
213.796	291.25
214.264	279.55
214.731	251.46
215.199	272.53
215.666	284.23
216.133	230.4
216.601	295.93
217.068	244.44
217.535	281.89
218.003	260.82
218.47	317
218.937	298.27
219.404	230.4
219.871	295.93
220.338	286.57
220.805	366.15
221.271	225.72
221.738	274.87
222.205	377.85
222.671	190.61
223.138	244.44
223.605	206.99
224.071	293.59
224.538	317
225.004	265.5
225.47	272.53
225.937	258.48
226.403	321.68
226.869	174.22
227.335	265.5
227.801	295.93
228.267	312.32
228.733	307.63
229.199	326.36
229.665	293.59
230.131	312.32
230.597	237.42
231.062	221.03
231.528	286.57
231.994	260.82
232.459	274.87
232.925	237.42
233.39	340.4
233.856	265.5
234.321	263.16
234.786	279.55
235.252	218.69
235.717	246.78
236.182	237.42
236.647	319.34
237.112	267.85
237.577	335.72
238.042	363.81
238.507	317
238.972	295.93
239.436	302.95
239.901	356.79
240.366	239.76
240.83	211.67
241.295	307.63
241.76	260.82
242.224	314.66
242.688	270.19
243.153	298.27
243.617	277.21
244.081	272.53
244.545	228.06
245.01	286.57
245.474	338.06
245.938	331.04
246.402	258.48
246.866	312.32
247.33	335.72
247.793	324.02
248.257	260.82
248.721	359.13
249.185	209.33
249.648	230.4
250.112	317
250.575	244.44
251.039	307.63
251.502	279.55
251.965	274.87
252.429	328.7
252.892	272.53
253.355	281.89
253.818	319.34
254.281	251.46
254.744	295.93
255.207	281.89
255.67	281.89
256.133	300.61
256.596	319.34
257.059	284.23
257.522	389.55
257.984	309.97
258.447	324.02
258.909	277.21
259.372	242.1
259.834	246.78
260.297	239.76
260.759	265.5
261.221	274.87
261.684	328.7
262.146	312.32
262.608	242.1
263.07	326.36
263.532	265.5
263.994	235.08
264.456	242.1
264.918	286.57
265.38	338.06
265.842	260.82
266.303	305.29
266.765	253.8
267.227	293.59
267.688	305.29
268.15	291.25
268.611	279.55
269.072	216.35
269.534	288.91
269.995	317
270.456	272.53
270.918	295.93
271.379	309.97
271.84	314.66
272.301	272.53
272.762	314.66
273.223	335.72
273.684	281.89
274.144	326.36
274.605	253.8
275.066	279.55
275.527	253.8
275.987	216.35
276.448	300.61
276.908	309.97
277.369	230.4
277.829	272.53
278.289	281.89
278.75	314.66
279.21	249.12
279.67	288.91
280.13	281.89
280.59	263.16
281.05	293.59
281.51	307.63
281.97	324.02
282.43	267.85
282.89	239.76
283.35	274.87
283.809	300.61
284.269	312.32
284.729	260.82
285.188	260.82
285.648	382.53
286.107	338.06
286.567	288.91
287.026	253.8
287.485	305.29
287.944	281.89
288.404	281.89
288.863	347.42
289.322	277.21
289.781	326.36
290.24	333.38
290.699	342.74
291.158	295.93
291.616	345.08
292.075	305.29
292.534	317
292.992	321.68
293.451	288.91
293.91	324.02
294.368	363.81
294.827	249.12
295.285	279.55
295.743	295.93
296.202	307.63
296.66	291.25
297.118	242.1
297.576	370.83
298.034	373.17
298.492	309.97
298.95	295.93
299.408	277.21
299.866	260.82
300.324	314.66
300.781	319.34
301.239	293.59
301.697	256.14
302.154	300.61
302.612	265.5
303.069	286.57
303.527	293.59
303.984	284.23
304.441	305.29
304.899	284.23
305.356	293.59
305.813	321.68
306.27	293.59
306.727	307.63
307.184	331.04
307.641	274.87
308.098	260.82
308.555	335.72
309.012	263.16
309.468	256.14
309.925	288.91
310.382	309.97
310.838	305.29
311.295	305.29
311.751	345.08
312.208	263.16
312.664	253.8
313.12	307.63
313.577	321.68
314.033	394.23
314.489	328.7
314.945	309.97
315.401	309.97
315.857	260.82
316.313	319.34
316.769	324.02
317.225	281.89
317.681	319.34
318.136	319.34
318.592	333.38
319.048	321.68
319.503	324.02
319.959	272.53
320.414	235.08
320.869	232.74
321.325	293.59
321.78	270.19
322.235	249.12
322.691	239.76
323.146	319.34
323.601	237.42
324.056	281.89
324.511	326.36
324.966	284.23
325.421	291.25
325.875	307.63
326.33	328.7
326.785	370.83
327.24	307.63
327.694	291.25
328.149	277.21
328.603	398.92
329.058	228.06
329.512	324.02
329.966	277.21
330.421	293.59
330.875	321.68
331.329	321.68
331.783	298.27
332.237	302.95
332.691	270.19
333.145	288.91
333.599	317
334.053	277.21
334.507	298.27
334.96	235.08
335.414	281.89
335.868	291.25
336.321	349.76
336.775	389.55
337.228	263.16
337.682	347.42
338.135	300.61
338.588	331.04
339.042	359.13
339.495	281.89
339.948	272.53
340.401	328.7
340.854	317
341.307	363.81
341.76	249.12
342.213	347.42
342.666	314.66
343.119	281.89
343.571	258.48
344.024	340.4
344.477	300.61
344.929	298.27
345.382	286.57
345.834	279.55
346.287	302.95
346.739	314.66
347.191	263.16
347.644	331.04
348.096	324.02
348.548	340.4
349	340.4
349.452	291.25
349.904	302.95
350.356	274.87
350.808	251.46
351.26	307.63
351.711	249.12
352.163	288.91
352.615	312.32
353.066	314.66
353.518	324.02
353.969	317
354.421	300.61
354.872	274.87
355.324	307.63
355.775	298.27
356.226	277.21
356.677	356.79
357.128	288.91
357.579	244.44
358.03	338.06
358.481	368.49
358.932	300.61
359.383	324.02
359.834	356.79
360.285	347.42
360.735	298.27
361.186	305.29
361.637	307.63
362.087	309.97
362.538	286.57
362.988	300.61
363.438	321.68
363.889	277.21
364.339	267.85
364.789	307.63
365.239	309.97
365.689	288.91
366.139	270.19
366.589	363.81
367.039	347.42
367.489	324.02
367.939	309.97
368.389	333.38
368.839	291.25
369.288	314.66
369.738	302.95
370.187	281.89
370.637	340.4
371.086	314.66
371.536	307.63
371.985	326.36
372.434	356.79
372.884	317
373.333	340.4
373.782	263.16
374.231	267.85
374.68	267.85
375.129	333.38
375.578	321.68
376.027	300.61
376.475	326.36
376.924	317
377.373	377.85
377.822	317
378.27	361.47
378.719	295.93
379.167	286.57
379.616	298.27
380.064	319.34
380.512	260.82
380.961	307.63
381.409	317
381.857	277.21
382.305	370.83
382.753	347.42
383.201	286.57
383.649	328.7
384.097	368.49
384.545	288.91
384.992	361.47
385.44	317
385.888	305.29
386.335	312.32
386.783	239.76
387.231	312.32
387.678	309.97
388.125	312.32
388.573	345.08
389.02	302.95
389.467	321.68
389.914	295.93
390.362	302.95
390.809	366.15
391.256	317
391.703	312.32
392.15	293.59
392.596	317
393.043	300.61
393.49	286.57
393.937	302.95
394.383	274.87
394.83	277.21
395.276	314.66
395.723	302.95
396.169	410.62
396.616	302.95
397.062	317
397.508	405.94
397.954	279.55
398.401	333.38
398.847	256.14
399.293	338.06
399.739	265.5
400.185	384.87
400.631	265.5
401.076	293.59
401.522	338.06
401.968	359.13
402.414	291.25
402.859	293.59
403.305	354.44
403.75	305.29
404.196	265.5
404.641	309.97
405.086	251.46
405.532	328.7
405.977	293.59
406.422	317
406.867	342.74
407.312	258.48
407.757	324.02
408.202	321.68
408.647	300.61
409.092	298.27
409.537	298.27
409.982	331.04
410.426	340.4
410.871	328.7
411.316	356.79
411.76	356.79
412.205	293.59
412.649	256.14
413.093	305.29
413.538	286.57
413.982	235.08
414.426	326.36
414.87	284.23
415.314	302.95
415.758	331.04
416.202	300.61
416.646	380.19
417.09	382.53
417.534	312.32
417.978	298.27
418.421	314.66
418.865	274.87
419.309	286.57
419.752	331.04
420.196	295.93
420.639	288.91
421.083	274.87
421.526	293.59
421.969	293.59
422.412	312.32
422.856	342.74
423.299	354.44
423.742	284.23
424.185	302.95
424.628	307.63
425.071	321.68
425.513	277.21
425.956	312.32
426.399	260.82
426.842	324.02
427.284	256.14
427.727	284.23
428.169	331.04
428.612	375.51
429.054	359.13
429.497	401.26
429.939	307.63
430.381	321.68
430.823	309.97
431.265	401.26
431.707	314.66
432.149	394.23
432.591	345.08
433.033	258.48
433.475	253.8
433.917	288.91
434.359	281.89
434.8	300.61
435.242	270.19
435.684	286.57
436.125	342.74
436.567	347.42
437.008	291.25
437.449	286.57
437.891	335.72
438.332	349.76
438.773	281.89
439.214	324.02
439.656	307.63
440.097	272.53
440.538	326.36
440.978	291.25
441.419	307.63
441.86	356.79
442.301	338.06
442.742	384.87
443.182	281.89
443.623	384.87
444.063	333.38
444.504	319.34
444.944	319.34
445.385	295.93
445.825	305.29
446.265	298.27
446.706	277.21
447.146	347.42
447.586	363.81
448.026	349.76
448.466	305.29
448.906	256.14
449.346	286.57
449.786	356.79
450.225	302.95
450.665	298.27
451.105	326.36
451.544	317
451.984	375.51
452.424	270.19
452.863	291.25
453.302	319.34
453.742	361.47
454.181	338.06
454.62	338.06
455.059	319.34
455.499	295.93
455.938	279.55
456.377	347.42
456.816	305.29
457.254	366.15
457.693	391.89
458.132	342.74
458.571	342.74
459.01	307.63
459.448	239.76
459.887	272.53
460.325	293.59
460.764	335.72
461.202	324.02
461.641	307.63
462.079	309.97
462.517	354.44
462.955	319.34
463.393	284.23
463.832	272.53
464.27	263.16
464.708	324.02
465.145	333.38
465.583	354.44
466.021	319.34
466.459	347.42
466.897	279.55
467.334	307.63
467.772	328.7
468.209	352.1
468.647	347.42
469.084	319.34
469.522	314.66
469.959	305.29
470.396	340.4
470.833	305.29
471.271	295.93
471.708	363.81
472.145	312.32
472.582	326.36
473.019	349.76
473.456	307.63
473.892	309.97
474.329	223.37
474.766	342.74
475.202	326.36
475.639	324.02
476.076	295.93
476.512	300.61
476.949	298.27
477.385	356.79
477.821	359.13
478.258	298.27
478.694	338.06
479.13	338.06
479.566	361.47
480.002	359.13
480.438	366.15
480.874	281.89
481.31	324.02
481.746	298.27
482.181	321.68
482.617	408.28
483.053	361.47
483.488	251.46
483.924	305.29
484.36	340.4
484.795	307.63
485.23	368.49
485.666	263.16
486.101	270.19
486.536	293.59
486.971	352.1
487.407	284.23
487.842	328.7
488.277	347.42
488.712	340.4
489.146	359.13
489.581	293.59
490.016	338.06
490.451	286.57
490.885	298.27
491.32	288.91
491.755	331.04
492.189	347.42
492.624	340.4
493.058	342.74
493.492	338.06
493.927	317
494.361	291.25
494.795	326.36
495.229	246.78
495.663	403.6
496.097	281.89
496.531	314.66
496.965	258.48
497.399	293.59
497.833	389.55
498.266	356.79
498.7	349.76
499.134	256.14
499.567	349.76
500.001	260.82
500.434	286.57
500.868	307.63
501.301	345.08
501.734	345.08
502.168	370.83
502.601	345.08
503.034	291.25
503.467	333.38
503.9	370.83
504.333	326.36
504.766	324.02
505.199	309.97
505.632	307.63
506.064	373.17
506.497	295.93
506.93	349.76
507.362	338.06
507.795	352.1
508.227	309.97
508.66	298.27
509.092	359.13
509.524	277.21
509.956	345.08
510.389	352.1
510.821	328.7
511.253	293.59
511.685	331.04
512.117	291.25
512.549	270.19
512.981	309.97
513.412	256.14
513.844	363.81
514.276	328.7
514.707	370.83
515.139	375.51
515.571	368.49
516.002	352.1
516.433	361.47
516.865	298.27
517.296	291.25
517.727	256.14
518.159	326.36
518.59	288.91
519.021	324.02
519.452	366.15
519.883	345.08
520.314	267.85
520.744	333.38
521.175	345.08
521.606	338.06
522.037	361.47
522.467	340.4
522.898	340.4
523.328	356.79
523.759	347.42
524.189	317
524.62	345.08
525.05	256.14
525.48	291.25
525.91	239.76
526.341	333.38
526.771	286.57
527.201	382.53
527.631	319.34
528.061	279.55
528.49	326.36
528.92	373.17
529.35	356.79
529.78	347.42
530.209	333.38
530.639	328.7
531.068	286.57
531.498	328.7
531.927	398.92
532.357	377.85
532.786	286.57
533.215	284.23
533.644	314.66
534.074	298.27
534.503	331.04
534.932	307.63
535.361	331.04
535.79	345.08
536.218	305.29
536.647	321.68
537.076	295.93
537.505	321.68
537.933	272.53
538.362	335.72
538.79	317
539.219	298.27
539.647	377.85
540.076	300.61
540.504	370.83
540.932	361.47
541.36	342.74
541.788	317
542.217	314.66
542.645	354.44
543.073	326.36
543.5	312.32
543.928	300.61
544.356	331.04
544.784	352.1
545.211	324.02
545.639	321.68
546.067	291.25
546.494	349.76
546.922	382.53
547.349	340.4
547.776	377.85
548.204	286.57
548.631	260.82
549.058	342.74
549.485	317
549.912	284.23
550.339	317
550.766	361.47
551.193	321.68
551.62	356.79
552.047	359.13
552.474	244.44
552.9	270.19
553.327	345.08
553.754	342.74
554.18	354.44
554.607	333.38
555.033	319.34
555.459	342.74
555.886	317
556.312	342.74
556.738	349.76
557.164	300.61
557.59	302.95
558.016	267.85
558.442	260.82
558.868	331.04
559.294	380.19
559.72	246.78
560.145	387.21
560.571	291.25
560.997	317
561.422	317
561.848	368.49
562.273	363.81
562.699	314.66
563.124	324.02
563.549	347.42
563.974	340.4
564.4	361.47
564.825	302.95
565.25	321.68
565.675	380.19
566.1	317
566.525	260.82
566.95	317
567.374	270.19
567.799	270.19
568.224	263.16
568.648	338.06
569.073	333.38
569.497	291.25
569.922	333.38
570.346	380.19
570.771	267.85
571.195	321.68
571.619	281.89
572.043	312.32
572.467	279.55
572.891	345.08
573.315	298.27
573.739	347.42
574.163	293.59
574.587	319.34
575.011	300.61
575.435	324.02
575.858	333.38
576.282	349.76
576.705	319.34
577.129	394.23
577.552	298.27
577.976	298.27
578.399	312.32
578.822	300.61
579.245	305.29
579.669	356.79
580.092	314.66
580.515	317
580.938	314.66
581.361	326.36
581.784	286.57
582.206	317
582.629	342.74
583.052	242.1
583.474	324.02
583.897	307.63
584.32	281.89
584.742	307.63
585.165	305.29
585.587	331.04
586.009	389.55
586.431	342.74
586.854	295.93
587.276	335.72
587.698	293.59
588.12	317
588.542	302.95
588.964	359.13
589.386	333.38
589.807	312.32
590.229	370.83
590.651	284.23
591.073	321.68
591.494	302.95
591.916	274.87
592.337	293.59
592.759	284.23
593.18	293.59
593.601	288.91
594.022	405.94
594.444	321.68
594.865	349.76
595.286	331.04
595.707	300.61
596.128	251.46
596.549	331.04
596.97	288.91
597.39	340.4
597.811	361.47
598.232	347.42
598.652	340.4
599.073	338.06
599.494	354.44
599.914	326.36
600.334	338.06
600.755	307.63
601.175	347.42
601.595	356.79
602.015	338.06
602.436	300.61
602.856	370.83
603.276	319.34
603.696	384.87
604.115	342.74
604.535	356.79
604.955	274.87
605.375	295.93
605.794	384.87
606.214	298.27
606.634	249.12
607.053	326.36
607.473	270.19
607.892	319.34
608.311	361.47
608.731	317
609.15	286.57
609.569	263.16
609.988	319.34
610.407	335.72
610.826	356.79
611.245	307.63
611.664	366.15
612.083	324.02
612.501	272.53
612.92	300.61
613.339	319.34
613.757	338.06
614.176	284.23
614.594	328.7
615.013	338.06
615.431	361.47
615.85	347.42
616.268	354.44
616.686	309.97
617.104	333.38
617.522	340.4
617.94	291.25
618.358	324.02
618.776	267.85
619.194	298.27
619.612	359.13
620.03	319.34
620.447	335.72
620.865	335.72
621.282	352.1
621.7	382.53
622.117	338.06
622.535	333.38
622.952	338.06
623.369	377.85
623.787	291.25
624.204	375.51
624.621	401.26
625.038	384.87
625.455	335.72
625.872	286.57
626.289	314.66
626.706	258.48
627.123	375.51
627.539	366.15
627.956	270.19
628.373	345.08
628.789	260.82
629.206	295.93
629.622	319.34
630.038	286.57
630.455	249.12
630.871	272.53
631.287	317
631.703	300.61
632.12	345.08
632.536	293.59
632.952	258.48
633.368	272.53
633.783	295.93
634.199	300.61
634.615	345.08
635.031	340.4
635.446	305.29
635.862	405.94
636.277	333.38
636.693	286.57
637.108	359.13
637.524	354.44
637.939	326.36
638.354	331.04
638.77	317
639.185	321.68
639.6	356.79
640.015	272.53
640.43	293.59
640.845	324.02
641.259	317
641.674	305.29
642.089	314.66
642.504	335.72
642.918	326.36
643.333	258.48
643.747	326.36
644.162	382.53
644.576	352.1
644.991	286.57
645.405	345.08
645.819	356.79
646.233	328.7
646.647	312.32
647.061	349.76
647.475	319.34
647.889	272.53
648.303	314.66
648.717	312.32
649.131	307.63
649.545	300.61
649.958	324.02
650.372	373.17
650.785	288.91
651.199	291.25
651.612	244.44
652.026	321.68
652.439	347.42
652.852	309.97
653.266	366.15
653.679	328.7
654.092	284.23
654.505	338.06
654.918	286.57
655.331	314.66
655.744	370.83
656.156	349.76
656.569	291.25
656.982	349.76
657.394	345.08
657.807	331.04
658.22	317
658.632	352.1
659.044	260.82
659.457	347.42
659.869	317
660.281	305.29
660.693	373.17
661.106	295.93
661.518	291.25
661.93	347.42
662.342	331.04
662.754	356.79
663.165	359.13
663.577	309.97
663.989	324.02
664.401	298.27
664.812	352.1
665.224	373.17
665.635	333.38
666.047	363.81
666.458	314.66
666.869	349.76
667.281	342.74
667.692	302.95
668.103	286.57
668.514	345.08
668.925	302.95
669.336	312.32
669.747	317
670.158	312.32
670.569	333.38
670.979	363.81
671.39	335.72
671.801	272.53
672.211	312.32
672.622	349.76
673.032	380.19
673.443	333.38
673.853	305.29
674.263	302.95
674.674	349.76
675.084	349.76
675.494	312.32
675.904	298.27
676.314	359.13
676.724	279.55
677.134	345.08
677.544	274.87
677.953	291.25
678.363	373.17
678.773	394.23
679.182	272.53
679.592	410.62
680.001	328.7
680.411	258.48
680.82	239.76
681.23	295.93
681.639	286.57
682.048	295.93
682.457	354.44
682.866	354.44
683.275	288.91
683.684	317
684.093	260.82
684.502	309.97
684.911	324.02
685.32	328.7
685.728	277.21
686.137	338.06
686.546	356.79
686.954	335.72
687.363	309.97
687.771	274.87
688.179	319.34
688.588	375.51
688.996	356.79
689.404	324.02
689.812	312.32
690.22	342.74
690.628	328.7
691.036	356.79
691.444	302.95
691.852	312.32
692.26	349.76
692.667	328.7
693.075	394.23
693.483	288.91
693.89	349.76
694.298	260.82
694.705	286.57
695.112	286.57
695.52	328.7
695.927	368.49
696.334	394.23
696.741	349.76
697.148	326.36
697.555	300.61
697.962	349.76
698.369	258.48
698.776	377.85
699.183	361.47
699.59	333.38
699.996	293.59
700.403	335.72
700.81	293.59
701.216	302.95
701.623	293.59
702.029	331.04
702.435	333.38
702.842	302.95
703.248	354.44
703.654	321.68
704.06	326.36
704.466	335.72
704.872	298.27
705.278	314.66
705.684	359.13
706.09	295.93
706.496	366.15
706.901	309.97
707.307	312.32
707.712	293.59
708.118	288.91
708.523	281.89
708.929	319.34
709.334	331.04
709.74	317
710.145	281.89
710.55	333.38
710.955	281.89
711.36	363.81
711.765	300.61
712.17	305.29
712.575	270.19
712.98	820.21
713.385	338.06
713.789	333.38
714.194	321.68
714.599	305.29
715.003	349.76
715.408	333.38
715.812	321.68
716.217	317
716.621	359.13
717.025	345.08
717.429	321.68
717.833	340.4
718.238	352.1
718.642	298.27
719.046	356.79
719.449	382.53
719.853	251.46
720.257	288.91
720.661	314.66
721.065	286.57
721.468	319.34
721.872	324.02
722.275	258.48
722.679	228.06
723.082	317
723.485	324.02
723.889	363.81
724.292	354.44
724.695	279.55
725.098	361.47
725.501	335.72
725.904	305.29
726.307	333.38
726.71	263.16
727.113	340.4
727.516	295.93
727.918	368.49
728.321	302.95
728.724	356.79
729.126	391.89
729.529	321.68
729.931	274.87
730.333	279.55
730.736	328.7
731.138	319.34
731.54	293.59
731.942	274.87
732.344	300.61
732.746	342.74
733.148	328.7
733.55	246.78
733.952	312.32
734.354	281.89
734.756	321.68
735.157	309.97
735.559	345.08
735.96	260.82
736.362	356.79
736.763	349.76
737.165	319.34
737.566	305.29
737.967	286.57
738.368	319.34
738.77	265.5
739.171	309.97
739.572	284.23
739.973	321.68
740.374	389.55
740.774	321.68
741.175	263.16
741.576	279.55
741.977	321.68
742.377	377.85
742.778	279.55
743.178	328.7
743.579	291.25
743.979	284.23
744.379	317
744.78	333.38
745.18	366.15
745.58	380.19
745.98	345.08
746.38	314.66
746.78	317
747.18	319.34
747.58	288.91
747.98	333.38
748.38	368.49
748.779	300.61
749.179	286.57
749.578	375.51
749.978	340.4
750.377	321.68
750.777	319.34
751.176	265.5
751.575	356.79
751.975	293.59
752.374	237.42
752.773	295.93
753.172	279.55
753.571	305.29
753.97	302.95
754.369	284.23
754.768	340.4
755.166	314.66
755.565	293.59
755.964	345.08
756.362	359.13
756.761	340.4
757.159	265.5
757.558	363.81
757.956	338.06
758.354	321.68
758.753	368.49
759.151	335.72
759.549	366.15
759.947	338.06
760.345	302.95
760.743	284.23
761.141	441.04
761.539	342.74
761.936	314.66
762.334	298.27
762.732	270.19
763.129	324.02
763.527	288.91
763.924	298.27
764.322	384.87
764.719	324.02
765.117	326.36
765.514	328.7
765.911	361.47
766.308	314.66
766.705	302.95
767.102	384.87
767.499	361.47
767.896	317
