Data from Al_FLMS009871__171__11-58-49-778.txt Node

Date: Fri Mar 08 11:58:49 CST 2024
User: pe5414po
Spectrometer: FLMS00987
Trigger mode: 0
Integration Time (sec): 1.000000E-1
Scans to average: 1
Electric dark correction enabled: true
Nonlinearity correction enabled: false
Boxcar width: 0
XAxis mode: Wavelengths
Number of Pixels in Spectrum: 2048
>>>>>Begin Spectral Data<<<<<
188.938	-55.3
189.409	-55.3
189.879	-55.3
190.349	-76.36
190.819	-74.02
191.29	-95.08
191.76	-85.72
192.23	-88.06
192.7	-95.08
193.17	-62.32
193.64	-71.68
194.109	-34.23
194.579	-31.89
195.049	26.62
195.519	66.41
195.988	57.05
196.458	71.09
196.927	94.5
197.397	64.07
197.866	73.43
198.336	110.88
198.805	155.35
199.274	218.55
199.744	106.2
200.213	256
200.682	274.72
201.151	183.44
201.62	178.76
202.089	239.61
202.558	244.29
203.027	267.7
203.495	263.02
203.964	256
204.433	244.29
204.902	227.91
205.37	244.29
205.839	260.68
206.307	309.83
206.776	307.49
207.244	314.51
207.712	330.89
208.181	232.59
208.649	302.81
209.117	288.76
209.585	337.91
210.053	291.1
210.521	302.81
210.989	351.96
211.457	265.36
211.925	270.04
212.393	274.72
212.861	234.93
213.328	272.38
213.796	319.19
214.264	260.68
214.731	253.66
215.199	288.76
215.666	241.95
216.133	349.62
216.601	279.4
217.068	293.44
217.535	223.23
218.003	279.4
218.47	305.15
218.937	209.19
219.404	281.74
219.871	256
220.338	298.13
220.805	234.93
221.271	253.66
221.738	241.95
222.205	253.66
222.671	246.63
223.138	223.23
223.605	265.36
224.071	251.32
224.538	312.17
225.004	295.79
225.47	284.08
225.937	239.61
226.403	213.87
226.869	239.61
227.335	253.66
227.801	197.48
228.267	248.97
228.733	256
229.199	272.38
229.665	293.44
230.131	246.63
230.597	337.91
231.062	258.34
231.528	241.95
231.994	295.79
232.459	258.34
232.925	270.04
233.39	305.15
233.856	223.23
234.321	244.29
234.786	309.83
235.252	330.89
235.717	263.02
236.182	284.08
236.647	260.68
237.112	274.72
237.577	206.84
238.042	227.91
238.507	323.87
238.972	232.59
239.436	211.53
239.901	312.17
240.366	305.15
240.83	314.51
241.295	237.27
241.76	281.74
242.224	234.93
242.688	351.96
243.153	286.42
243.617	220.89
244.081	251.32
244.545	274.72
245.01	328.55
245.474	234.93
245.938	342.6
246.402	307.49
246.866	309.83
247.33	335.57
247.793	260.68
248.257	281.74
248.721	256
249.185	274.72
249.648	293.44
250.112	284.08
250.575	241.95
251.039	258.34
251.502	323.87
251.965	291.1
252.429	328.55
252.892	246.63
253.355	337.91
253.818	291.1
254.281	373.02
254.744	302.81
255.207	216.21
255.67	256
256.133	256
256.596	265.36
257.059	389.41
257.522	288.76
257.984	295.79
258.447	277.06
258.909	272.38
259.372	272.38
259.834	279.4
260.297	248.97
260.759	263.02
261.221	377.7
261.684	274.72
262.146	274.72
262.608	263.02
263.07	284.08
263.532	267.7
263.994	295.79
264.456	300.47
264.918	241.95
265.38	258.34
265.842	253.66
266.303	351.96
266.765	326.21
267.227	302.81
267.688	319.19
268.15	358.98
268.611	323.87
269.072	302.81
269.534	253.66
269.995	260.68
270.456	281.74
270.918	333.23
271.379	319.19
271.84	321.53
272.301	270.04
272.762	288.76
273.223	314.51
273.684	293.44
274.144	300.47
274.605	251.32
275.066	307.49
275.527	333.23
275.987	342.6
276.448	241.95
276.908	232.59
277.369	288.76
277.829	375.36
278.289	291.1
278.75	293.44
279.21	326.21
279.67	298.13
280.13	307.49
280.59	316.85
281.05	281.74
281.51	302.81
281.97	326.21
282.43	344.94
282.89	302.81
283.35	321.53
283.809	291.1
284.269	330.89
284.729	307.49
285.188	356.64
285.648	328.55
286.107	260.68
286.567	248.97
287.026	288.76
287.485	279.4
287.944	274.72
288.404	274.72
288.863	309.83
289.322	293.44
289.781	284.08
290.24	281.74
290.699	305.15
291.158	302.81
291.616	281.74
292.075	258.34
292.534	293.44
292.992	267.7
293.451	328.55
293.91	237.27
294.368	258.34
294.827	272.38
295.285	333.23
295.743	373.02
296.202	314.51
296.66	272.38
297.118	293.44
297.576	183.44
298.034	349.62
298.492	337.91
298.95	358.98
299.408	323.87
299.866	277.06
300.324	314.51
300.781	340.26
301.239	286.42
301.697	267.7
302.154	351.96
302.612	295.79
303.069	300.47
303.527	337.91
303.984	286.42
304.441	351.96
304.899	351.96
305.356	302.81
305.813	288.76
306.27	300.47
306.727	300.47
307.184	328.55
307.641	305.15
308.098	307.49
308.555	270.04
309.012	284.08
309.468	274.72
309.925	253.66
310.382	321.53
310.838	312.17
311.295	286.42
311.751	277.06
312.208	312.17
312.664	295.79
313.12	281.74
313.577	337.91
314.033	314.51
314.489	291.1
314.945	244.29
315.401	358.98
315.857	288.76
316.313	281.74
316.769	260.68
317.225	321.53
317.681	281.74
318.136	199.82
318.592	302.81
319.048	321.53
319.503	272.38
319.959	302.81
320.414	211.53
320.869	305.15
321.325	291.1
321.78	293.44
322.235	277.06
322.691	295.79
323.146	337.91
323.601	279.4
324.056	323.87
324.511	286.42
324.966	305.15
325.421	293.44
325.875	256
326.33	314.51
326.785	281.74
327.24	281.74
327.694	239.61
328.149	291.1
328.603	248.97
329.058	316.85
329.512	279.4
329.966	230.25
330.421	312.17
330.875	337.91
331.329	298.13
331.783	284.08
332.237	286.42
332.691	291.1
333.145	270.04
333.599	316.85
334.053	277.06
334.507	300.47
334.96	279.4
335.414	321.53
335.868	358.98
336.321	258.34
336.775	335.57
337.228	373.02
337.682	333.23
338.135	342.6
338.588	347.28
339.042	382.39
339.495	340.26
339.948	314.51
340.401	337.91
340.854	256
341.307	298.13
341.76	277.06
342.213	337.91
342.666	340.26
343.119	291.1
343.571	288.76
344.024	300.47
344.477	358.98
344.929	314.51
345.382	302.81
345.834	307.49
346.287	298.13
346.739	291.1
347.191	319.19
347.644	305.15
348.096	344.94
348.548	377.7
349	288.76
349.452	312.17
349.904	309.83
350.356	284.08
350.808	305.15
351.26	279.4
351.711	309.83
352.163	241.95
352.615	347.28
353.066	347.28
353.518	312.17
353.969	270.04
354.421	260.68
354.872	298.13
355.324	288.76
355.775	291.1
356.226	316.85
356.677	344.94
357.128	274.72
357.579	232.59
358.03	302.81
358.481	298.13
358.932	344.94
359.383	356.64
359.834	344.94
360.285	291.1
360.735	377.7
361.186	302.81
361.637	344.94
362.087	288.76
362.538	321.53
362.988	342.6
363.438	328.55
363.889	265.36
364.339	302.81
364.789	309.83
365.239	267.7
365.689	396.43
366.139	351.96
366.589	267.7
367.039	307.49
367.489	305.15
367.939	300.47
368.389	319.19
368.839	286.42
369.288	260.68
369.738	342.6
370.187	274.72
370.637	326.21
371.086	337.91
371.536	330.89
371.985	281.74
372.434	248.97
372.884	298.13
373.333	246.63
373.782	267.7
374.231	265.36
374.68	333.23
375.129	293.44
375.578	286.42
376.027	291.1
376.475	342.6
376.924	253.66
377.373	380.04
377.822	375.36
378.27	246.63
378.719	239.61
379.167	302.81
379.616	337.91
380.064	293.44
380.512	295.79
380.961	319.19
381.409	258.34
381.857	340.26
382.305	347.28
382.753	281.74
383.201	335.57
383.649	342.6
384.097	328.55
384.545	312.17
384.992	330.89
385.44	274.72
385.888	366
386.335	330.89
386.783	309.83
387.231	300.47
387.678	291.1
388.125	335.57
388.573	361.32
389.02	298.13
389.467	260.68
389.914	265.36
390.362	358.98
390.809	314.51
391.256	349.62
391.703	284.08
392.15	342.6
392.596	337.91
393.043	281.74
393.49	337.91
393.937	305.15
394.383	366
394.83	405.79
395.276	270.04
395.723	307.49
396.169	323.87
396.616	288.76
397.062	220.89
397.508	298.13
397.954	312.17
398.401	403.45
398.847	330.89
399.293	398.77
399.739	321.53
400.185	319.19
400.631	288.76
401.076	333.23
401.522	286.42
401.968	333.23
402.414	307.49
402.859	298.13
403.305	300.47
403.75	375.36
404.196	333.23
404.641	335.57
405.086	373.02
405.532	312.17
405.977	302.81
406.422	305.15
406.867	307.49
407.312	307.49
407.757	281.74
408.202	300.47
408.647	272.38
409.092	321.53
409.537	363.66
409.982	335.57
410.426	298.13
410.871	312.17
411.316	300.47
411.76	298.13
412.205	363.66
412.649	307.49
413.093	328.55
413.538	321.53
413.982	279.4
414.426	321.53
414.87	349.62
415.314	321.53
415.758	347.28
416.202	335.57
416.646	384.73
417.09	309.83
417.534	337.91
417.978	349.62
418.421	387.07
418.865	326.21
419.309	358.98
419.752	302.81
420.196	328.55
420.639	384.73
421.083	330.89
421.526	380.04
421.969	281.74
422.412	302.81
422.856	330.89
423.299	309.83
423.742	323.87
424.185	363.66
424.628	248.97
425.071	291.1
425.513	288.76
425.956	319.19
426.399	391.75
426.842	323.87
427.284	368.34
427.727	316.85
428.169	344.94
428.612	349.62
429.054	314.51
429.497	342.6
429.939	396.43
430.381	391.75
430.823	351.96
431.265	356.64
431.707	370.68
432.149	370.68
432.591	340.26
433.033	389.41
433.475	387.07
433.917	450.26
434.359	384.73
434.8	450.26
435.242	454.94
435.684	422.17
436.125	452.6
436.567	438.56
437.008	410.47
437.449	380.04
437.891	326.21
438.332	380.04
438.773	410.47
439.214	438.56
439.656	417.49
440.097	373.02
440.538	351.96
440.978	382.39
441.419	326.21
441.86	361.32
442.301	401.11
442.742	473.67
443.182	396.43
443.623	307.49
444.063	422.17
444.504	419.83
444.944	422.17
445.385	426.86
445.825	447.92
446.265	447.92
446.706	461.96
447.146	387.07
447.586	380.04
448.026	373.02
448.466	494.73
448.906	436.22
449.346	408.13
449.786	436.22
450.225	457.28
450.665	373.02
451.105	380.04
451.544	445.58
451.984	417.49
452.424	438.56
452.863	433.88
453.302	436.22
453.742	328.55
454.181	384.73
454.62	377.7
455.059	422.17
455.499	417.49
455.938	433.88
456.377	387.07
456.816	319.19
457.254	344.94
457.693	422.17
458.132	337.91
458.571	305.15
459.01	335.57
459.448	335.57
459.887	363.66
460.325	373.02
460.764	342.6
461.202	391.75
461.641	401.11
462.079	316.85
462.517	405.79
462.955	361.32
463.393	368.34
463.832	344.94
464.27	368.34
464.708	370.68
465.145	375.36
465.583	333.23
466.021	419.83
466.459	356.64
466.897	337.91
467.334	260.68
467.772	370.68
468.209	316.85
468.647	340.26
469.084	302.81
469.522	326.21
469.959	370.68
470.396	419.83
470.833	389.41
471.271	398.77
471.708	344.94
472.145	394.09
472.582	373.02
473.019	356.64
473.456	337.91
473.892	358.98
474.329	387.07
474.766	312.17
475.202	340.26
475.639	354.3
476.076	370.68
476.512	403.45
476.949	351.96
477.385	328.55
477.821	358.98
478.258	356.64
478.694	358.98
479.13	380.04
479.566	358.98
480.002	356.64
480.438	344.94
480.874	333.23
481.31	323.87
481.746	319.19
482.181	363.66
482.617	368.34
483.053	398.77
483.488	384.73
483.924	401.11
484.36	354.3
484.795	408.13
485.23	450.26
485.666	358.98
486.101	447.92
486.536	419.83
486.971	431.54
487.407	382.39
487.842	384.73
488.277	363.66
488.712	358.98
489.146	438.56
489.581	401.11
490.016	410.47
490.451	293.44
490.885	375.36
491.32	321.53
491.755	447.92
492.189	433.88
492.624	384.73
493.058	415.15
493.492	347.28
493.927	316.85
494.361	347.28
494.795	415.15
495.229	375.36
495.663	363.66
496.097	358.98
496.531	363.66
496.965	333.23
497.399	377.7
497.833	368.34
498.266	300.47
498.7	387.07
499.134	361.32
499.567	347.28
500.001	403.45
500.434	368.34
500.868	319.19
501.301	412.81
501.734	419.83
502.168	382.39
502.601	375.36
503.034	391.75
503.467	387.07
503.9	344.94
504.333	373.02
504.766	396.43
505.199	358.98
505.632	380.04
506.064	415.15
506.497	391.75
506.93	408.13
507.362	319.19
507.795	403.45
508.227	426.86
508.66	377.7
509.092	398.77
509.524	401.11
509.956	368.34
510.389	389.41
510.821	436.22
511.253	384.73
511.685	349.62
512.117	361.32
512.549	351.96
512.981	328.55
513.412	321.53
513.844	417.49
514.276	417.49
514.707	422.17
515.139	344.94
515.571	370.68
516.002	375.36
516.433	323.87
516.865	326.21
517.296	321.53
517.727	342.6
518.159	373.02
518.59	412.81
519.021	401.11
519.452	351.96
519.883	389.41
520.314	373.02
520.744	447.92
521.175	396.43
521.606	370.68
522.037	347.28
522.467	391.75
522.898	330.89
523.328	370.68
523.759	375.36
524.189	363.66
524.62	363.66
525.05	333.23
525.48	295.79
525.91	382.39
526.341	354.3
526.771	344.94
527.201	408.13
527.631	398.77
528.061	419.83
528.49	382.39
528.92	382.39
529.35	403.45
529.78	398.77
530.209	401.11
530.639	424.51
531.068	391.75
531.498	405.79
531.927	403.45
532.357	433.88
532.786	403.45
533.215	368.34
533.644	356.64
534.074	363.66
534.503	300.47
534.932	363.66
535.361	408.13
535.79	391.75
536.218	335.57
536.647	438.56
537.076	344.94
537.505	361.32
537.933	363.66
538.362	447.92
538.79	424.51
539.219	438.56
539.647	454.94
540.076	401.11
540.504	476.01
540.932	440.9
541.36	550.9
541.788	562.61
542.217	597.71
542.645	728.78
543.073	644.53
543.5	686.65
543.928	691.34
544.356	667.93
544.784	672.61
545.211	630.48
545.639	670.27
546.067	635.16
546.494	586.01
546.922	494.73
547.349	483.03
547.776	454.94
548.204	471.33
548.631	445.58
549.058	447.92
549.485	525.16
549.912	436.22
550.339	478.35
550.766	445.58
551.193	433.88
551.62	424.51
552.047	417.49
552.474	452.6
552.9	356.64
553.327	464.3
553.754	337.91
554.18	356.64
554.607	375.36
555.033	321.53
555.459	380.04
555.886	368.34
556.312	391.75
556.738	447.92
557.164	436.22
557.59	384.73
558.016	295.79
558.442	354.3
558.868	391.75
559.294	361.32
559.72	377.7
560.145	394.09
560.571	396.43
560.997	316.85
561.422	333.23
561.848	351.96
562.273	335.57
562.699	323.87
563.124	382.39
563.549	445.58
563.974	337.91
564.4	391.75
564.825	412.81
565.25	401.11
565.675	375.36
566.1	307.49
566.525	349.62
566.95	377.7
567.374	401.11
567.799	401.11
568.224	340.26
568.648	380.04
569.073	394.09
569.497	330.89
569.922	387.07
570.346	403.45
570.771	412.81
571.195	396.43
571.619	445.58
572.043	361.32
572.467	307.49
572.891	363.66
573.315	375.36
573.739	389.41
574.163	384.73
574.587	349.62
575.011	349.62
575.435	368.34
575.858	291.1
576.282	382.39
576.705	333.23
577.129	337.91
577.552	389.41
577.976	382.39
578.399	405.79
578.822	380.04
579.245	405.79
579.669	408.13
580.092	447.92
580.515	370.68
580.938	431.54
581.361	440.9
581.784	356.64
582.206	401.11
582.629	309.83
583.052	457.28
583.474	452.6
583.897	419.83
584.32	387.07
584.742	447.92
585.165	401.11
585.587	394.09
586.009	415.15
586.431	389.41
586.854	485.37
587.276	494.73
587.698	410.47
588.12	426.86
588.542	450.26
588.964	396.43
589.386	410.47
589.807	377.7
590.229	422.17
590.651	415.15
591.073	459.62
591.494	424.51
591.916	426.86
592.337	461.96
592.759	431.54
593.18	424.51
593.601	422.17
594.022	422.17
594.444	380.04
594.865	363.66
595.286	431.54
595.707	354.3
596.128	387.07
596.549	356.64
596.97	344.94
597.39	335.57
597.811	368.34
598.232	403.45
598.652	373.02
599.073	373.02
599.494	354.3
599.914	337.91
600.334	401.11
600.755	373.02
601.175	349.62
601.595	354.3
602.015	326.21
602.436	302.81
602.856	513.46
603.276	295.79
603.696	340.26
604.115	358.98
604.535	361.32
604.955	335.57
605.375	384.73
605.794	351.96
606.214	380.04
606.634	328.55
607.053	335.57
607.473	377.7
607.892	398.77
608.311	440.9
608.731	433.88
609.15	471.33
609.569	529.84
609.988	642.18
610.407	635.16
610.826	735.81
611.245	707.72
611.664	745.17
612.083	717.08
612.501	588.35
612.92	576.65
613.339	525.16
613.757	473.67
614.176	478.35
614.594	373.02
615.013	483.03
615.431	401.11
615.85	408.13
616.268	373.02
616.686	424.51
617.104	300.47
617.522	396.43
617.94	398.77
618.358	396.43
618.776	375.36
619.194	387.07
619.612	394.09
620.03	408.13
620.447	454.94
620.865	429.2
621.282	398.77
621.7	391.75
622.117	342.6
622.535	440.9
622.952	391.75
623.369	366
623.787	377.7
624.204	314.51
624.621	377.7
625.038	344.94
625.455	382.39
625.872	440.9
626.289	431.54
626.706	384.73
627.123	330.89
627.539	363.66
627.956	363.66
628.373	358.98
628.789	391.75
629.206	291.1
629.622	396.43
630.038	368.34
630.455	370.68
630.871	363.66
631.287	401.11
631.703	337.91
632.12	380.04
632.536	356.64
632.952	316.85
633.368	363.66
633.783	382.39
634.199	309.83
634.615	382.39
635.031	335.57
635.446	377.7
635.862	405.79
636.277	326.21
636.693	377.7
637.108	321.53
637.524	361.32
637.939	295.79
638.354	293.44
638.77	267.7
639.185	384.73
639.6	272.38
640.015	347.28
640.43	375.36
640.845	319.19
641.259	344.94
641.674	293.44
642.089	321.53
642.504	373.02
642.918	340.26
643.333	312.17
643.747	361.32
644.162	351.96
644.576	316.85
644.991	356.64
645.405	370.68
645.819	333.23
646.233	380.04
646.647	354.3
647.061	302.81
647.475	342.6
647.889	323.87
648.303	431.54
648.717	391.75
649.131	328.55
649.545	314.51
649.958	351.96
650.372	368.34
650.785	354.3
651.199	326.21
651.612	295.79
652.026	277.06
652.439	342.6
652.852	344.94
653.266	377.7
653.679	375.36
654.092	356.64
654.505	351.96
654.918	326.21
655.331	300.47
655.744	354.3
656.156	256
656.569	342.6
656.982	298.13
657.394	335.57
657.807	298.13
658.22	309.83
658.632	291.1
659.044	298.13
659.457	279.4
659.869	326.21
660.281	354.3
660.693	274.72
661.106	326.21
661.518	326.21
661.93	344.94
662.342	302.81
662.754	319.19
663.165	349.62
663.577	358.98
663.989	302.81
664.401	361.32
664.812	344.94
665.224	347.28
665.635	366
666.047	333.23
666.458	366
666.869	335.57
667.281	349.62
667.692	293.44
668.103	333.23
668.514	340.26
668.925	284.08
669.336	342.6
669.747	281.74
670.158	370.68
670.569	286.42
670.979	328.55
671.39	300.47
671.801	302.81
672.211	300.47
672.622	361.32
673.032	335.57
673.443	284.08
673.853	216.21
674.263	326.21
674.674	319.19
675.084	307.49
675.494	351.96
675.904	321.53
676.314	368.34
676.724	354.3
677.134	298.13
677.544	333.23
677.953	286.42
678.363	323.87
678.773	344.94
679.182	312.17
679.592	323.87
680.001	267.7
680.411	347.28
680.82	377.7
681.23	305.15
681.639	366
682.048	384.73
682.457	335.57
682.866	319.19
683.275	361.32
683.684	260.68
684.093	256
684.502	335.57
684.911	307.49
685.32	272.38
685.728	279.4
686.137	366
686.546	293.44
686.954	373.02
687.363	354.3
687.771	335.57
688.179	293.44
688.588	295.79
688.996	335.57
689.404	326.21
689.812	302.81
690.22	342.6
690.628	323.87
691.036	307.49
691.444	288.76
691.852	295.79
692.26	319.19
692.667	333.23
693.075	335.57
693.483	326.21
693.89	286.42
694.298	344.94
694.705	333.23
695.112	330.89
695.52	363.66
695.927	370.68
696.334	265.36
696.741	328.55
697.148	253.66
697.555	307.49
697.962	342.6
698.369	253.66
698.776	321.53
699.183	270.04
699.59	279.4
699.996	328.55
700.403	335.57
700.81	361.32
701.216	302.81
701.623	298.13
702.029	344.94
702.435	321.53
702.842	380.04
703.248	398.77
703.654	363.66
704.06	330.89
704.466	305.15
704.872	351.96
705.278	342.6
705.684	321.53
706.09	337.91
706.496	337.91
706.901	309.83
707.307	351.96
707.712	319.19
708.118	316.85
708.523	387.07
708.929	316.85
709.334	380.04
709.74	382.39
710.145	326.21
710.55	370.68
710.955	344.94
711.36	305.15
711.765	363.66
712.17	410.47
712.575	319.19
712.98	920.71
713.385	370.68
713.789	307.49
714.194	302.81
714.599	284.08
715.003	347.28
715.408	319.19
715.812	270.04
716.217	328.55
716.621	323.87
717.025	274.72
717.429	330.89
717.833	330.89
718.238	335.57
718.642	300.47
719.046	277.06
719.449	295.79
719.853	323.87
720.257	307.49
720.661	288.76
721.065	295.79
721.468	319.19
721.872	300.47
722.275	335.57
722.679	321.53
723.082	323.87
723.485	377.7
723.889	302.81
724.292	344.94
724.695	272.38
725.098	389.41
725.501	412.81
725.904	197.48
726.307	223.23
726.71	302.81
727.113	309.83
727.516	363.66
727.918	340.26
728.321	307.49
728.724	337.91
729.126	373.02
729.529	307.49
729.931	380.04
730.333	293.44
730.736	321.53
731.138	298.13
731.54	326.21
731.942	253.66
732.344	309.83
732.746	323.87
733.148	391.75
733.55	316.85
733.952	321.53
734.354	349.62
734.756	277.06
735.157	279.4
735.559	307.49
735.96	314.51
736.362	295.79
736.763	286.42
737.165	340.26
737.566	293.44
737.967	234.93
738.368	277.06
738.77	347.28
739.171	309.83
739.572	337.91
739.973	326.21
740.374	319.19
740.774	298.13
741.175	302.81
741.576	298.13
741.977	321.53
742.377	246.63
742.778	312.17
743.178	291.1
743.579	326.21
743.979	375.36
744.379	291.1
744.78	342.6
745.18	307.49
745.58	307.49
745.98	349.62
746.38	340.26
746.78	309.83
747.18	265.36
747.58	316.85
747.98	295.79
748.38	337.91
748.779	321.53
749.179	389.41
749.578	330.89
749.978	347.28
750.377	330.89
750.777	253.66
751.176	361.32
751.575	300.47
751.975	298.13
752.374	281.74
752.773	316.85
753.172	380.04
753.571	279.4
753.97	330.89
754.369	256
754.768	302.81
755.166	366
755.565	274.72
755.964	333.23
756.362	281.74
756.761	328.55
757.159	335.57
757.558	309.83
757.956	361.32
758.354	335.57
758.753	335.57
759.151	312.17
759.549	326.21
759.947	394.09
760.345	335.57
760.743	368.34
761.141	347.28
761.539	284.08
761.936	344.94
762.334	387.07
762.732	281.74
763.129	293.44
763.527	366
763.924	344.94
764.322	351.96
764.719	284.08
765.117	305.15
765.514	298.13
765.911	270.04
766.308	305.15
