Data from Al_FLMS009871__178__11-58-50-478.txt Node

Date: Fri Mar 08 11:58:50 CST 2024
User: pe5414po
Spectrometer: FLMS00987
Trigger mode: 0
Integration Time (sec): 1.000000E-1
Scans to average: 1
Electric dark correction enabled: true
Nonlinearity correction enabled: false
Boxcar width: 0
XAxis mode: Wavelengths
Number of Pixels in Spectrum: 2048
>>>>>Begin Spectral Data<<<<<
188.938	-81.92
189.409	-81.92
189.879	-81.92
190.349	-133.41
190.819	-60.85
191.29	-77.24
191.76	-86.6
192.23	-70.22
192.7	-84.26
193.17	0
193.64	-60.85
194.109	-98.3
194.579	-46.81
195.049	-35.11
195.519	86.6
195.988	74.9
196.458	9.36
196.927	114.69
197.397	86.6
197.866	72.56
198.336	114.69
198.805	142.77
199.274	175.54
199.744	208.31
200.213	215.33
200.682	166.18
201.151	212.99
201.62	243.42
202.089	264.48
202.558	273.84
203.027	285.55
203.495	229.37
203.964	301.93
204.433	362.78
204.902	301.93
205.37	285.55
205.839	322.99
206.307	245.76
206.776	299.59
207.244	264.48
207.712	271.5
208.181	322.99
208.649	273.84
209.117	320.65
209.585	264.48
210.053	348.74
210.521	243.42
210.989	273.84
211.457	278.52
211.925	330.02
212.393	231.71
212.861	287.89
213.328	278.52
213.796	266.82
214.264	339.38
214.731	290.23
215.199	294.91
215.666	332.36
216.133	308.95
216.601	273.84
217.068	297.25
217.535	276.18
218.003	215.33
218.47	297.25
218.937	283.2
219.404	290.23
219.871	322.99
220.338	273.84
220.805	243.42
221.271	311.29
221.738	259.8
222.205	299.59
222.671	287.89
223.138	367.46
223.605	287.89
224.071	290.23
224.538	297.25
225.004	248.1
225.47	264.48
225.937	322.99
226.403	227.03
226.869	257.46
227.335	234.05
227.801	278.52
228.267	252.78
228.733	245.76
229.199	322.99
229.665	255.12
230.131	290.23
230.597	301.93
231.062	283.2
231.528	285.55
231.994	287.89
232.459	255.12
232.925	315.97
233.39	212.99
233.856	229.37
234.321	238.73
234.786	287.89
235.252	252.78
235.717	280.86
236.182	337.04
236.647	220.01
237.112	285.55
237.577	287.89
238.042	278.52
238.507	212.99
238.972	234.05
239.436	290.23
239.901	299.59
240.366	308.95
240.83	294.91
241.295	264.48
241.76	297.25
242.224	259.8
242.688	311.29
243.153	252.78
243.617	264.48
244.081	257.46
244.545	318.31
245.01	283.2
245.474	269.16
245.938	269.16
246.402	220.01
246.866	269.16
247.33	269.16
247.793	276.18
248.257	280.86
248.721	243.42
249.185	285.55
249.648	257.46
250.112	313.63
250.575	264.48
251.039	241.08
251.502	355.76
251.965	322.99
252.429	243.42
252.892	330.02
253.355	285.55
253.818	297.25
254.281	238.73
254.744	255.12
255.207	236.39
255.67	308.95
256.133	304.27
256.596	238.73
257.059	292.57
257.522	283.2
257.984	320.65
258.447	304.27
258.909	304.27
259.372	330.02
259.834	297.25
260.297	241.08
260.759	304.27
261.221	299.59
261.684	334.7
262.146	341.72
262.608	294.91
263.07	355.76
263.532	264.48
263.994	322.99
264.456	266.82
264.918	238.73
265.38	278.52
265.842	287.89
266.303	210.65
266.765	229.37
267.227	365.12
267.688	322.99
268.15	294.91
268.611	276.18
269.072	304.27
269.534	292.57
269.995	224.69
270.456	308.95
270.918	285.55
271.379	332.36
271.84	208.31
272.301	283.2
272.762	194.26
273.223	285.55
273.684	322.99
274.144	255.12
274.605	287.89
275.066	322.99
275.527	308.95
275.987	308.95
276.448	311.29
276.908	299.59
277.369	266.82
277.829	320.65
278.289	236.39
278.75	269.16
279.21	301.93
279.67	304.27
280.13	269.16
280.59	306.61
281.05	332.36
281.51	269.16
281.97	308.95
282.43	322.99
282.89	299.59
283.35	360.44
283.809	220.01
284.269	344.06
284.729	290.23
285.188	255.12
285.648	299.59
286.107	294.91
286.567	332.36
287.026	273.84
287.485	269.16
287.944	311.29
288.404	299.59
288.863	299.59
289.322	339.38
289.781	322.99
290.24	311.29
290.699	306.61
291.158	311.29
291.616	283.2
292.075	285.55
292.534	283.2
292.992	351.08
293.451	231.71
293.91	245.76
294.368	369.8
294.827	278.52
295.285	322.99
295.743	276.18
296.202	372.15
296.66	304.27
297.118	374.49
297.576	374.49
298.034	276.18
298.492	308.95
298.95	285.55
299.408	301.93
299.866	269.16
300.324	299.59
300.781	287.89
301.239	304.27
301.697	273.84
302.154	224.69
302.612	283.2
303.069	285.55
303.527	234.05
303.984	283.2
304.441	339.38
304.899	236.39
305.356	266.82
305.813	320.65
306.27	273.84
306.727	339.38
307.184	287.89
307.641	285.55
308.098	273.84
308.555	330.02
309.012	278.52
309.468	229.37
309.925	294.91
310.382	315.97
310.838	259.8
311.295	280.86
311.751	271.5
312.208	369.8
312.664	313.63
313.12	294.91
313.577	283.2
314.033	348.74
314.489	294.91
314.945	308.95
315.401	313.63
315.857	273.84
316.313	320.65
316.769	322.99
317.225	372.15
317.681	229.37
318.136	311.29
318.592	325.33
319.048	280.86
319.503	276.18
319.959	322.99
320.414	339.38
320.869	318.31
321.325	297.25
321.78	294.91
322.235	299.59
322.691	306.61
323.146	353.42
323.601	276.18
324.056	360.44
324.511	283.2
324.966	355.76
325.421	341.72
325.875	388.53
326.33	290.23
326.785	273.84
327.24	306.61
327.694	285.55
328.149	397.89
328.603	320.65
329.058	297.25
329.512	360.44
329.966	374.49
330.421	346.4
330.875	315.97
331.329	290.23
331.783	360.44
332.237	273.84
332.691	367.46
333.145	327.68
333.599	362.78
334.053	290.23
334.507	269.16
334.96	344.06
335.414	339.38
335.868	341.72
336.321	273.84
336.775	266.82
337.228	262.14
337.682	306.61
338.135	313.63
338.588	278.52
339.042	327.68
339.495	358.1
339.948	308.95
340.401	276.18
340.854	280.86
341.307	358.1
341.76	325.33
342.213	325.33
342.666	355.76
343.119	381.51
343.571	353.42
344.024	346.4
344.477	332.36
344.929	320.65
345.382	327.68
345.834	327.68
346.287	306.61
346.739	285.55
347.191	278.52
347.644	259.8
348.096	283.2
348.548	313.63
349	379.17
349.452	304.27
349.904	360.44
350.356	297.25
350.808	299.59
351.26	346.4
351.711	365.12
352.163	304.27
352.615	308.95
353.066	283.2
353.518	264.48
353.969	320.65
354.421	271.5
354.872	325.33
355.324	301.93
355.775	306.61
356.226	353.42
356.677	325.33
357.128	294.91
357.579	301.93
358.03	360.44
358.481	280.86
358.932	280.86
359.383	294.91
359.834	358.1
360.285	290.23
360.735	297.25
361.186	315.97
361.637	388.53
362.087	315.97
362.538	273.84
362.988	318.31
363.438	313.63
363.889	346.4
364.339	346.4
364.789	353.42
365.239	292.57
365.689	294.91
366.139	358.1
366.589	344.06
367.039	243.42
367.489	297.25
367.939	271.5
368.389	344.06
368.839	327.68
369.288	330.02
369.738	327.68
370.187	320.65
370.637	271.5
371.086	278.52
371.536	306.61
371.985	404.91
372.434	250.44
372.884	269.16
373.333	346.4
373.782	346.4
374.231	283.2
374.68	327.68
375.129	365.12
375.578	259.8
376.027	315.97
376.475	334.7
376.924	297.25
377.373	297.25
377.822	369.8
378.27	322.99
378.719	294.91
379.167	327.68
379.616	285.55
380.064	365.12
380.512	365.12
380.961	332.36
381.409	362.78
381.857	271.5
382.305	339.38
382.753	367.46
383.201	318.31
383.649	360.44
384.097	306.61
384.545	367.46
384.992	376.83
385.44	381.51
385.888	341.72
386.335	276.18
386.783	301.93
387.231	348.74
387.678	346.4
388.125	290.23
388.573	290.23
389.02	269.16
389.467	273.84
389.914	325.33
390.362	395.55
390.809	330.02
391.256	332.36
391.703	358.1
392.15	304.27
392.596	306.61
393.043	301.93
393.49	257.46
393.937	306.61
394.383	299.59
394.83	257.46
395.276	330.02
395.723	332.36
396.169	332.36
396.616	325.33
397.062	322.99
397.508	344.06
397.954	318.31
398.401	290.23
398.847	313.63
399.293	365.12
399.739	322.99
400.185	278.52
400.631	292.57
401.076	374.49
401.522	283.2
401.968	257.46
402.414	383.85
402.859	264.48
403.305	330.02
403.75	320.65
404.196	355.76
404.641	311.29
405.086	287.89
405.532	278.52
405.977	330.02
406.422	334.7
406.867	395.55
407.312	346.4
407.757	341.72
408.202	306.61
408.647	308.95
409.092	358.1
409.537	241.08
409.982	299.59
410.426	280.86
410.871	325.33
411.316	287.89
411.76	285.55
412.205	301.93
412.649	339.38
413.093	341.72
413.538	299.59
413.982	280.86
414.426	301.93
414.87	344.06
415.314	341.72
415.758	367.46
416.202	348.74
416.646	259.8
417.09	299.59
417.534	318.31
417.978	334.7
418.421	273.84
418.865	351.08
419.309	264.48
419.752	311.29
420.196	290.23
420.639	358.1
421.083	379.17
421.526	372.15
421.969	334.7
422.412	353.42
422.856	292.57
423.299	346.4
423.742	365.12
424.185	369.8
424.628	379.17
425.071	287.89
425.513	301.93
425.956	362.78
426.399	290.23
426.842	365.12
427.284	374.49
427.727	348.74
428.169	346.4
428.612	344.06
429.054	362.78
429.497	301.93
429.939	362.78
430.381	358.1
430.823	313.63
431.265	435.34
431.707	390.87
432.149	299.59
432.591	344.06
433.033	407.25
433.475	341.72
433.917	341.72
434.359	447.04
434.8	482.15
435.242	454.06
435.684	458.75
436.125	463.43
436.567	365.12
437.008	360.44
437.449	430.66
437.891	404.91
438.332	388.53
438.773	334.7
439.214	355.76
439.656	358.1
440.097	390.87
440.538	407.25
440.978	411.93
441.419	418.96
441.86	390.87
442.301	458.75
442.742	346.4
443.182	447.04
443.623	327.68
444.063	402.57
444.504	376.83
444.944	386.19
445.385	425.98
445.825	395.55
446.265	437.68
446.706	400.23
447.146	353.42
447.586	430.66
448.026	395.55
448.466	379.17
448.906	374.49
449.346	482.15
449.786	433
450.225	456.4
450.665	440.02
451.105	395.55
451.544	440.02
451.984	414.27
452.424	463.43
452.863	348.74
453.302	386.19
453.742	395.55
454.181	344.06
454.62	430.66
455.059	400.23
455.499	414.27
455.938	315.97
456.377	383.85
456.816	400.23
457.254	397.89
457.693	372.15
458.132	402.57
458.571	348.74
459.01	388.53
459.448	425.98
459.887	416.62
460.325	381.51
460.764	339.38
461.202	416.62
461.641	383.85
462.079	360.44
462.517	411.93
462.955	386.19
463.393	416.62
463.832	390.87
464.27	355.76
464.708	344.06
465.145	325.33
465.583	341.72
466.021	341.72
466.459	372.15
466.897	290.23
467.334	369.8
467.772	379.17
468.209	351.08
468.647	290.23
469.084	381.51
469.522	294.91
469.959	383.85
470.396	369.8
470.833	339.38
471.271	304.27
471.708	322.99
472.145	390.87
472.582	318.31
473.019	367.46
473.456	360.44
473.892	299.59
474.329	355.76
474.766	330.02
475.202	400.23
475.639	327.68
476.076	404.91
476.512	325.33
476.949	348.74
477.385	327.68
477.821	315.97
478.258	344.06
478.694	365.12
479.13	376.83
479.566	311.29
480.002	337.04
480.438	360.44
480.874	372.15
481.31	339.38
481.746	372.15
482.181	381.51
482.617	388.53
483.053	346.4
483.488	386.19
483.924	346.4
484.36	360.44
484.795	351.08
485.23	348.74
485.666	433
486.101	404.91
486.536	421.3
486.971	411.93
487.407	442.36
487.842	362.78
488.277	395.55
488.712	418.96
489.146	390.87
489.581	348.74
490.016	379.17
490.451	409.59
490.885	411.93
491.32	402.57
491.755	348.74
492.189	388.53
492.624	416.62
493.058	353.42
493.492	390.87
493.927	372.15
494.361	397.89
494.795	346.4
495.229	369.8
495.663	369.8
496.097	346.4
496.531	374.49
496.965	339.38
497.399	351.08
497.833	365.12
498.266	409.59
498.7	404.91
499.134	358.1
499.567	365.12
500.001	330.02
500.434	365.12
500.868	400.23
501.301	390.87
501.734	344.06
502.168	409.59
502.601	381.51
503.034	337.04
503.467	402.57
503.9	365.12
504.333	397.89
504.766	327.68
505.199	376.83
505.632	320.65
506.064	372.15
506.497	397.89
506.93	362.78
507.362	423.64
507.795	372.15
508.227	379.17
508.66	383.85
509.092	369.8
509.524	367.46
509.956	318.31
510.389	416.62
510.821	418.96
511.253	407.25
511.685	339.38
512.117	367.46
512.549	341.72
512.981	388.53
513.412	360.44
513.844	372.15
514.276	358.1
514.707	365.12
515.139	379.17
515.571	416.62
516.002	369.8
516.433	315.97
516.865	418.96
517.296	402.57
517.727	411.93
518.159	318.31
518.59	374.49
519.021	369.8
519.452	376.83
519.883	386.19
520.314	447.04
520.744	390.87
521.175	416.62
521.606	400.23
522.037	301.93
522.467	435.34
522.898	407.25
523.328	402.57
523.759	379.17
524.189	372.15
524.62	365.12
525.05	360.44
525.48	400.23
525.91	402.57
526.341	402.57
526.771	372.15
527.201	360.44
527.631	379.17
528.061	414.27
528.49	390.87
528.92	383.85
529.35	374.49
529.78	318.31
530.209	334.7
530.639	397.89
531.068	395.55
531.498	315.97
531.927	376.83
532.357	440.02
532.786	411.93
533.215	376.83
533.644	402.57
534.074	376.83
534.503	404.91
534.932	376.83
535.361	404.91
535.79	400.23
536.218	395.55
536.647	409.59
537.076	390.87
537.505	418.96
537.933	440.02
538.362	381.51
538.79	440.02
539.219	425.98
539.647	407.25
540.076	493.85
540.504	421.3
540.932	582.79
541.36	575.77
541.788	627.26
542.217	603.86
542.645	582.79
543.073	695.14
543.5	645.99
543.928	704.5
544.356	674.07
544.784	592.16
545.211	643.65
545.639	638.97
546.067	587.47
546.494	564.07
546.922	540.66
547.349	538.32
547.776	470.45
548.204	397.89
548.631	465.77
549.058	477.47
549.485	454.06
549.912	493.85
550.339	510.24
550.766	421.3
551.193	442.36
551.62	397.89
552.047	472.79
552.474	402.57
552.9	381.51
553.327	423.64
553.754	430.66
554.18	411.93
554.607	437.68
555.033	393.21
555.459	428.32
555.886	418.96
556.312	381.51
556.738	327.68
557.164	423.64
557.59	393.21
558.016	365.12
558.442	393.21
558.868	414.27
559.294	358.1
559.72	372.15
560.145	306.61
560.571	447.04
560.997	386.19
561.422	428.32
561.848	402.57
562.273	402.57
562.699	388.53
563.124	414.27
563.549	397.89
563.974	456.4
564.4	311.29
564.825	397.89
565.25	423.64
565.675	360.44
566.1	341.72
566.525	381.51
566.95	454.06
567.374	320.65
567.799	374.49
568.224	383.85
568.648	393.21
569.073	397.89
569.497	418.96
569.922	390.87
570.346	437.68
570.771	311.29
571.195	351.08
571.619	393.21
572.043	430.66
572.467	374.49
572.891	390.87
573.315	430.66
573.739	386.19
574.163	367.46
574.587	381.51
575.011	369.8
575.435	339.38
575.858	344.06
576.282	404.91
576.705	388.53
577.129	360.44
577.552	409.59
577.976	393.21
578.399	456.4
578.822	388.53
579.245	397.89
579.669	458.75
580.092	465.77
580.515	421.3
580.938	416.62
581.361	440.02
581.784	409.59
582.206	369.8
582.629	367.46
583.052	383.85
583.474	428.32
583.897	388.53
584.32	491.51
584.742	404.91
585.165	358.1
585.587	322.99
586.009	360.44
586.431	449.38
586.854	456.4
587.276	372.15
587.698	421.3
588.12	402.57
588.542	456.4
588.964	379.17
589.386	374.49
589.807	475.13
590.229	437.68
590.651	379.17
591.073	407.25
591.494	376.83
591.916	337.04
592.337	351.08
592.759	365.12
593.18	341.72
593.601	437.68
594.022	390.87
594.444	369.8
594.865	376.83
595.286	388.53
595.707	383.85
596.128	337.04
596.549	365.12
596.97	386.19
597.39	369.8
597.811	330.02
598.232	362.78
598.652	348.74
599.073	404.91
599.494	421.3
599.914	400.23
600.334	402.57
600.755	344.06
601.175	390.87
601.595	451.72
602.015	355.76
602.436	400.23
602.856	514.92
603.276	379.17
603.696	358.1
604.115	344.06
604.535	374.49
604.955	447.04
605.375	383.85
605.794	334.7
606.214	346.4
606.634	447.04
607.053	402.57
607.473	372.15
607.892	435.34
608.311	367.46
608.731	425.98
609.15	475.13
609.569	496.19
609.988	528.96
610.407	629.6
610.826	702.16
611.245	669.39
611.664	826.21
612.083	627.26
612.501	559.39
612.92	624.92
613.339	528.96
613.757	512.58
614.176	465.77
614.594	482.15
615.013	454.06
615.431	435.34
615.85	379.17
616.268	454.06
616.686	388.53
617.104	383.85
617.522	411.93
617.94	337.04
618.358	346.4
618.776	449.38
619.194	386.19
619.612	390.87
620.03	423.64
620.447	386.19
620.865	423.64
621.282	461.09
621.7	365.12
622.117	437.68
622.535	456.4
622.952	414.27
623.369	386.19
623.787	451.72
624.204	411.93
624.621	365.12
625.038	376.83
625.455	367.46
625.872	376.83
626.289	409.59
626.706	381.51
627.123	344.06
627.539	339.38
627.956	404.91
628.373	355.76
628.789	360.44
629.206	299.59
629.622	339.38
630.038	428.32
630.455	433
630.871	308.95
631.287	381.51
631.703	381.51
632.12	355.76
632.536	353.42
632.952	400.23
633.368	365.12
633.783	346.4
634.199	348.74
634.615	318.31
635.031	299.59
635.446	315.97
635.862	315.97
636.277	325.33
636.693	334.7
637.108	353.42
637.524	341.72
637.939	369.8
638.354	346.4
638.77	243.42
639.185	355.76
639.6	374.49
640.015	355.76
640.43	348.74
640.845	390.87
641.259	348.74
641.674	339.38
642.089	301.93
642.504	283.2
642.918	332.36
643.333	259.8
643.747	339.38
644.162	386.19
644.576	381.51
644.991	304.27
645.405	341.72
645.819	339.38
646.233	339.38
646.647	383.85
647.061	355.76
647.475	379.17
647.889	400.23
648.303	353.42
648.717	273.84
649.131	320.65
649.545	327.68
649.958	332.36
650.372	374.49
650.785	330.02
651.199	353.42
651.612	348.74
652.026	341.72
652.439	362.78
652.852	330.02
653.266	304.27
653.679	339.38
654.092	332.36
654.505	313.63
654.918	353.42
655.331	304.27
655.744	259.8
656.156	299.59
656.569	351.08
656.982	322.99
657.394	313.63
657.807	332.36
658.22	315.97
658.632	304.27
659.044	322.99
659.457	374.49
659.869	243.42
660.281	327.68
660.693	337.04
661.106	294.91
661.518	358.1
661.93	330.02
662.342	320.65
662.754	390.87
663.165	351.08
663.577	264.48
663.989	353.42
664.401	358.1
664.812	308.95
665.224	341.72
665.635	358.1
666.047	346.4
666.458	372.15
666.869	339.38
667.281	308.95
667.692	330.02
668.103	311.29
668.514	322.99
668.925	315.97
669.336	334.7
669.747	301.93
670.158	315.97
670.569	262.14
670.979	280.86
671.39	304.27
671.801	315.97
672.211	276.18
672.622	255.12
673.032	311.29
673.443	341.72
673.853	365.12
674.263	346.4
674.674	311.29
675.084	292.57
675.494	299.59
675.904	320.65
676.314	348.74
676.724	287.89
677.134	339.38
677.544	334.7
677.953	334.7
678.363	334.7
678.773	341.72
679.182	348.74
679.592	322.99
680.001	280.86
680.411	327.68
680.82	285.55
681.23	297.25
681.639	351.08
682.048	315.97
682.457	376.83
682.866	337.04
683.275	290.23
683.684	313.63
684.093	280.86
684.502	358.1
684.911	423.64
685.32	320.65
685.728	304.27
686.137	339.38
686.546	315.97
686.954	292.57
687.363	334.7
687.771	355.76
688.179	353.42
688.588	271.5
688.996	362.78
689.404	308.95
689.812	311.29
690.22	322.99
690.628	362.78
691.036	337.04
691.444	344.06
691.852	372.15
692.26	332.36
692.667	313.63
693.075	301.93
693.483	290.23
693.89	341.72
694.298	337.04
694.705	341.72
695.112	330.02
695.52	315.97
695.927	341.72
696.334	306.61
696.741	332.36
697.148	353.42
697.555	322.99
697.962	332.36
698.369	332.36
698.776	355.76
699.183	327.68
699.59	313.63
699.996	365.12
700.403	280.86
700.81	320.65
701.216	325.33
701.623	337.04
702.029	334.7
702.435	325.33
702.842	320.65
703.248	346.4
703.654	278.52
704.06	266.82
704.466	379.17
704.872	283.2
705.278	381.51
705.684	271.5
706.09	308.95
706.496	318.31
706.901	301.93
707.307	393.21
707.712	306.61
708.118	372.15
708.523	339.38
708.929	320.65
709.334	311.29
709.74	285.55
710.145	285.55
710.55	376.83
710.955	306.61
711.36	320.65
711.765	299.59
712.17	407.25
712.575	273.84
712.98	894.08
713.385	353.42
713.789	325.33
714.194	318.31
714.599	297.25
715.003	262.14
715.408	257.46
715.812	337.04
716.217	273.84
716.621	332.36
717.025	315.97
717.429	290.23
717.833	278.52
718.238	297.25
718.642	388.53
719.046	322.99
719.449	330.02
719.853	280.86
720.257	332.36
720.661	280.86
721.065	290.23
721.468	320.65
721.872	362.78
722.275	337.04
722.679	269.16
723.082	372.15
723.485	283.2
723.889	369.8
724.292	372.15
724.695	322.99
725.098	365.12
725.501	311.29
725.904	304.27
726.307	337.04
726.71	271.5
727.113	273.84
727.516	372.15
727.918	318.31
728.321	306.61
728.724	381.51
729.126	301.93
729.529	346.4
729.931	404.91
730.333	369.8
730.736	304.27
731.138	339.38
731.54	297.25
731.942	283.2
732.344	290.23
732.746	327.68
733.148	348.74
733.55	294.91
733.952	334.7
734.354	353.42
734.756	311.29
735.157	358.1
735.559	327.68
735.96	313.63
736.362	313.63
736.763	311.29
737.165	353.42
737.566	330.02
737.967	308.95
738.368	266.82
738.77	344.06
739.171	229.37
739.572	362.78
739.973	283.2
740.374	327.68
740.774	313.63
741.175	327.68
741.576	257.46
741.977	339.38
742.377	390.87
742.778	369.8
743.178	306.61
743.579	341.72
743.979	287.89
744.379	313.63
744.78	369.8
745.18	397.89
745.58	318.31
745.98	346.4
746.38	351.08
746.78	355.76
747.18	280.86
747.58	400.23
747.98	297.25
748.38	280.86
748.779	278.52
749.179	315.97
749.578	299.59
749.978	346.4
750.377	353.42
750.777	322.99
751.176	238.73
751.575	330.02
751.975	269.16
752.374	346.4
752.773	374.49
753.172	346.4
753.571	292.57
753.97	318.31
754.369	287.89
754.768	381.51
755.166	348.74
755.565	320.65
755.964	330.02
756.362	318.31
756.761	313.63
757.159	311.29
757.558	311.29
757.956	236.39
758.354	264.48
758.753	322.99
759.151	348.74
759.549	306.61
759.947	287.89
760.345	325.33
760.743	337.04
761.141	372.15
761.539	365.12
761.936	313.63
762.334	308.95
762.732	311.29
763.129	313.63
763.527	297.25
763.924	299.59
764.322	334.7
764.719	372.15
765.117	262.14
765.514	332.36
