Data from Al_FLMS009871__160__11-58-48-678.txt Node

Date: Fri Mar 08 11:58:48 CST 2024
User: pe5414po
Spectrometer: FLMS00987
Trigger mode: 0
Integration Time (sec): 1.000000E-1
Scans to average: 1
Electric dark correction enabled: true
Nonlinearity correction enabled: false
Boxcar width: 0
XAxis mode: Wavelengths
Number of Pixels in Spectrum: 2048
>>>>>Begin Spectral Data<<<<<
188.938	-45.06
189.409	-45.06
189.879	-45.06
190.349	-75.48
190.819	-96.55
191.29	-117.61
191.76	-40.37
192.23	-115.27
192.7	-115.27
193.17	20.48
193.64	-80.16
194.109	20.48
194.579	-26.33
195.049	-12.29
195.519	-98.89
195.988	50.91
196.458	60.27
196.927	83.67
197.397	132.83
197.866	144.53
198.336	93.04
198.805	181.98
199.274	165.59
199.744	242.83
200.213	247.51
200.682	184.32
201.151	191.34
201.62	259.21
202.089	217.08
202.558	303.68
203.027	287.3
203.495	242.83
203.964	324.75
204.433	336.45
204.902	359.86
205.37	352.84
205.839	291.98
206.307	357.52
206.776	324.75
207.244	289.64
207.712	357.52
208.181	266.24
208.649	369.22
209.117	273.26
209.585	324.75
210.053	350.5
210.521	331.77
210.989	294.32
211.457	327.09
211.925	334.11
212.393	242.83
212.861	256.87
213.328	275.6
213.796	296.66
214.264	277.94
214.731	329.43
215.199	299
215.666	397.31
216.133	287.3
216.601	320.07
217.068	303.68
217.535	287.3
218.003	303.68
218.47	287.3
218.937	299
219.404	294.32
219.871	343.47
220.338	266.24
220.805	273.26
221.271	249.85
221.738	214.74
222.205	352.84
222.671	289.64
223.138	317.73
223.605	315.39
224.071	217.08
224.538	259.21
225.004	329.43
225.47	263.9
225.937	268.58
226.403	270.92
226.869	259.21
227.335	331.77
227.801	294.32
228.267	254.53
228.733	277.94
229.199	263.9
229.665	275.6
230.131	322.41
230.597	280.28
231.062	338.79
231.528	322.41
231.994	308.37
232.459	280.28
232.925	301.34
233.39	303.68
233.856	275.6
234.321	296.66
234.786	273.26
235.252	299
235.717	322.41
236.182	266.24
236.647	268.58
237.112	280.28
237.577	277.94
238.042	317.73
238.507	317.73
238.972	296.66
239.436	329.43
239.901	273.26
240.366	287.3
240.83	306.03
241.295	282.62
241.76	303.68
242.224	284.96
242.688	259.21
243.153	245.17
243.617	308.37
244.081	280.28
244.545	289.64
245.01	235.81
245.474	261.55
245.938	277.94
246.402	291.98
246.866	235.81
247.33	242.83
247.793	324.75
248.257	282.62
248.721	294.32
249.185	284.96
249.648	259.21
250.112	334.11
250.575	331.77
251.039	336.45
251.502	322.41
251.965	268.58
252.429	277.94
252.892	289.64
253.355	291.98
253.818	261.55
254.281	366.88
254.744	334.11
255.207	371.56
255.67	294.32
256.133	291.98
256.596	313.05
257.059	296.66
257.522	282.62
257.984	261.55
258.447	341.13
258.909	280.28
259.372	296.66
259.834	345.81
260.297	334.11
260.759	284.96
261.221	366.88
261.684	315.39
262.146	343.47
262.608	273.26
263.07	373.9
263.532	270.92
263.994	338.79
264.456	371.56
264.918	280.28
265.38	273.26
265.842	357.52
266.303	280.28
266.765	371.56
267.227	390.28
267.688	284.96
268.15	327.09
268.611	287.3
269.072	287.3
269.534	282.62
269.995	355.18
270.456	291.98
270.918	315.39
271.379	296.66
271.84	284.96
272.301	268.58
272.762	275.6
273.223	282.62
273.684	310.71
274.144	341.13
274.605	263.9
275.066	275.6
275.527	331.77
275.987	327.09
276.448	397.31
276.908	336.45
277.369	308.37
277.829	308.37
278.289	282.62
278.75	228.79
279.21	343.47
279.67	306.03
280.13	282.62
280.59	317.73
281.05	345.81
281.51	348.15
281.97	273.26
282.43	313.05
282.89	352.84
283.35	291.98
283.809	270.92
284.269	256.87
284.729	322.41
285.188	301.34
285.648	322.41
286.107	352.84
286.567	256.87
287.026	364.54
287.485	284.96
287.944	289.64
288.404	259.21
288.863	355.18
289.322	348.15
289.781	336.45
290.24	338.79
290.699	320.07
291.158	366.88
291.616	294.32
292.075	399.65
292.534	383.26
292.992	327.09
293.451	331.77
293.91	280.28
294.368	334.11
294.827	310.71
295.285	259.21
295.743	313.05
296.202	296.66
296.66	366.88
297.118	327.09
297.576	362.2
298.034	355.18
298.492	366.88
298.95	299
299.408	296.66
299.866	385.6
300.324	287.3
300.781	313.05
301.239	315.39
301.697	291.98
302.154	345.81
302.612	249.85
303.069	280.28
303.527	352.84
303.984	256.87
304.441	329.43
304.899	320.07
305.356	338.79
305.813	259.21
306.27	345.81
306.727	373.9
307.184	336.45
307.641	331.77
308.098	306.03
308.555	287.3
309.012	320.07
309.468	348.15
309.925	303.68
310.382	357.52
310.838	296.66
311.295	299
311.751	327.09
312.208	308.37
312.664	341.13
313.12	287.3
313.577	404.33
314.033	324.75
314.489	315.39
314.945	336.45
315.401	357.52
315.857	327.09
316.313	296.66
316.769	324.75
317.225	301.34
317.681	336.45
318.136	338.79
318.592	338.79
319.048	301.34
319.503	336.45
319.959	240.49
320.414	313.05
320.869	299
321.325	364.54
321.78	249.85
322.235	338.79
322.691	392.62
323.146	394.97
323.601	277.94
324.056	334.11
324.511	256.87
324.966	362.2
325.421	308.37
325.875	273.26
326.33	376.24
326.785	289.64
327.24	277.94
327.694	366.88
328.149	392.62
328.603	284.96
329.058	334.11
329.512	324.75
329.966	308.37
330.421	320.07
330.875	294.32
331.329	394.97
331.783	306.03
332.237	324.75
332.691	397.31
333.145	280.28
333.599	327.09
334.053	357.52
334.507	366.88
334.96	359.86
335.414	338.79
335.868	282.62
336.321	327.09
336.775	284.96
337.228	299
337.682	350.5
338.135	294.32
338.588	418.37
339.042	420.71
339.495	329.43
339.948	280.28
340.401	317.73
340.854	324.75
341.307	287.3
341.76	345.81
342.213	380.92
342.666	301.34
343.119	357.52
343.571	273.26
344.024	376.24
344.477	268.58
344.929	355.18
345.382	322.41
345.834	256.87
346.287	336.45
346.739	357.52
347.191	287.3
347.644	336.45
348.096	350.5
348.548	282.62
349	327.09
349.452	273.26
349.904	385.6
350.356	378.58
350.808	327.09
351.26	357.52
351.711	350.5
352.163	313.05
352.615	299
353.066	306.03
353.518	327.09
353.969	322.41
354.421	336.45
354.872	306.03
355.324	394.97
355.775	277.94
356.226	284.96
356.677	329.43
357.128	268.58
357.579	341.13
358.03	357.52
358.481	327.09
358.932	284.96
359.383	320.07
359.834	350.5
360.285	355.18
360.735	315.39
361.186	313.05
361.637	425.39
362.087	336.45
362.538	296.66
362.988	334.11
363.438	327.09
363.889	252.19
364.339	357.52
364.789	376.24
365.239	310.71
365.689	301.34
366.139	334.11
366.589	331.77
367.039	275.6
367.489	397.31
367.939	378.58
368.389	320.07
368.839	313.05
369.288	350.5
369.738	373.9
370.187	364.54
370.637	355.18
371.086	341.13
371.536	308.37
371.985	366.88
372.434	380.92
372.884	277.94
373.333	247.51
373.782	338.79
374.231	317.73
374.68	324.75
375.129	343.47
375.578	284.96
376.027	345.81
376.475	291.98
376.924	404.33
377.373	343.47
377.822	350.5
378.27	329.43
378.719	369.22
379.167	303.68
379.616	362.2
380.064	336.45
380.512	308.37
380.961	355.18
381.409	303.68
381.857	352.84
382.305	259.21
382.753	301.34
383.201	320.07
383.649	317.73
384.097	338.79
384.545	352.84
384.992	270.92
385.44	383.26
385.888	310.71
386.335	392.62
386.783	320.07
387.231	338.79
387.678	320.07
388.125	331.77
388.573	380.92
389.02	303.68
389.467	355.18
389.914	345.81
390.362	373.9
390.809	310.71
391.256	401.99
391.703	329.43
392.15	310.71
392.596	310.71
393.043	327.09
393.49	366.88
393.937	313.05
394.383	336.45
394.83	294.32
395.276	287.3
395.723	308.37
396.169	341.13
396.616	324.75
397.062	369.22
397.508	343.47
397.954	376.24
398.401	299
398.847	338.79
399.293	364.54
399.739	348.15
400.185	280.28
400.631	343.47
401.076	266.24
401.522	315.39
401.968	416.03
402.414	306.03
402.859	296.66
403.305	359.86
403.75	348.15
404.196	406.67
404.641	320.07
405.086	380.92
405.532	350.5
405.977	416.03
406.422	378.58
406.867	327.09
407.312	380.92
407.757	392.62
408.202	336.45
408.647	317.73
409.092	306.03
409.537	362.2
409.982	362.2
410.426	357.52
410.871	338.79
411.316	338.79
411.76	287.3
412.205	390.28
412.649	350.5
413.093	294.32
413.538	345.81
413.982	324.75
414.426	310.71
414.87	317.73
415.314	359.86
415.758	329.43
416.202	343.47
416.646	308.37
417.09	324.75
417.534	392.62
417.978	322.41
418.421	301.34
418.865	366.88
419.309	310.71
419.752	348.15
420.196	327.09
420.639	345.81
421.083	345.81
421.526	299
421.969	355.18
422.412	301.34
422.856	399.65
423.299	357.52
423.742	380.92
424.185	385.6
424.628	303.68
425.071	296.66
425.513	416.03
425.956	310.71
426.399	336.45
426.842	270.92
427.284	366.88
427.727	308.37
428.169	289.64
428.612	371.56
429.054	320.07
429.497	341.13
429.939	380.92
430.381	306.03
430.823	380.92
431.265	444.12
431.707	378.58
432.149	371.56
432.591	366.88
433.033	343.47
433.475	401.99
433.917	420.71
434.359	413.69
434.8	453.48
435.242	507.31
435.684	507.31
436.125	460.5
436.567	373.9
437.008	378.58
437.449	406.67
437.891	397.31
438.332	373.9
438.773	409.01
439.214	448.8
439.656	416.03
440.097	411.35
440.538	352.84
440.978	427.73
441.419	380.92
441.86	444.12
442.301	423.05
442.742	465.18
443.182	469.86
443.623	427.73
444.063	467.52
444.504	411.35
444.944	455.82
445.385	425.39
445.825	432.41
446.265	465.18
446.706	357.52
447.146	404.33
447.586	448.8
448.026	448.8
448.466	437.1
448.906	448.8
449.346	448.8
449.786	394.97
450.225	479.22
450.665	390.28
451.105	451.14
451.544	409.01
451.984	411.35
452.424	416.03
452.863	413.69
453.302	373.9
453.742	329.43
454.181	409.01
454.62	434.75
455.059	373.9
455.499	427.73
455.938	350.5
456.377	413.69
456.816	387.94
457.254	366.88
457.693	446.46
458.132	392.62
458.571	378.58
459.01	387.94
459.448	373.9
459.887	380.92
460.325	404.33
460.764	341.13
461.202	383.26
461.641	413.69
462.079	338.79
462.517	364.54
462.955	444.12
463.393	366.88
463.832	308.37
464.27	401.99
464.708	380.92
465.145	341.13
465.583	425.39
466.021	399.65
466.459	324.75
466.897	451.14
467.334	420.71
467.772	420.71
468.209	423.05
468.647	371.56
469.084	359.86
469.522	324.75
469.959	357.52
470.396	373.9
470.833	394.97
471.271	378.58
471.708	423.05
472.145	425.39
472.582	310.71
473.019	350.5
473.456	397.31
473.892	411.35
474.329	401.99
474.766	336.45
475.202	345.81
475.639	453.48
476.076	390.28
476.512	348.15
476.949	366.88
477.385	366.88
477.821	284.96
478.258	423.05
478.694	392.62
479.13	355.18
479.566	458.16
480.002	430.07
480.438	448.8
480.874	348.15
481.31	362.2
481.746	385.6
482.181	441.78
482.617	376.24
483.053	416.03
483.488	390.28
483.924	392.62
484.36	345.81
484.795	434.75
485.23	420.71
485.666	479.22
486.101	437.1
486.536	451.14
486.971	411.35
487.407	404.33
487.842	397.31
488.277	380.92
488.712	467.52
489.146	455.82
489.581	387.94
490.016	425.39
490.451	418.37
490.885	404.33
491.32	418.37
491.755	425.39
492.189	420.71
492.624	385.6
493.058	383.26
493.492	380.92
493.927	364.54
494.361	455.82
494.795	425.39
495.229	427.73
495.663	390.28
496.097	399.65
496.531	409.01
496.965	364.54
497.399	394.97
497.833	357.52
498.266	390.28
498.7	390.28
499.134	390.28
499.567	373.9
500.001	303.68
500.434	441.78
500.868	362.2
501.301	409.01
501.734	390.28
502.168	430.07
502.601	317.73
503.034	404.33
503.467	371.56
503.9	394.97
504.333	446.46
504.766	451.14
505.199	453.48
505.632	362.2
506.064	350.5
506.497	376.24
506.93	430.07
507.362	411.35
507.795	404.33
508.227	392.62
508.66	401.99
509.092	385.6
509.524	418.37
509.956	439.44
510.389	291.98
510.821	380.92
511.253	401.99
511.685	394.97
512.117	404.33
512.549	439.44
512.981	301.34
513.412	371.56
513.844	392.62
514.276	401.99
514.707	432.41
515.139	387.94
515.571	385.6
516.002	413.69
516.433	366.88
516.865	486.25
517.296	406.67
517.727	397.31
518.159	378.58
518.59	406.67
519.021	413.69
519.452	350.5
519.883	444.12
520.314	397.31
520.744	378.58
521.175	369.22
521.606	411.35
522.037	313.05
522.467	331.77
522.898	411.35
523.328	425.39
523.759	343.47
524.189	336.45
524.62	392.62
525.05	427.73
525.48	472.2
525.91	451.14
526.341	409.01
526.771	404.33
527.201	488.59
527.631	373.9
528.061	387.94
528.49	366.88
528.92	434.75
529.35	406.67
529.78	385.6
530.209	322.41
530.639	453.48
531.068	401.99
531.498	378.58
531.927	341.13
532.357	397.31
532.786	284.96
533.215	371.56
533.644	387.94
534.074	355.18
534.503	416.03
534.932	327.09
535.361	427.73
535.79	369.22
536.218	441.78
536.647	406.67
537.076	413.69
537.505	348.15
537.933	369.22
538.362	448.8
538.79	378.58
539.219	406.67
539.647	416.03
540.076	472.2
540.504	502.63
540.932	575.19
541.36	603.27
541.788	626.68
542.217	650.08
542.645	633.7
543.073	631.36
543.5	682.85
543.928	652.42
544.356	664.13
544.784	657.11
545.211	678.17
545.639	689.87
546.067	633.7
546.494	610.29
546.922	547.1
547.349	528.38
547.776	493.27
548.204	516.67
548.631	453.48
549.058	476.88
549.485	472.2
549.912	493.27
550.339	416.03
550.766	462.84
551.193	451.14
551.62	462.84
552.047	427.73
552.474	430.07
552.9	392.62
553.327	359.86
553.754	392.62
554.18	493.27
554.607	465.18
555.033	385.6
555.459	345.81
555.886	376.24
556.312	371.56
556.738	362.2
557.164	430.07
557.59	357.52
558.016	397.31
558.442	357.52
558.868	376.24
559.294	399.65
559.72	383.26
560.145	425.39
560.571	411.35
560.997	416.03
561.422	371.56
561.848	427.73
562.273	448.8
562.699	371.56
563.124	416.03
563.549	432.41
563.974	352.84
564.4	427.73
564.825	385.6
565.25	401.99
565.675	392.62
566.1	376.24
566.525	409.01
566.95	373.9
567.374	390.28
567.799	399.65
568.224	416.03
568.648	409.01
569.073	446.46
569.497	348.15
569.922	385.6
570.346	373.9
570.771	437.1
571.195	404.33
571.619	336.45
572.043	397.31
572.467	352.84
572.891	446.46
573.315	378.58
573.739	437.1
574.163	481.57
574.587	460.5
575.011	385.6
575.435	387.94
575.858	385.6
576.282	462.84
576.705	364.54
577.129	453.48
577.552	420.71
577.976	416.03
578.399	453.48
578.822	423.05
579.245	420.71
579.669	385.6
580.092	504.97
580.515	425.39
580.938	462.84
581.361	409.01
581.784	467.52
582.206	451.14
582.629	378.58
583.052	406.67
583.474	427.73
583.897	451.14
584.32	476.88
584.742	453.48
585.165	416.03
585.587	413.69
586.009	420.71
586.431	488.59
586.854	430.07
587.276	430.07
587.698	453.48
588.12	446.46
588.542	439.44
588.964	432.41
589.386	380.92
589.807	364.54
590.229	394.97
590.651	432.41
591.073	411.35
591.494	385.6
591.916	371.56
592.337	467.52
592.759	392.62
593.18	469.86
593.601	401.99
594.022	343.47
594.444	366.88
594.865	371.56
595.286	373.9
595.707	394.97
596.128	418.37
596.549	425.39
596.97	394.97
597.39	348.15
597.811	387.94
598.232	357.52
598.652	416.03
599.073	397.31
599.494	416.03
599.914	467.52
600.334	416.03
600.755	444.12
601.175	401.99
601.595	397.31
602.015	390.28
602.436	355.18
602.856	547.1
603.276	338.79
603.696	350.5
604.115	423.05
604.535	357.52
604.955	387.94
605.375	397.31
605.794	383.26
606.214	387.94
606.634	364.54
607.053	425.39
607.473	397.31
607.892	423.05
608.311	444.12
608.731	385.6
609.15	458.16
609.569	462.84
609.988	603.27
610.407	668.81
610.826	724.98
611.245	652.42
611.664	743.71
612.083	631.36
612.501	636.04
612.92	561.14
613.339	544.76
613.757	481.57
614.176	490.93
614.594	554.12
615.013	455.82
615.431	350.5
615.85	439.44
616.268	392.62
616.686	369.22
617.104	455.82
617.522	406.67
617.94	404.33
618.358	334.11
618.776	416.03
619.194	348.15
619.612	411.35
620.03	434.75
620.447	446.46
620.865	472.2
621.282	416.03
621.7	423.05
622.117	383.26
622.535	394.97
622.952	401.99
623.369	420.71
623.787	406.67
624.204	352.84
624.621	378.58
625.038	418.37
625.455	432.41
625.872	416.03
626.289	394.97
626.706	392.62
627.123	394.97
627.539	378.58
627.956	397.31
628.373	369.22
628.789	376.24
629.206	406.67
629.622	383.26
630.038	401.99
630.455	369.22
630.871	373.9
631.287	383.26
631.703	366.88
632.12	371.56
632.536	341.13
632.952	357.52
633.368	413.69
633.783	392.62
634.199	371.56
634.615	317.73
635.031	359.86
635.446	336.45
635.862	343.47
636.277	413.69
636.693	320.07
637.108	336.45
637.524	366.88
637.939	376.24
638.354	387.94
638.77	355.18
639.185	352.84
639.6	387.94
640.015	387.94
640.43	341.13
640.845	310.71
641.259	348.15
641.674	317.73
642.089	350.5
642.504	383.26
642.918	327.09
643.333	345.81
643.747	418.37
644.162	392.62
644.576	320.07
644.991	329.43
645.405	348.15
645.819	362.2
646.233	329.43
646.647	322.41
647.061	406.67
647.475	364.54
647.889	390.28
648.303	383.26
648.717	397.31
649.131	373.9
649.545	315.39
649.958	432.41
650.372	348.15
650.785	336.45
651.199	394.97
651.612	399.65
652.026	359.86
652.439	336.45
652.852	357.52
653.266	313.05
653.679	334.11
654.092	373.9
654.505	399.65
654.918	401.99
655.331	294.32
655.744	413.69
656.156	418.37
656.569	324.75
656.982	409.01
657.394	373.9
657.807	280.28
658.22	291.98
658.632	385.6
659.044	348.15
659.457	362.2
659.869	366.88
660.281	284.96
660.693	373.9
661.106	336.45
661.518	352.84
661.93	373.9
662.342	331.77
662.754	329.43
663.165	371.56
663.577	306.03
663.989	348.15
664.401	336.45
664.812	383.26
665.224	357.52
665.635	380.92
666.047	355.18
666.458	404.33
666.869	441.78
667.281	373.9
667.692	352.84
668.103	399.65
668.514	355.18
668.925	434.75
669.336	348.15
669.747	301.34
670.158	371.56
670.569	409.01
670.979	387.94
671.39	345.81
671.801	327.09
672.211	348.15
672.622	315.39
673.032	369.22
673.443	273.26
673.853	376.24
674.263	359.86
674.674	338.79
675.084	266.24
675.494	378.58
675.904	336.45
676.314	313.05
676.724	401.99
677.134	308.37
677.544	369.22
677.953	352.84
678.363	336.45
678.773	380.92
679.182	362.2
679.592	345.81
680.001	301.34
680.411	320.07
680.82	338.79
681.23	301.34
681.639	282.62
682.048	327.09
682.457	359.86
682.866	355.18
683.275	350.5
683.684	359.86
684.093	348.15
684.502	378.58
684.911	277.94
685.32	378.58
685.728	289.64
686.137	378.58
686.546	331.77
686.954	348.15
687.363	378.58
687.771	315.39
688.179	350.5
688.588	341.13
688.996	308.37
689.404	364.54
689.812	343.47
690.22	294.32
690.628	322.41
691.036	399.65
691.444	348.15
691.852	352.84
692.26	317.73
692.667	378.58
693.075	352.84
693.483	331.77
693.89	343.47
694.298	357.52
694.705	299
695.112	306.03
695.52	322.41
695.927	324.75
696.334	331.77
696.741	352.84
697.148	301.34
697.555	350.5
697.962	366.88
698.369	345.81
698.776	343.47
699.183	289.64
699.59	252.19
699.996	341.13
700.403	394.97
700.81	334.11
701.216	329.43
701.623	320.07
702.029	369.22
702.435	317.73
702.842	249.85
703.248	317.73
703.654	383.26
704.06	313.05
704.466	376.24
704.872	338.79
705.278	352.84
705.684	306.03
706.09	420.71
706.496	331.77
706.901	364.54
707.307	371.56
707.712	324.75
708.118	343.47
708.523	359.86
708.929	399.65
709.334	343.47
709.74	301.34
710.145	348.15
710.55	350.5
710.955	334.11
711.36	343.47
711.765	355.18
712.17	355.18
712.575	369.22
712.98	970.74
713.385	380.92
713.789	399.65
714.194	352.84
714.599	355.18
715.003	324.75
715.408	343.47
715.812	291.98
716.217	282.62
716.621	380.92
717.025	282.62
717.429	362.2
717.833	369.22
718.238	313.05
718.642	338.79
719.046	308.37
719.449	306.03
719.853	364.54
720.257	345.81
720.661	392.62
721.065	348.15
721.468	343.47
721.872	310.71
722.275	254.53
722.679	324.75
723.082	406.67
723.485	366.88
723.889	313.05
724.292	369.22
724.695	334.11
725.098	392.62
725.501	350.5
725.904	294.32
726.307	364.54
726.71	315.39
727.113	329.43
727.516	270.92
727.918	289.64
728.321	352.84
728.724	315.39
729.126	359.86
729.529	366.88
729.931	362.2
730.333	291.98
730.736	390.28
731.138	341.13
731.54	303.68
731.942	338.79
732.344	369.22
732.746	324.75
733.148	341.13
733.55	280.28
733.952	401.99
734.354	341.13
734.756	362.2
735.157	313.05
735.559	306.03
735.96	385.6
736.362	350.5
736.763	320.07
737.165	355.18
737.566	338.79
737.967	327.09
738.368	299
738.77	359.86
739.171	348.15
739.572	280.28
739.973	324.75
740.374	348.15
740.774	345.81
741.175	387.94
741.576	277.94
741.977	291.98
742.377	308.37
742.778	385.6
743.178	369.22
743.579	310.71
743.979	317.73
744.379	315.39
744.78	270.92
745.18	378.58
745.58	364.54
745.98	371.56
746.38	357.52
746.78	296.66
747.18	359.86
747.58	366.88
747.98	352.84
748.38	331.77
748.779	306.03
749.179	350.5
749.578	303.68
749.978	380.92
750.377	355.18
750.777	306.03
751.176	345.81
751.575	308.37
751.975	320.07
752.374	399.65
752.773	306.03
753.172	315.39
753.571	324.75
753.97	327.09
754.369	320.07
754.768	320.07
755.166	282.62
755.565	338.79
755.964	371.56
756.362	322.41
756.761	378.58
757.159	341.13
757.558	373.9
757.956	334.11
758.354	303.68
758.753	369.22
759.151	364.54
759.549	427.73
759.947	348.15
760.345	369.22
760.743	317.73
761.141	329.43
761.539	310.71
761.936	392.62
762.334	397.31
762.732	291.98
763.129	289.64
763.527	308.37
763.924	371.56
764.322	313.05
764.719	336.45
765.117	357.52
765.514	404.33
765.911	296.66
