Data from Al_FLMS009871__266__12-21-17-245.txt Node

Date: Fri Mar 08 12:21:17 CST 2024
User: pe5414po
Spectrometer: FLMS00987
Trigger mode: 0
Integration Time (sec): 1.000000E-1
Scans to average: 1
Electric dark correction enabled: true
Nonlinearity correction enabled: false
Boxcar width: 0
XAxis mode: Wavelengths
Number of Pixels in Spectrum: 2048
>>>>>Begin Spectral Data<<<<<
188.938	-38.03
189.409	-38.03
189.879	-38.03
190.349	-108.25
190.819	-110.59
191.29	-63.78
191.76	-138.68
192.23	-126.97
192.7	-52.08
193.17	-31.01
193.64	-49.74
194.109	-26.33
194.579	27.5
195.049	13.46
195.519	-0.59
195.988	41.54
196.458	29.84
196.927	34.52
197.397	121.12
197.866	118.78
198.336	102.4
198.805	132.83
199.274	200.7
199.744	221.77
200.213	256.87
200.682	240.49
201.151	282.62
201.62	256.87
202.089	256.87
202.558	266.24
203.027	256.87
203.495	352.84
203.964	289.64
204.433	303.68
204.902	313.05
205.37	308.37
205.839	383.26
206.307	427.73
206.776	369.22
207.244	331.77
207.712	352.84
208.181	315.39
208.649	387.94
209.117	317.73
209.585	439.44
210.053	387.94
210.521	350.5
210.989	364.54
211.457	390.28
211.925	394.97
212.393	364.54
212.861	350.5
213.328	413.69
213.796	383.26
214.264	427.73
214.731	385.6
215.199	411.35
215.666	404.33
216.133	418.37
216.601	458.16
217.068	530.72
217.535	427.73
218.003	469.86
218.47	486.25
218.937	404.33
219.404	472.2
219.871	509.65
220.338	629.02
220.805	540.08
221.271	497.95
221.738	430.07
222.205	341.13
222.671	394.97
223.138	448.8
223.605	497.95
224.071	507.31
224.538	523.69
225.004	460.5
225.47	647.74
225.937	699.24
226.403	652.42
226.869	629.02
227.335	511.99
227.801	423.05
228.267	458.16
228.733	434.75
229.199	380.92
229.665	387.94
230.131	380.92
230.597	469.86
231.062	420.71
231.528	434.75
231.994	383.26
232.459	373.9
232.925	385.6
233.39	432.41
233.856	490.93
234.321	432.41
234.786	544.76
235.252	666.47
235.717	928.61
236.182	1080.74
236.647	1139.26
237.112	909.88
237.577	703.92
238.042	474.54
238.507	467.52
238.972	411.35
239.436	427.73
239.901	399.65
240.366	355.18
240.83	409.01
241.295	399.65
241.76	355.18
242.224	317.73
242.688	404.33
243.153	369.22
243.617	355.18
244.081	409.01
244.545	413.69
245.01	460.5
245.474	369.22
245.938	394.97
246.402	387.94
246.866	437.1
247.33	413.69
247.793	472.2
248.257	404.33
248.721	392.62
249.185	430.07
249.648	497.95
250.112	575.19
250.575	666.47
251.039	741.36
251.502	788.18
251.965	666.47
252.429	603.27
252.892	511.99
253.355	455.82
253.818	423.05
254.281	409.01
254.744	444.12
255.207	458.16
255.67	579.87
256.133	834.99
256.596	902.86
257.059	916.9
257.522	750.73
257.984	554.12
258.447	474.54
258.909	523.69
259.372	390.28
259.834	376.24
260.297	399.65
260.759	373.9
261.221	432.41
261.684	359.86
262.146	451.14
262.608	500.29
263.07	586.89
263.532	418.37
263.994	444.12
264.456	507.31
264.918	579.87
265.38	617.32
265.842	612.64
266.303	462.84
266.765	399.65
267.227	338.79
267.688	366.88
268.15	350.5
268.611	313.05
269.072	383.26
269.534	249.85
269.995	380.92
270.456	378.58
270.918	341.13
271.379	413.69
271.84	317.73
272.301	364.54
272.762	359.86
273.223	392.62
273.684	409.01
274.144	366.88
274.605	352.84
275.066	434.75
275.527	306.03
275.987	369.22
276.448	371.56
276.908	313.05
277.369	313.05
277.829	434.75
278.289	401.99
278.75	481.57
279.21	551.78
279.67	551.78
280.13	542.42
280.59	483.91
281.05	598.59
281.51	577.53
281.97	427.73
282.43	343.47
282.89	378.58
283.35	301.34
283.809	406.67
284.269	369.22
284.729	397.31
285.188	430.07
285.648	380.92
286.107	411.35
286.567	383.26
287.026	458.16
287.485	600.93
287.944	561.14
288.404	446.46
288.863	413.69
289.322	362.2
289.781	348.15
290.24	315.39
290.699	359.86
291.158	310.71
291.616	350.5
292.075	329.43
292.534	369.22
292.992	345.81
293.451	334.11
293.91	373.9
294.368	282.62
294.827	397.31
295.285	334.11
295.743	317.73
296.202	352.84
296.66	301.34
297.118	294.32
297.576	317.73
298.034	348.15
298.492	369.22
298.95	338.79
299.408	359.86
299.866	334.11
300.324	380.92
300.781	364.54
301.239	423.05
301.697	448.8
302.154	397.31
302.612	397.31
303.069	390.28
303.527	437.1
303.984	437.1
304.441	486.25
304.899	589.23
305.356	622
305.813	664.13
306.27	626.68
306.727	699.24
307.184	886.48
307.641	1333.52
308.098	1846.1
308.555	2229.95
309.012	2236.97
309.468	1932.7
309.925	1282.03
310.382	717.96
310.838	605.61
311.295	521.35
311.751	434.75
312.208	455.82
312.664	425.39
313.12	378.58
313.577	430.07
314.033	364.54
314.489	406.67
314.945	369.22
315.401	392.62
315.857	385.6
316.313	404.33
316.769	392.62
317.225	444.12
317.681	474.54
318.136	390.28
318.592	418.37
319.048	409.01
319.503	331.77
319.959	336.45
320.414	331.77
320.869	373.9
321.325	313.05
321.78	317.73
322.235	348.15
322.691	364.54
323.146	320.07
323.601	359.86
324.056	399.65
324.511	423.05
324.966	418.37
325.421	376.24
325.875	341.13
326.33	359.86
326.785	310.71
327.24	406.67
327.694	418.37
328.149	378.58
328.603	317.73
329.058	441.78
329.512	345.81
329.966	369.22
330.421	336.45
330.875	371.56
331.329	390.28
331.783	296.66
332.237	327.09
332.691	380.92
333.145	336.45
333.599	322.41
334.053	359.86
334.507	366.88
334.96	383.26
335.414	324.75
335.868	350.5
336.321	401.99
336.775	320.07
337.228	282.62
337.682	364.54
338.135	275.6
338.588	380.92
339.042	409.01
339.495	296.66
339.948	324.75
340.401	448.8
340.854	322.41
341.307	383.26
341.76	313.05
342.213	425.39
342.666	338.79
343.119	378.58
343.571	334.11
344.024	355.18
344.477	439.44
344.929	324.75
345.382	345.81
345.834	397.31
346.287	376.24
346.739	306.03
347.191	378.58
347.644	385.6
348.096	387.94
348.548	324.75
349	331.77
349.452	336.45
349.904	338.79
350.356	341.13
350.808	401.99
351.26	359.86
351.711	306.03
352.163	357.52
352.615	345.81
353.066	338.79
353.518	364.54
353.969	364.54
354.421	352.84
354.872	394.97
355.324	413.69
355.775	390.28
356.226	343.47
356.677	434.75
357.128	394.97
357.579	488.59
358.03	561.14
358.481	617.32
358.932	584.55
359.383	540.08
359.834	511.99
360.285	488.59
360.735	366.88
361.186	406.67
361.637	401.99
362.087	430.07
362.538	380.92
362.988	362.2
363.438	373.9
363.889	366.88
364.339	352.84
364.789	430.07
365.239	345.81
365.689	376.24
366.139	352.84
366.589	387.94
367.039	380.92
367.489	352.84
367.939	343.47
368.389	439.44
368.839	350.5
369.288	359.86
369.738	313.05
370.187	350.5
370.637	390.28
371.086	355.18
371.536	439.44
371.985	373.9
372.434	364.54
372.884	387.94
373.333	460.5
373.782	409.01
374.231	376.24
374.68	413.69
375.129	355.18
375.578	399.65
376.027	303.68
376.475	399.65
376.924	324.75
377.373	376.24
377.822	327.09
378.27	397.31
378.719	355.18
379.167	401.99
379.616	418.37
380.064	348.15
380.512	336.45
380.961	427.73
381.409	371.56
381.857	434.75
382.305	432.41
382.753	409.01
383.201	458.16
383.649	387.94
384.097	359.86
384.545	376.24
384.992	406.67
385.44	437.1
385.888	406.67
386.335	387.94
386.783	357.52
387.231	313.05
387.678	416.03
388.125	392.62
388.573	355.18
389.02	413.69
389.467	420.71
389.914	401.99
390.362	404.33
390.809	507.31
391.256	465.18
391.703	427.73
392.15	465.18
392.596	647.74
393.043	830.31
393.49	1090.1
393.937	1469.27
394.383	1843.76
394.83	2145.69
395.276	1665.88
395.723	1586.3
396.169	2332.93
396.616	2590.39
397.062	2005.25
397.508	1172.02
397.954	710.94
398.401	511.99
398.847	425.39
399.293	441.78
399.739	441.78
400.185	348.15
400.631	448.8
401.076	406.67
401.522	296.66
401.968	409.01
402.414	352.84
402.859	394.97
403.305	401.99
403.75	467.52
404.196	359.86
404.641	359.86
405.086	366.88
405.532	418.37
405.977	394.97
406.422	378.58
406.867	425.39
407.312	423.05
407.757	359.86
408.202	380.92
408.647	284.96
409.092	392.62
409.537	343.47
409.982	406.67
410.426	373.9
410.871	387.94
411.316	371.56
411.76	387.94
412.205	411.35
412.649	390.28
413.093	387.94
413.538	406.67
413.982	331.77
414.426	352.84
414.87	355.18
415.314	289.64
415.758	331.77
416.202	378.58
416.646	411.35
417.09	394.97
417.534	394.97
417.978	411.35
418.421	341.13
418.865	343.47
419.309	329.43
419.752	357.52
420.196	366.88
420.639	355.18
421.083	420.71
421.526	352.84
421.969	390.28
422.412	413.69
422.856	544.76
423.299	549.44
423.742	458.16
424.185	411.35
424.628	343.47
425.071	418.37
425.513	430.07
425.956	409.01
426.399	404.33
426.842	378.58
427.284	406.67
427.727	441.78
428.169	416.03
428.612	437.1
429.054	364.54
429.497	444.12
429.939	502.63
430.381	467.52
430.823	467.52
431.265	437.1
431.707	416.03
432.149	439.44
432.591	446.46
433.033	441.78
433.475	504.97
433.917	439.44
434.359	451.14
434.8	556.46
435.242	582.21
435.684	619.66
436.125	521.35
436.567	530.72
437.008	523.69
437.449	479.22
437.891	488.59
438.332	486.25
438.773	523.69
439.214	526.04
439.656	554.12
440.097	526.04
440.538	521.35
440.978	544.76
441.419	474.54
441.86	544.76
442.301	544.76
442.742	537.74
443.182	544.76
443.623	565.82
444.063	591.57
444.504	614.98
444.944	579.87
445.385	600.93
445.825	570.51
446.265	568.17
446.706	579.87
447.146	596.25
447.586	614.98
448.026	563.48
448.466	533.06
448.906	582.21
449.346	617.32
449.786	570.51
450.225	549.44
450.665	563.48
451.105	558.8
451.544	465.18
451.984	469.86
452.424	551.78
452.863	526.04
453.302	547.1
453.742	556.46
454.181	568.17
454.62	502.63
455.059	460.5
455.499	453.48
455.938	444.12
456.377	458.16
456.816	397.31
457.254	497.95
457.693	486.25
458.132	537.74
458.571	455.82
459.01	448.8
459.448	488.59
459.887	399.65
460.325	448.8
460.764	434.75
461.202	385.6
461.641	451.14
462.079	500.29
462.517	427.73
462.955	490.93
463.393	483.91
463.832	465.18
464.27	430.07
464.708	406.67
465.145	411.35
465.583	420.71
466.021	430.07
466.459	469.86
466.897	453.48
467.334	451.14
467.772	469.86
468.209	502.63
468.647	423.05
469.084	444.12
469.522	394.97
469.959	497.95
470.396	397.31
470.833	455.82
471.271	467.52
471.708	479.22
472.145	418.37
472.582	406.67
473.019	458.16
473.456	376.24
473.892	390.28
474.329	448.8
474.766	434.75
475.202	385.6
475.639	371.56
476.076	439.44
476.512	380.92
476.949	345.81
477.385	376.24
477.821	467.52
478.258	441.78
478.694	453.48
479.13	474.54
479.566	432.41
480.002	413.69
480.438	399.65
480.874	430.07
481.31	406.67
481.746	451.14
482.181	399.65
482.617	439.44
483.053	455.82
483.488	411.35
483.924	479.22
484.36	472.2
484.795	530.72
485.23	593.91
485.666	511.99
486.101	530.72
486.536	547.1
486.971	514.33
487.407	565.82
487.842	542.42
488.277	481.57
488.712	528.38
489.146	535.4
489.581	509.65
490.016	554.12
490.451	486.25
490.885	547.1
491.32	483.91
491.755	453.48
492.189	511.99
492.624	530.72
493.058	584.55
493.492	458.16
493.927	533.06
494.361	434.75
494.795	481.57
495.229	533.06
495.663	441.78
496.097	460.5
496.531	481.57
496.965	495.61
497.399	474.54
497.833	493.27
498.266	413.69
498.7	504.97
499.134	432.41
499.567	444.12
500.001	458.16
500.434	423.05
500.868	474.54
501.301	455.82
501.734	439.44
502.168	451.14
502.601	432.41
503.034	490.93
503.467	453.48
503.9	488.59
504.333	540.08
504.766	526.04
505.199	556.46
505.632	509.65
506.064	502.63
506.497	514.33
506.93	446.46
507.362	495.61
507.795	486.25
508.227	481.57
508.66	427.73
509.092	500.29
509.524	507.31
509.956	497.95
510.389	579.87
510.821	537.74
511.253	579.87
511.685	502.63
512.117	474.54
512.549	540.08
512.981	528.38
513.412	488.59
513.844	579.87
514.276	565.82
514.707	509.65
515.139	551.78
515.571	511.99
516.002	540.08
516.433	570.51
516.865	519.01
517.296	507.31
517.727	486.25
518.159	444.12
518.59	540.08
519.021	453.48
519.452	577.53
519.883	521.35
520.314	556.46
520.744	607.95
521.175	509.65
521.606	607.95
522.037	537.74
522.467	523.69
522.898	568.17
523.328	537.74
523.759	544.76
524.189	547.1
524.62	460.5
525.05	589.23
525.48	551.78
525.91	563.48
526.341	607.95
526.771	671.15
527.201	647.74
527.631	750.73
528.061	746.05
528.49	764.77
528.92	710.94
529.35	1003.5
529.78	1780.56
530.209	6679.3
530.639	19491.4
531.068	29590.81
531.498	39336.8
531.927	46292.87
532.357	58264.71
532.786	63135.37
533.215	63135.37
533.644	37139.04
534.074	13401.32
534.503	4886.45
534.932	2356.33
535.361	1349.9
535.79	1040.95
536.218	790.52
536.647	703.92
537.076	748.39
537.505	629.02
537.933	643.06
538.362	654.76
538.79	605.61
539.219	549.44
539.647	586.89
540.076	636.04
540.504	643.06
540.932	692.21
541.36	706.26
541.788	804.56
542.217	858.39
542.645	809.24
543.073	830.31
543.5	771.79
543.928	788.18
544.356	781.15
544.784	818.6
545.211	757.75
545.639	757.75
546.067	741.36
546.494	682.85
546.922	640.72
547.349	605.61
547.776	582.21
548.204	596.25
548.631	526.04
549.058	556.46
549.485	565.82
549.912	554.12
550.339	528.38
550.766	586.89
551.193	575.19
551.62	575.19
552.047	572.85
552.474	593.91
552.9	579.87
553.327	490.93
553.754	598.59
554.18	497.95
554.607	486.25
555.033	540.08
555.459	519.01
555.886	582.21
556.312	540.08
556.738	446.46
557.164	467.52
557.59	430.07
558.016	418.37
558.442	519.01
558.868	542.42
559.294	488.59
559.72	507.31
560.145	551.78
560.571	509.65
560.997	460.5
561.422	511.99
561.848	535.4
562.273	502.63
562.699	425.39
563.124	446.46
563.549	495.61
563.974	530.72
564.4	565.82
564.825	519.01
565.25	467.52
565.675	460.5
566.1	467.52
566.525	486.25
566.95	481.57
567.374	488.59
567.799	427.73
568.224	423.05
568.648	530.72
569.073	519.01
569.497	535.4
569.922	472.2
570.346	507.31
570.771	519.01
571.195	490.93
571.619	483.91
572.043	523.69
572.467	399.65
572.891	490.93
573.315	542.42
573.739	486.25
574.163	474.54
574.587	528.38
575.011	434.75
575.435	465.18
575.858	460.5
576.282	472.2
576.705	495.61
577.129	444.12
577.552	490.93
577.976	521.35
578.399	504.97
578.822	488.59
579.245	467.52
579.669	416.03
580.092	481.57
580.515	479.22
580.938	540.08
581.361	540.08
581.784	504.97
582.206	467.52
582.629	572.85
583.052	462.84
583.474	523.69
583.897	549.44
584.32	502.63
584.742	460.5
585.165	500.29
585.587	460.5
586.009	462.84
586.431	565.82
586.854	582.21
587.276	519.01
587.698	549.44
588.12	640.72
588.542	687.53
588.964	811.58
589.386	987.12
589.807	1300.75
590.229	1225.86
590.651	1029.25
591.073	682.85
591.494	584.55
591.916	483.91
592.337	465.18
592.759	563.48
593.18	437.1
593.601	430.07
594.022	458.16
594.444	467.52
594.865	437.1
595.286	453.48
595.707	394.97
596.128	469.86
596.549	469.86
596.97	448.8
597.39	416.03
597.811	488.59
598.232	497.95
598.652	516.67
599.073	493.27
599.494	453.48
599.914	390.28
600.334	423.05
600.755	427.73
601.175	453.48
601.595	387.94
602.015	416.03
602.436	460.5
602.856	650.08
603.276	439.44
603.696	444.12
604.115	406.67
604.535	399.65
604.955	401.99
605.375	390.28
605.794	462.84
606.214	420.71
606.634	434.75
607.053	469.86
607.473	420.71
607.892	547.1
608.311	483.91
608.731	462.84
609.15	521.35
609.569	568.17
609.988	682.85
610.407	748.39
610.826	968.4
611.245	907.54
611.664	762.43
612.083	769.45
612.501	764.77
612.92	753.07
613.339	694.55
613.757	659.45
614.176	586.89
614.594	533.06
615.013	523.69
615.431	516.67
615.85	533.06
616.268	547.1
616.686	535.4
617.104	526.04
617.522	427.73
617.94	465.18
618.358	439.44
618.776	451.14
619.194	465.18
619.612	519.01
620.03	523.69
620.447	394.97
620.865	418.37
621.282	416.03
621.7	509.65
622.117	497.95
622.535	469.86
622.952	430.07
623.369	467.52
623.787	439.44
624.204	446.46
624.621	465.18
625.038	451.14
625.455	483.91
625.872	441.78
626.289	439.44
626.706	401.99
627.123	437.1
627.539	467.52
627.956	446.46
628.373	479.22
628.789	437.1
629.206	439.44
629.622	418.37
630.038	448.8
630.455	427.73
630.871	453.48
631.287	437.1
631.703	387.94
632.12	437.1
632.536	392.62
632.952	345.81
633.368	416.03
633.783	472.2
634.199	383.26
634.615	310.71
635.031	371.56
635.446	448.8
635.862	378.58
636.277	437.1
636.693	404.33
637.108	341.13
637.524	409.01
637.939	416.03
638.354	322.41
638.77	380.92
639.185	416.03
639.6	341.13
640.015	411.35
640.43	359.86
640.845	411.35
641.259	430.07
641.674	416.03
642.089	371.56
642.504	401.99
642.918	399.65
643.333	385.6
643.747	369.22
644.162	448.8
644.576	376.24
644.991	406.67
645.405	366.88
645.819	383.26
646.233	413.69
646.647	451.14
647.061	378.58
647.475	394.97
647.889	366.88
648.303	394.97
648.717	366.88
649.131	350.5
649.545	394.97
649.958	427.73
650.372	404.33
650.785	366.88
651.199	416.03
651.612	348.15
652.026	308.37
652.439	343.47
652.852	334.11
653.266	378.58
653.679	348.15
654.092	338.79
654.505	299
654.918	373.9
655.331	406.67
655.744	413.69
656.156	334.11
656.569	366.88
656.982	385.6
657.394	453.48
657.807	310.71
658.22	378.58
658.632	413.69
659.044	390.28
659.457	387.94
659.869	451.14
660.281	420.71
660.693	357.52
661.106	327.09
661.518	308.37
661.93	315.39
662.342	371.56
662.754	362.2
663.165	362.2
663.577	427.73
663.989	355.18
664.401	369.22
664.812	355.18
665.224	378.58
665.635	378.58
666.047	385.6
666.458	280.28
666.869	338.79
667.281	341.13
667.692	397.31
668.103	399.65
668.514	404.33
668.925	366.88
669.336	341.13
669.747	444.12
670.158	345.81
670.569	310.71
670.979	343.47
671.39	444.12
671.801	341.13
672.211	376.24
672.622	329.43
673.032	341.13
673.443	299
673.853	331.77
674.263	380.92
674.674	338.79
675.084	364.54
675.494	380.92
675.904	266.24
676.314	303.68
676.724	334.11
677.134	334.11
677.544	303.68
677.953	331.77
678.363	308.37
678.773	322.41
679.182	327.09
679.592	331.77
680.001	355.18
680.411	343.47
680.82	322.41
681.23	343.47
681.639	369.22
682.048	310.71
682.457	327.09
682.866	359.86
683.275	392.62
683.684	308.37
684.093	343.47
684.502	310.71
684.911	341.13
685.32	362.2
685.728	385.6
686.137	355.18
686.546	385.6
686.954	383.26
687.363	406.67
687.771	348.15
688.179	352.84
688.588	334.11
688.996	306.03
689.404	378.58
689.812	376.24
690.22	378.58
690.628	420.71
691.036	350.5
691.444	331.77
691.852	226.45
692.26	327.09
692.667	310.71
693.075	336.45
693.483	355.18
693.89	371.56
694.298	348.15
694.705	301.34
695.112	306.03
695.52	362.2
695.927	373.9
696.334	371.56
696.741	320.07
697.148	322.41
697.555	411.35
697.962	306.03
698.369	289.64
698.776	277.94
699.183	317.73
699.59	334.11
699.996	416.03
700.403	348.15
700.81	383.26
701.216	334.11
701.623	350.5
702.029	308.37
702.435	376.24
702.842	306.03
703.248	373.9
703.654	317.73
704.06	357.52
704.466	371.56
704.872	364.54
705.278	376.24
705.684	390.28
706.09	343.47
706.496	378.58
706.901	399.65
707.307	380.92
707.712	313.05
708.118	387.94
708.523	397.31
708.929	355.18
709.334	364.54
709.74	341.13
710.145	383.26
710.55	341.13
710.955	348.15
711.36	343.47
711.765	355.18
712.17	394.97
712.575	355.18
712.98	1055
713.385	322.41
713.789	404.33
714.194	301.34
714.599	404.33
715.003	303.68
715.408	359.86
715.812	376.24
716.217	357.52
716.621	273.26
717.025	373.9
717.429	364.54
717.833	315.39
718.238	334.11
718.642	385.6
719.046	291.98
719.449	343.47
719.853	378.58
720.257	284.96
720.661	287.3
721.065	320.07
721.468	322.41
721.872	331.77
722.275	406.67
722.679	383.26
723.082	306.03
723.485	313.05
723.889	406.67
724.292	303.68
724.695	320.07
725.098	387.94
725.501	369.22
725.904	299
726.307	355.18
726.71	277.94
727.113	294.32
727.516	308.37
727.918	334.11
728.321	451.14
728.724	350.5
729.126	331.77
729.529	366.88
729.931	322.41
730.333	263.9
730.736	308.37
731.138	341.13
731.54	334.11
731.942	299
732.344	291.98
732.746	343.47
733.148	345.81
733.55	284.96
733.952	301.34
734.354	291.98
734.756	364.54
735.157	259.21
735.559	327.09
735.96	343.47
736.362	348.15
736.763	366.88
737.165	378.58
737.566	371.56
737.967	336.45
738.368	394.97
738.77	301.34
739.171	359.86
739.572	336.45
739.973	310.71
740.374	324.75
740.774	282.62
741.175	294.32
741.576	329.43
741.977	338.79
742.377	350.5
742.778	324.75
743.178	289.64
743.579	306.03
743.979	315.39
744.379	345.81
744.78	331.77
745.18	287.3
745.58	289.64
745.98	355.18
746.38	324.75
746.78	327.09
747.18	322.41
747.58	315.39
747.98	352.84
748.38	327.09
748.779	348.15
749.179	224.11
749.578	355.18
749.978	341.13
750.377	324.75
750.777	385.6
751.176	329.43
751.575	296.66
751.975	299
752.374	317.73
752.773	357.52
753.172	320.07
753.571	327.09
753.97	338.79
754.369	357.52
754.768	352.84
755.166	320.07
755.565	301.34
755.964	362.2
756.362	329.43
756.761	350.5
757.159	324.75
757.558	296.66
757.956	341.13
758.354	366.88
758.753	266.24
759.151	313.05
759.549	308.37
759.947	341.13
760.345	263.9
760.743	411.35
761.141	336.45
761.539	324.75
761.936	317.73
762.334	273.26
762.732	301.34
763.129	338.79
763.527	294.32
763.924	320.07
