Data from Al_FLMS009871__830__15-30-06-896.txt Node

Date: Fri Mar 08 15:30:06 CST 2024
User: pe5414po
Spectrometer: FLMS00987
Trigger mode: 0
Integration Time (sec): 1.000000E-1
Scans to average: 1
Electric dark correction enabled: true
Nonlinearity correction enabled: false
Boxcar width: 0
XAxis mode: Wavelengths
Number of Pixels in Spectrum: 2048
>>>>>Begin Spectral Data<<<<<
188.938	-82.36
189.409	-82.36
189.879	-82.36
190.349	-133.85
190.819	-91.72
191.29	-87.04
191.76	-82.36
192.23	-54.27
192.7	-70.65
193.17	-58.95
193.64	-98.74
194.109	-26.18
194.579	-35.55
195.049	-40.23
195.519	27.65
195.988	1.9
196.458	123.61
196.927	137.65
197.397	55.73
197.866	51.05
198.336	156.38
198.805	250
199.274	224.25
199.744	111.91
200.213	184.46
200.682	200.85
201.151	242.98
201.62	275.74
202.089	247.66
202.558	214.89
203.027	310.85
203.495	210.21
203.964	306.17
204.433	212.55
204.902	257.02
205.37	217.23
205.839	273.4
206.307	317.87
206.776	266.38
207.244	221.91
207.712	329.58
208.181	306.17
208.649	289.79
209.117	278.08
209.585	219.57
210.053	306.17
210.521	271.06
210.989	266.38
211.457	317.87
211.925	320.21
212.393	271.06
212.861	252.34
213.328	250
213.796	242.98
214.264	268.72
214.731	313.19
215.199	242.98
215.666	247.66
216.133	303.83
216.601	219.57
217.068	287.45
217.535	238.3
218.003	310.85
218.47	301.49
218.937	240.64
219.404	266.38
219.871	273.4
220.338	296.81
220.805	250
221.271	261.7
221.738	240.64
222.205	264.04
222.671	275.74
223.138	252.34
223.605	219.57
224.071	280.43
224.538	250
225.004	292.13
225.47	214.89
225.937	254.68
226.403	242.98
226.869	294.47
227.335	254.68
227.801	233.61
228.267	259.36
228.733	285.11
229.199	310.85
229.665	259.36
230.131	261.7
230.597	289.79
231.062	226.59
231.528	282.77
231.994	271.06
232.459	322.56
232.925	341.28
233.39	306.17
233.856	296.81
234.321	331.92
234.786	315.53
235.252	334.26
235.717	242.98
236.182	266.38
236.647	320.21
237.112	266.38
237.577	252.34
238.042	299.15
238.507	217.23
238.972	278.08
239.436	310.85
239.901	233.61
240.366	200.85
240.83	245.32
241.295	322.56
241.76	273.4
242.224	261.7
242.688	268.72
243.153	334.26
243.617	278.08
244.081	282.77
244.545	242.98
245.01	308.51
245.474	271.06
245.938	294.47
246.402	245.32
246.866	303.83
247.33	285.11
247.793	247.66
248.257	254.68
248.721	315.53
249.185	306.17
249.648	235.96
250.112	254.68
250.575	338.94
251.039	308.51
251.502	303.83
251.965	343.62
252.429	329.58
252.892	292.13
253.355	313.19
253.818	231.27
254.281	322.56
254.744	296.81
255.207	259.36
255.67	264.04
256.133	313.19
256.596	310.85
257.059	266.38
257.522	355.32
257.984	324.9
258.447	287.45
258.909	273.4
259.372	348.3
259.834	252.34
260.297	266.38
260.759	294.47
261.221	254.68
261.684	259.36
262.146	322.56
262.608	264.04
263.07	268.72
263.532	282.77
263.994	275.74
264.456	287.45
264.918	282.77
265.38	271.06
265.842	278.08
266.303	226.59
266.765	294.47
267.227	315.53
267.688	266.38
268.15	416.18
268.611	273.4
269.072	329.58
269.534	303.83
269.995	268.72
270.456	259.36
270.918	334.26
271.379	226.59
271.84	338.94
272.301	364.68
272.762	308.51
273.223	364.68
273.684	343.62
274.144	324.9
274.605	299.15
275.066	317.87
275.527	294.47
275.987	317.87
276.448	308.51
276.908	341.28
277.369	355.32
277.829	278.08
278.289	327.24
278.75	303.83
279.21	259.36
279.67	336.6
280.13	303.83
280.59	294.47
281.05	320.21
281.51	303.83
281.97	313.19
282.43	390.43
282.89	282.77
283.35	292.13
283.809	278.08
284.269	334.26
284.729	289.79
285.188	296.81
285.648	367.03
286.107	317.87
286.567	299.15
287.026	299.15
287.485	299.15
287.944	259.36
288.404	331.92
288.863	294.47
289.322	242.98
289.781	271.06
290.24	289.79
290.699	207.87
291.158	254.68
291.616	308.51
292.075	327.24
292.534	303.83
292.992	259.36
293.451	259.36
293.91	280.43
294.368	322.56
294.827	348.3
295.285	299.15
295.743	331.92
296.202	252.34
296.66	306.17
297.118	254.68
297.576	252.34
298.034	287.45
298.492	294.47
298.95	285.11
299.408	343.62
299.866	313.19
300.324	266.38
300.781	301.49
301.239	348.3
301.697	327.24
302.154	292.13
302.612	278.08
303.069	296.81
303.527	268.72
303.984	275.74
304.441	301.49
304.899	266.38
305.356	271.06
305.813	289.79
306.27	376.39
306.727	268.72
307.184	343.62
307.641	336.6
308.098	355.32
308.555	324.9
309.012	322.56
309.468	261.7
309.925	327.24
310.382	299.15
310.838	247.66
311.295	381.07
311.751	350.64
312.208	336.6
312.664	294.47
313.12	371.71
313.577	331.92
314.033	329.58
314.489	247.66
314.945	292.13
315.401	285.11
315.857	338.94
316.313	306.17
316.769	306.17
317.225	306.17
317.681	348.3
318.136	334.26
318.592	271.06
319.048	331.92
319.503	289.79
319.959	250
320.414	285.11
320.869	266.38
321.325	390.43
321.78	294.47
322.235	360
322.691	310.85
323.146	273.4
323.601	303.83
324.056	296.81
324.511	273.4
324.966	343.62
325.421	343.62
325.875	250
326.33	294.47
326.785	320.21
327.24	266.38
327.694	378.73
328.149	317.87
328.603	352.98
329.058	324.9
329.512	306.17
329.966	296.81
330.421	299.15
330.875	275.74
331.329	299.15
331.783	242.98
332.237	299.15
332.691	341.28
333.145	221.91
333.599	271.06
334.053	257.02
334.507	308.51
334.96	292.13
335.414	327.24
335.868	303.83
336.321	338.94
336.775	303.83
337.228	273.4
337.682	336.6
338.135	367.03
338.588	282.77
339.042	367.03
339.495	315.53
339.948	289.79
340.401	296.81
340.854	310.85
341.307	334.26
341.76	317.87
342.213	303.83
342.666	378.73
343.119	334.26
343.571	271.06
344.024	224.25
344.477	315.53
344.929	301.49
345.382	313.19
345.834	294.47
346.287	308.51
346.739	378.73
347.191	334.26
347.644	282.77
348.096	259.36
348.548	364.68
349	292.13
349.452	360
349.904	301.49
350.356	322.56
350.808	275.74
351.26	371.71
351.711	362.34
352.163	296.81
352.615	320.21
353.066	296.81
353.518	322.56
353.969	313.19
354.421	336.6
354.872	329.58
355.324	313.19
355.775	310.85
356.226	292.13
356.677	261.7
357.128	264.04
357.579	357.66
358.03	310.85
358.481	287.45
358.932	355.32
359.383	329.58
359.834	282.77
360.285	334.26
360.735	317.87
361.186	341.28
361.637	264.04
362.087	320.21
362.538	322.56
362.988	289.79
363.438	292.13
363.889	334.26
364.339	371.71
364.789	352.98
365.239	383.41
365.689	310.85
366.139	345.96
366.589	303.83
367.039	289.79
367.489	327.24
367.939	282.77
368.389	341.28
368.839	245.32
369.288	299.15
369.738	257.02
370.187	315.53
370.637	282.77
371.086	334.26
371.536	294.47
371.985	329.58
372.434	299.15
372.884	348.3
373.333	308.51
373.782	301.49
374.231	362.34
374.68	313.19
375.129	315.53
375.578	275.74
376.027	268.72
376.475	341.28
376.924	282.77
377.373	336.6
377.822	362.34
378.27	266.38
378.719	320.21
379.167	367.03
379.616	308.51
380.064	303.83
380.512	320.21
380.961	301.49
381.409	310.85
381.857	327.24
382.305	306.17
382.753	315.53
383.201	282.77
383.649	282.77
384.097	285.11
384.545	294.47
384.992	313.19
385.44	338.94
385.888	348.3
386.335	357.66
386.783	278.08
387.231	334.26
387.678	367.03
388.125	381.07
388.573	292.13
389.02	350.64
389.467	257.02
389.914	278.08
390.362	280.43
390.809	320.21
391.256	296.81
391.703	320.21
392.15	303.83
392.596	322.56
393.043	320.21
393.49	313.19
393.937	338.94
394.383	352.98
394.83	334.26
395.276	296.81
395.723	362.34
396.169	343.62
396.616	322.56
397.062	350.64
397.508	280.43
397.954	308.51
398.401	303.83
398.847	381.07
399.293	338.94
399.739	322.56
400.185	294.47
400.631	352.98
401.076	280.43
401.522	282.77
401.968	324.9
402.414	292.13
402.859	308.51
403.305	327.24
403.75	306.17
404.196	303.83
404.641	310.85
405.086	313.19
405.532	308.51
405.977	280.43
406.422	367.03
406.867	292.13
407.312	334.26
407.757	303.83
408.202	327.24
408.647	315.53
409.092	310.85
409.537	289.79
409.982	301.49
410.426	313.19
410.871	266.38
411.316	306.17
411.76	364.68
412.205	329.58
412.649	282.77
413.093	315.53
413.538	331.92
413.982	238.3
414.426	282.77
414.87	348.3
415.314	322.56
415.758	338.94
416.202	362.34
416.646	254.68
417.09	371.71
417.534	343.62
417.978	292.13
418.421	345.96
418.865	306.17
419.309	327.24
419.752	313.19
420.196	250
420.639	369.37
421.083	313.19
421.526	275.74
421.969	362.34
422.412	303.83
422.856	306.17
423.299	278.08
423.742	315.53
424.185	360
424.628	324.9
425.071	308.51
425.513	308.51
425.956	313.19
426.399	306.17
426.842	322.56
427.284	308.51
427.727	327.24
428.169	362.34
428.612	336.6
429.054	301.49
429.497	257.02
429.939	336.6
430.381	406.81
430.823	327.24
431.265	376.39
431.707	320.21
432.149	327.24
432.591	273.4
433.033	317.87
433.475	301.49
433.917	329.58
434.359	289.79
434.8	287.45
435.242	257.02
435.684	273.4
436.125	381.07
436.567	322.56
437.008	303.83
437.449	334.26
437.891	357.66
438.332	336.6
438.773	301.49
439.214	301.49
439.656	317.87
440.097	287.45
440.538	294.47
440.978	320.21
441.419	259.36
441.86	327.24
442.301	299.15
442.742	367.03
443.182	273.4
443.623	299.15
444.063	289.79
444.504	322.56
444.944	306.17
445.385	320.21
445.825	336.6
446.265	327.24
446.706	315.53
447.146	308.51
447.586	334.26
448.026	303.83
448.466	378.73
448.906	280.43
449.346	280.43
449.786	313.19
450.225	287.45
450.665	282.77
451.105	355.32
451.544	331.92
451.984	338.94
452.424	341.28
452.863	320.21
453.302	280.43
453.742	357.66
454.181	324.9
454.62	381.07
455.059	320.21
455.499	360
455.938	278.08
456.377	369.37
456.816	317.87
457.254	324.9
457.693	301.49
458.132	303.83
458.571	371.71
459.01	331.92
459.448	336.6
459.887	268.72
460.325	282.77
460.764	369.37
461.202	320.21
461.641	336.6
462.079	294.47
462.517	324.9
462.955	320.21
463.393	315.53
463.832	285.11
464.27	324.9
464.708	336.6
465.145	404.47
465.583	317.87
466.021	315.53
466.459	266.38
466.897	299.15
467.334	278.08
467.772	294.47
468.209	289.79
468.647	352.98
469.084	303.83
469.522	317.87
469.959	324.9
470.396	406.81
470.833	303.83
471.271	357.66
471.708	317.87
472.145	275.74
472.582	320.21
473.019	357.66
473.456	273.4
473.892	322.56
474.329	324.9
474.766	296.81
475.202	306.17
475.639	278.08
476.076	334.26
476.512	271.06
476.949	289.79
477.385	364.68
477.821	355.32
478.258	355.32
478.694	317.87
479.13	327.24
479.566	299.15
480.002	308.51
480.438	313.19
480.874	360
481.31	331.92
481.746	308.51
482.181	299.15
482.617	273.4
483.053	287.45
483.488	306.17
483.924	331.92
484.36	285.11
484.795	301.49
485.23	299.15
485.666	280.43
486.101	371.71
486.536	343.62
486.971	343.62
487.407	308.51
487.842	374.05
488.277	317.87
488.712	355.32
489.146	336.6
489.581	308.51
490.016	313.19
490.451	275.74
490.885	341.28
491.32	350.64
491.755	341.28
492.189	250
492.624	306.17
493.058	352.98
493.492	315.53
493.927	320.21
494.361	388.09
494.795	360
495.229	257.02
495.663	303.83
496.097	306.17
496.531	343.62
496.965	240.64
497.399	278.08
497.833	287.45
498.266	280.43
498.7	364.68
499.134	327.24
499.567	341.28
500.001	331.92
500.434	331.92
500.868	261.7
501.301	355.32
501.734	385.75
502.168	310.85
502.601	413.84
503.034	364.68
503.467	331.92
503.9	357.66
504.333	348.3
504.766	315.53
505.199	336.6
505.632	348.3
506.064	376.39
506.497	385.75
506.93	308.51
507.362	374.05
507.795	352.98
508.227	296.81
508.66	371.71
509.092	322.56
509.524	257.02
509.956	303.83
510.389	369.37
510.821	322.56
511.253	250
511.685	348.3
512.117	329.58
512.549	310.85
512.981	296.81
513.412	336.6
513.844	329.58
514.276	264.04
514.707	320.21
515.139	261.7
515.571	322.56
516.002	301.49
516.433	348.3
516.865	301.49
517.296	313.19
517.727	287.45
518.159	324.9
518.59	385.75
519.021	367.03
519.452	376.39
519.883	271.06
520.314	317.87
520.744	264.04
521.175	343.62
521.606	334.26
522.037	369.37
522.467	322.56
522.898	301.49
523.328	317.87
523.759	378.73
524.189	301.49
524.62	338.94
525.05	287.45
525.48	327.24
525.91	357.66
526.341	334.26
526.771	334.26
527.201	322.56
527.631	322.56
528.061	334.26
528.49	294.47
528.92	341.28
529.35	357.66
529.78	264.04
530.209	345.96
530.639	343.62
531.068	343.62
531.498	287.45
531.927	367.03
532.357	303.83
532.786	275.74
533.215	355.32
533.644	327.24
534.074	301.49
534.503	282.77
534.932	292.13
535.361	280.43
535.79	317.87
536.218	278.08
536.647	343.62
537.076	301.49
537.505	261.7
537.933	252.34
538.362	336.6
538.79	303.83
539.219	306.17
539.647	275.74
540.076	331.92
540.504	322.56
540.932	287.45
541.36	360
541.788	273.4
542.217	254.68
542.645	292.13
543.073	388.09
543.5	362.34
543.928	338.94
544.356	310.85
544.784	376.39
545.211	404.47
545.639	341.28
546.067	278.08
546.494	329.58
546.922	352.98
547.349	315.53
547.776	367.03
548.204	303.83
548.631	287.45
549.058	285.11
549.485	327.24
549.912	292.13
550.339	338.94
550.766	327.24
551.193	343.62
551.62	331.92
552.047	324.9
552.474	324.9
552.9	350.64
553.327	308.51
553.754	390.43
554.18	331.92
554.607	327.24
555.033	315.53
555.459	285.11
555.886	355.32
556.312	385.75
556.738	364.68
557.164	374.05
557.59	310.85
558.016	299.15
558.442	315.53
558.868	303.83
559.294	266.38
559.72	306.17
560.145	383.41
560.571	303.83
560.997	324.9
561.422	334.26
561.848	308.51
562.273	299.15
562.699	306.17
563.124	327.24
563.549	336.6
563.974	317.87
564.4	289.79
564.825	280.43
565.25	289.79
565.675	303.83
566.1	360
566.525	355.32
566.95	233.61
567.374	345.96
567.799	334.26
568.224	278.08
568.648	360
569.073	355.32
569.497	266.38
569.922	317.87
570.346	383.41
570.771	287.45
571.195	275.74
571.619	334.26
572.043	289.79
572.467	336.6
572.891	308.51
573.315	343.62
573.739	299.15
574.163	336.6
574.587	308.51
575.011	313.19
575.435	350.64
575.858	317.87
576.282	322.56
576.705	313.19
577.129	250
577.552	324.9
577.976	331.92
578.399	306.17
578.822	310.85
579.245	322.56
579.669	336.6
580.092	348.3
580.515	313.19
580.938	324.9
581.361	352.98
581.784	378.73
582.206	371.71
582.629	278.08
583.052	345.96
583.474	336.6
583.897	296.81
584.32	331.92
584.742	303.83
585.165	299.15
585.587	289.79
586.009	289.79
586.431	278.08
586.854	254.68
587.276	308.51
587.698	336.6
588.12	285.11
588.542	317.87
588.964	296.81
589.386	308.51
589.807	308.51
590.229	371.71
590.651	294.47
591.073	327.24
591.494	271.06
591.916	280.43
592.337	294.47
592.759	306.17
593.18	308.51
593.601	322.56
594.022	322.56
594.444	343.62
594.865	341.28
595.286	303.83
595.707	343.62
596.128	329.58
596.549	317.87
596.97	324.9
597.39	334.26
597.811	299.15
598.232	362.34
598.652	313.19
599.073	308.51
599.494	308.51
599.914	331.92
600.334	336.6
600.755	240.64
601.175	341.28
601.595	275.74
602.015	352.98
602.436	345.96
602.856	486.39
603.276	320.21
603.696	315.53
604.115	242.98
604.535	327.24
604.955	327.24
605.375	296.81
605.794	322.56
606.214	317.87
606.634	322.56
607.053	299.15
607.473	345.96
607.892	292.13
608.311	317.87
608.731	371.71
609.15	364.68
609.569	308.51
609.988	334.26
610.407	317.87
610.826	322.56
611.245	336.6
611.664	341.28
612.083	350.64
612.501	350.64
612.92	296.81
613.339	383.41
613.757	320.21
614.176	334.26
614.594	259.36
615.013	331.92
615.431	252.34
615.85	310.85
616.268	322.56
616.686	327.24
617.104	334.26
617.522	308.51
617.94	306.17
618.358	301.49
618.776	317.87
619.194	392.77
619.612	280.43
620.03	341.28
620.447	306.17
620.865	266.38
621.282	224.25
621.7	406.81
622.117	320.21
622.535	369.37
622.952	324.9
623.369	317.87
623.787	287.45
624.204	362.34
624.621	371.71
625.038	294.47
625.455	317.87
625.872	355.32
626.289	313.19
626.706	378.73
627.123	334.26
627.539	360
627.956	299.15
628.373	278.08
628.789	292.13
629.206	275.74
629.622	268.72
630.038	322.56
630.455	303.83
630.871	329.58
631.287	334.26
631.703	266.38
632.12	376.39
632.536	357.66
632.952	376.39
633.368	327.24
633.783	315.53
634.199	348.3
634.615	315.53
635.031	390.43
635.446	299.15
635.862	388.09
636.277	306.17
636.693	289.79
637.108	275.74
637.524	289.79
637.939	287.45
638.354	331.92
638.77	308.51
639.185	324.9
639.6	289.79
640.015	341.28
640.43	301.49
640.845	336.6
641.259	308.51
641.674	294.47
642.089	315.53
642.504	264.04
642.918	378.73
643.333	336.6
643.747	334.26
644.162	364.68
644.576	245.32
644.991	348.3
645.405	299.15
645.819	280.43
646.233	336.6
646.647	343.62
647.061	268.72
647.475	374.05
647.889	355.32
648.303	336.6
648.717	238.3
649.131	369.37
649.545	322.56
649.958	308.51
650.372	303.83
650.785	324.9
651.199	334.26
651.612	273.4
652.026	242.98
652.439	371.71
652.852	285.11
653.266	331.92
653.679	282.77
654.092	397.45
654.505	327.24
654.918	338.94
655.331	329.58
655.744	306.17
656.156	259.36
656.569	261.7
656.982	381.07
657.394	352.98
657.807	360
658.22	331.92
658.632	322.56
659.044	331.92
659.457	345.96
659.869	320.21
660.281	268.72
660.693	315.53
661.106	268.72
661.518	383.41
661.93	334.26
662.342	275.74
662.754	341.28
663.165	317.87
663.577	294.47
663.989	327.24
664.401	334.26
664.812	343.62
665.224	378.73
665.635	282.77
666.047	308.51
666.458	289.79
666.869	313.19
667.281	320.21
667.692	301.49
668.103	299.15
668.514	331.92
668.925	362.34
669.336	310.85
669.747	390.43
670.158	275.74
670.569	343.62
670.979	289.79
671.39	329.58
671.801	331.92
672.211	334.26
672.622	336.6
673.032	341.28
673.443	287.45
673.853	367.03
674.263	313.19
674.674	341.28
675.084	278.08
675.494	294.47
675.904	324.9
676.314	301.49
676.724	310.85
677.134	378.73
677.544	334.26
677.953	369.37
678.363	245.32
678.773	357.66
679.182	395.11
679.592	341.28
680.001	306.17
680.411	296.81
680.82	273.4
681.23	296.81
681.639	338.94
682.048	289.79
682.457	317.87
682.866	292.13
683.275	289.79
683.684	385.75
684.093	313.19
684.502	364.68
684.911	292.13
685.32	360
685.728	296.81
686.137	301.49
686.546	266.38
686.954	324.9
687.363	371.71
687.771	341.28
688.179	268.72
688.588	324.9
688.996	360
689.404	322.56
689.812	296.81
690.22	308.51
690.628	322.56
691.036	338.94
691.444	343.62
691.852	308.51
692.26	280.43
692.667	357.66
693.075	296.81
693.483	317.87
693.89	280.43
694.298	289.79
694.705	268.72
695.112	364.68
695.52	327.24
695.927	289.79
696.334	285.11
696.741	336.6
697.148	271.06
697.555	289.79
697.962	299.15
698.369	320.21
698.776	261.7
699.183	397.45
699.59	364.68
699.996	285.11
700.403	287.45
700.81	266.38
701.216	273.4
701.623	294.47
702.029	381.07
702.435	336.6
702.842	320.21
703.248	240.64
703.654	231.27
704.06	317.87
704.466	336.6
704.872	362.34
705.278	397.45
705.684	242.98
706.09	336.6
706.496	360
706.901	364.68
707.307	310.85
707.712	261.7
708.118	350.64
708.523	385.75
708.929	369.37
709.334	320.21
709.74	350.64
710.145	315.53
710.55	348.3
710.955	282.77
711.36	292.13
711.765	334.26
712.17	317.87
712.575	343.62
712.98	844.49
713.385	399.79
713.789	336.6
714.194	369.37
714.599	289.79
715.003	315.53
715.408	355.32
715.812	317.87
716.217	301.49
716.621	341.28
717.025	294.47
717.429	327.24
717.833	350.64
718.238	334.26
718.642	352.98
719.046	338.94
719.449	317.87
719.853	352.98
720.257	275.74
720.661	322.56
721.065	254.68
721.468	303.83
721.872	266.38
722.275	315.53
722.679	315.53
723.082	296.81
723.485	278.08
723.889	343.62
724.292	303.83
724.695	299.15
725.098	378.73
725.501	294.47
725.904	369.37
726.307	338.94
726.71	336.6
727.113	254.68
727.516	315.53
727.918	287.45
728.321	287.45
728.724	327.24
729.126	334.26
729.529	303.83
729.931	378.73
730.333	364.68
730.736	252.34
731.138	322.56
731.54	348.3
731.942	357.66
732.344	271.06
732.746	252.34
733.148	264.04
733.55	324.9
733.952	301.49
734.354	308.51
734.756	350.64
735.157	352.98
735.559	322.56
735.96	362.34
736.362	331.92
736.763	352.98
737.165	378.73
737.566	306.17
737.967	280.43
738.368	282.77
738.77	350.64
739.171	278.08
739.572	331.92
739.973	317.87
740.374	329.58
740.774	301.49
741.175	285.11
741.576	310.85
741.977	271.06
742.377	296.81
742.778	282.77
743.178	282.77
743.579	292.13
743.979	313.19
744.379	285.11
744.78	273.4
745.18	320.21
745.58	301.49
745.98	395.11
746.38	320.21
746.78	371.71
747.18	334.26
747.58	329.58
747.98	268.72
748.38	287.45
748.779	369.37
749.179	294.47
749.578	343.62
749.978	331.92
750.377	252.34
750.777	329.58
751.176	367.03
751.575	299.15
751.975	320.21
752.374	350.64
752.773	306.17
753.172	343.62
753.571	289.79
753.97	287.45
754.369	324.9
754.768	280.43
755.166	317.87
755.565	313.19
755.964	257.02
756.362	327.24
756.761	364.68
757.159	317.87
757.558	306.17
757.956	301.49
758.354	308.51
758.753	336.6
759.151	275.74
759.549	331.92
759.947	315.53
760.345	261.7
760.743	289.79
761.141	343.62
761.539	259.36
761.936	294.47
762.334	313.19
762.732	280.43
763.129	271.06
763.527	271.06
763.924	287.45
764.322	338.94
764.719	313.19
765.117	374.05
765.514	294.47
765.911	313.19
766.308	324.9
