Data from Al_FLMS009871__826__15-30-06-496.txt Node

Date: Fri Mar 08 15:30:06 CST 2024
User: pe5414po
Spectrometer: FLMS00987
Trigger mode: 0
Integration Time (sec): 1.000000E-1
Scans to average: 1
Electric dark correction enabled: true
Nonlinearity correction enabled: false
Boxcar width: 0
XAxis mode: Wavelengths
Number of Pixels in Spectrum: 2048
>>>>>Begin Spectral Data<<<<<
188.938	-95.82
189.409	-95.82
189.879	-95.82
190.349	-149.65
190.819	-60.71
191.29	-154.33
191.76	-79.43
192.23	-91.13
192.7	-56.03
193.17	-44.32
193.64	-2.19
194.109	-44.32
194.579	-100.5
195.049	9.51
195.519	91.43
195.988	4.83
196.458	68.02
196.927	49.3
197.397	70.36
197.866	117.17
198.336	161.64
198.805	152.28
199.274	175.69
199.744	156.96
200.213	189.73
200.682	185.05
201.151	311.44
201.62	196.75
202.089	266.97
202.558	288.03
203.027	238.88
203.495	288.03
203.964	285.69
204.433	302.08
204.902	327.82
205.37	278.67
205.839	295.05
206.307	278.67
206.776	283.35
207.244	304.42
207.712	318.46
208.181	288.03
208.649	281.01
209.117	344.21
209.585	320.8
210.053	351.23
210.521	271.65
210.989	290.37
211.457	304.42
211.925	348.89
212.393	339.52
212.861	266.97
213.328	285.69
213.796	264.63
214.264	245.9
214.731	325.48
215.199	288.03
215.666	320.8
216.133	278.67
216.601	241.22
217.068	266.97
217.535	290.37
218.003	222.5
218.47	238.88
218.937	238.88
219.404	278.67
219.871	248.24
220.338	304.42
220.805	288.03
221.271	320.8
221.738	206.11
222.205	255.26
222.671	348.89
223.138	215.48
223.605	288.03
224.071	290.37
224.538	203.77
225.004	302.08
225.47	285.69
225.937	262.29
226.403	281.01
226.869	309.1
227.335	325.48
227.801	250.58
228.267	262.29
228.733	281.01
229.199	257.61
229.665	262.29
230.131	290.37
230.597	309.1
231.062	215.48
231.528	316.12
231.994	295.05
232.459	304.42
232.925	299.73
233.39	290.37
233.856	304.42
234.321	292.71
234.786	278.67
235.252	257.61
235.717	276.33
236.182	278.67
236.647	273.99
237.112	295.05
237.577	231.86
238.042	250.58
238.507	224.84
238.972	316.12
239.436	264.63
239.901	281.01
240.366	299.73
240.83	332.5
241.295	337.18
241.76	278.67
242.224	266.97
242.688	341.86
243.153	297.39
243.617	276.33
244.081	215.48
244.545	311.44
245.01	278.67
245.474	318.46
245.938	344.21
246.402	271.65
246.866	288.03
247.33	290.37
247.793	318.46
248.257	313.78
248.721	276.33
249.185	299.73
249.648	248.24
250.112	327.82
250.575	278.67
251.039	316.12
251.502	262.29
251.965	334.84
252.429	309.1
252.892	285.69
253.355	271.65
253.818	281.01
254.281	313.78
254.744	304.42
255.207	236.54
255.67	299.73
256.133	248.24
256.596	269.31
257.059	325.48
257.522	278.67
257.984	262.29
258.447	245.9
258.909	285.69
259.372	234.2
259.834	327.82
260.297	295.05
260.759	297.39
261.221	358.25
261.684	318.46
262.146	318.46
262.608	250.58
263.07	332.5
263.532	372.29
263.994	309.1
264.456	337.18
264.918	304.42
265.38	245.9
265.842	285.69
266.303	234.2
266.765	276.33
267.227	278.67
267.688	292.71
268.15	278.67
268.611	266.97
269.072	217.82
269.534	327.82
269.995	320.8
270.456	346.55
270.918	325.48
271.379	376.97
271.84	332.5
272.301	288.03
272.762	210.79
273.223	332.5
273.684	222.5
274.144	278.67
274.605	304.42
275.066	339.52
275.527	283.35
275.987	295.05
276.448	304.42
276.908	316.12
277.369	311.44
277.829	302.08
278.289	339.52
278.75	320.8
279.21	346.55
279.67	231.86
280.13	288.03
280.59	255.26
281.05	334.84
281.51	290.37
281.97	304.42
282.43	327.82
282.89	288.03
283.35	290.37
283.809	224.84
284.269	311.44
284.729	318.46
285.188	323.14
285.648	295.05
286.107	383.99
286.567	306.76
287.026	276.33
287.485	250.58
287.944	278.67
288.404	332.5
288.863	318.46
289.322	386.33
289.781	295.05
290.24	332.5
290.699	358.25
291.158	440.17
291.616	353.57
292.075	259.95
292.534	316.12
292.992	306.76
293.451	248.24
293.91	271.65
294.368	276.33
294.827	355.91
295.285	229.52
295.743	259.95
296.202	290.37
296.66	273.99
297.118	318.46
297.576	306.76
298.034	355.91
298.492	299.73
298.95	306.76
299.408	360.59
299.866	365.27
300.324	313.78
300.781	318.46
301.239	341.86
301.697	348.89
302.154	351.23
302.612	325.48
303.069	281.01
303.527	348.89
303.984	306.76
304.441	283.35
304.899	304.42
305.356	304.42
305.813	330.16
306.27	309.1
306.727	325.48
307.184	353.57
307.641	362.93
308.098	320.8
308.555	309.1
309.012	309.1
309.468	407.4
309.925	299.73
310.382	311.44
310.838	351.23
311.295	332.5
311.751	269.31
312.208	351.23
312.664	311.44
313.12	302.08
313.577	288.03
314.033	346.55
314.489	283.35
314.945	362.93
315.401	339.52
315.857	327.82
316.313	332.5
316.769	339.52
317.225	323.14
317.681	297.39
318.136	360.59
318.592	250.58
319.048	316.12
319.503	306.76
319.959	374.63
320.414	255.26
320.869	337.18
321.325	351.23
321.78	332.5
322.235	281.01
322.691	334.84
323.146	332.5
323.601	302.08
324.056	339.52
324.511	299.73
324.966	337.18
325.421	311.44
325.875	330.16
326.33	339.52
326.785	318.46
327.24	323.14
327.694	255.26
328.149	241.22
328.603	348.89
329.058	355.91
329.512	292.71
329.966	288.03
330.421	266.97
330.875	325.48
331.329	332.5
331.783	269.31
332.237	318.46
332.691	302.08
333.145	327.82
333.599	433.15
334.053	351.23
334.507	313.78
334.96	358.25
335.414	318.46
335.868	320.8
336.321	302.08
336.775	255.26
337.228	306.76
337.682	318.46
338.135	288.03
338.588	316.12
339.042	339.52
339.495	295.05
339.948	304.42
340.401	257.61
340.854	304.42
341.307	376.97
341.76	348.89
342.213	316.12
342.666	213.14
343.119	325.48
343.571	376.97
344.024	353.57
344.477	341.86
344.929	309.1
345.382	351.23
345.834	334.84
346.287	299.73
346.739	320.8
347.191	332.5
347.644	405.06
348.096	435.49
348.548	318.46
349	255.26
349.452	330.16
349.904	264.63
350.356	297.39
350.808	318.46
351.26	344.21
351.711	259.95
352.163	330.16
352.615	351.23
353.066	323.14
353.518	323.14
353.969	309.1
354.421	302.08
354.872	358.25
355.324	264.63
355.775	367.61
356.226	327.82
356.677	241.22
357.128	358.25
357.579	302.08
358.03	362.93
358.481	266.97
358.932	299.73
359.383	334.84
359.834	348.89
360.285	351.23
360.735	311.44
361.186	304.42
361.637	355.91
362.087	320.8
362.538	367.61
362.988	311.44
363.438	306.76
363.889	295.05
364.339	306.76
364.789	297.39
365.239	358.25
365.689	365.27
366.139	358.25
366.589	332.5
367.039	318.46
367.489	330.16
367.939	262.29
368.389	362.93
368.839	283.35
369.288	393.36
369.738	334.84
370.187	295.05
370.637	313.78
371.086	288.03
371.536	332.5
371.985	309.1
372.434	344.21
372.884	330.16
373.333	341.86
373.782	278.67
374.231	360.59
374.68	327.82
375.129	306.76
375.578	362.93
376.027	341.86
376.475	297.39
376.924	346.55
377.373	365.27
377.822	313.78
378.27	259.95
378.719	309.1
379.167	365.27
379.616	346.55
380.064	316.12
380.512	351.23
380.961	309.1
381.409	346.55
381.857	285.69
382.305	337.18
382.753	316.12
383.201	313.78
383.649	346.55
384.097	353.57
384.545	323.14
384.992	318.46
385.44	292.71
385.888	248.24
386.335	346.55
386.783	334.84
387.231	229.52
387.678	339.52
388.125	344.21
388.573	327.82
389.02	295.05
389.467	353.57
389.914	325.48
390.362	276.33
390.809	327.82
391.256	288.03
391.703	309.1
392.15	346.55
392.596	325.48
393.043	299.73
393.49	299.73
393.937	309.1
394.383	281.01
394.83	281.01
395.276	313.78
395.723	299.73
396.169	299.73
396.616	341.86
397.062	383.99
397.508	283.35
397.954	299.73
398.401	323.14
398.847	400.38
399.293	271.65
399.739	372.29
400.185	318.46
400.631	372.29
401.076	346.55
401.522	407.4
401.968	346.55
402.414	346.55
402.859	309.1
403.305	309.1
403.75	306.76
404.196	374.63
404.641	355.91
405.086	304.42
405.532	309.1
405.977	281.01
406.422	252.92
406.867	252.92
407.312	376.97
407.757	313.78
408.202	341.86
408.647	285.69
409.092	299.73
409.537	320.8
409.982	334.84
410.426	381.65
410.871	334.84
411.316	360.59
411.76	362.93
412.205	290.37
412.649	341.86
413.093	337.18
413.538	325.48
413.982	337.18
414.426	365.27
414.87	320.8
415.314	327.82
415.758	234.2
416.202	285.69
416.646	299.73
417.09	330.16
417.534	323.14
417.978	238.88
418.421	316.12
418.865	360.59
419.309	297.39
419.752	311.44
420.196	278.67
420.639	369.95
421.083	302.08
421.526	281.01
421.969	353.57
422.412	346.55
422.856	334.84
423.299	353.57
423.742	351.23
424.185	299.73
424.628	341.86
425.071	346.55
425.513	402.72
425.956	297.39
426.399	299.73
426.842	339.52
427.284	309.1
427.727	304.42
428.169	341.86
428.612	365.27
429.054	311.44
429.497	313.78
429.939	302.08
430.381	283.35
430.823	299.73
431.265	297.39
431.707	302.08
432.149	358.25
432.591	362.93
433.033	318.46
433.475	360.59
433.917	409.74
434.359	367.61
434.8	379.31
435.242	430.8
435.684	348.89
436.125	318.46
436.567	311.44
437.008	297.39
437.449	295.05
437.891	362.93
438.332	365.27
438.773	325.48
439.214	309.1
439.656	320.8
440.097	346.55
440.538	332.5
440.978	388.68
441.419	309.1
441.86	330.16
442.301	337.18
442.742	302.08
443.182	325.48
443.623	337.18
444.063	283.35
444.504	290.37
444.944	325.48
445.385	290.37
445.825	369.95
446.265	339.52
446.706	304.42
447.146	360.59
447.586	295.05
448.026	334.84
448.466	339.52
448.906	288.03
449.346	367.61
449.786	372.29
450.225	304.42
450.665	334.84
451.105	346.55
451.544	372.29
451.984	323.14
452.424	311.44
452.863	266.97
453.302	327.82
453.742	365.27
454.181	297.39
454.62	381.65
455.059	339.52
455.499	369.95
455.938	379.31
456.377	369.95
456.816	393.36
457.254	334.84
457.693	367.61
458.132	316.12
458.571	330.16
459.01	351.23
459.448	360.59
459.887	367.61
460.325	360.59
460.764	297.39
461.202	264.63
461.641	376.97
462.079	376.97
462.517	311.44
462.955	323.14
463.393	273.99
463.832	376.97
464.27	306.76
464.708	292.71
465.145	264.63
465.583	302.08
466.021	362.93
466.459	332.5
466.897	386.33
467.334	325.48
467.772	306.76
468.209	313.78
468.647	306.76
469.084	311.44
469.522	393.36
469.959	318.46
470.396	302.08
470.833	299.73
471.271	297.39
471.708	295.05
472.145	327.82
472.582	297.39
473.019	327.82
473.456	346.55
473.892	386.33
474.329	327.82
474.766	402.72
475.202	295.05
475.639	313.78
476.076	353.57
476.512	337.18
476.949	299.73
477.385	264.63
477.821	344.21
478.258	355.91
478.694	323.14
479.13	360.59
479.566	344.21
480.002	309.1
480.438	365.27
480.874	297.39
481.31	325.48
481.746	402.72
482.181	271.65
482.617	295.05
483.053	337.18
483.488	238.88
483.924	346.55
484.36	318.46
484.795	288.03
485.23	323.14
485.666	278.67
486.101	295.05
486.536	313.78
486.971	369.95
487.407	325.48
487.842	355.91
488.277	288.03
488.712	292.71
489.146	316.12
489.581	360.59
490.016	295.05
490.451	281.01
490.885	344.21
491.32	346.55
491.755	288.03
492.189	330.16
492.624	327.82
493.058	304.42
493.492	360.59
493.927	309.1
494.361	423.78
494.795	323.14
495.229	316.12
495.663	330.16
496.097	337.18
496.531	330.16
496.965	395.7
497.399	332.5
497.833	292.71
498.266	369.95
498.7	269.31
499.134	348.89
499.567	316.12
500.001	344.21
500.434	386.33
500.868	323.14
501.301	344.21
501.734	360.59
502.168	365.27
502.601	395.7
503.034	344.21
503.467	365.27
503.9	362.93
504.333	365.27
504.766	325.48
505.199	299.73
505.632	360.59
506.064	323.14
506.497	412.08
506.93	407.4
507.362	327.82
507.795	306.76
508.227	339.52
508.66	281.01
509.092	302.08
509.524	309.1
509.956	346.55
510.389	330.16
510.821	337.18
511.253	344.21
511.685	332.5
512.117	304.42
512.549	311.44
512.981	318.46
513.412	351.23
513.844	353.57
514.276	362.93
514.707	325.48
515.139	332.5
515.571	283.35
516.002	337.18
516.433	337.18
516.865	323.14
517.296	353.57
517.727	334.84
518.159	365.27
518.59	369.95
519.021	311.44
519.452	337.18
519.883	299.73
520.314	299.73
520.744	344.21
521.175	325.48
521.606	398.04
522.037	313.78
522.467	332.5
522.898	262.29
523.328	313.78
523.759	391.02
524.189	339.52
524.62	320.8
525.05	229.52
525.48	344.21
525.91	248.24
526.341	288.03
526.771	344.21
527.201	316.12
527.631	276.33
528.061	320.8
528.49	304.42
528.92	309.1
529.35	398.04
529.78	367.61
530.209	344.21
530.639	241.22
531.068	238.88
531.498	292.71
531.927	376.97
532.357	388.68
532.786	299.73
533.215	348.89
533.644	320.8
534.074	344.21
534.503	255.26
534.932	276.33
535.361	362.93
535.79	264.63
536.218	346.55
536.647	311.44
537.076	339.52
537.505	313.78
537.933	330.16
538.362	332.5
538.79	381.65
539.219	297.39
539.647	259.95
540.076	302.08
540.504	288.03
540.932	323.14
541.36	313.78
541.788	299.73
542.217	320.8
542.645	327.82
543.073	334.84
543.5	372.29
543.928	337.18
544.356	325.48
544.784	383.99
545.211	290.37
545.639	332.5
546.067	351.23
546.494	374.63
546.922	323.14
547.349	299.73
547.776	334.84
548.204	330.16
548.631	304.42
549.058	320.8
549.485	341.86
549.912	290.37
550.339	302.08
550.766	306.76
551.193	306.76
551.62	325.48
552.047	332.5
552.474	372.29
552.9	341.86
553.327	337.18
553.754	290.37
554.18	288.03
554.607	355.91
555.033	302.08
555.459	332.5
555.886	355.91
556.312	299.73
556.738	304.42
557.164	344.21
557.59	306.76
558.016	379.31
558.442	323.14
558.868	362.93
559.294	323.14
559.72	318.46
560.145	283.35
560.571	353.57
560.997	304.42
561.422	302.08
561.848	299.73
562.273	311.44
562.699	285.69
563.124	372.29
563.549	348.89
563.974	337.18
564.4	348.89
564.825	302.08
565.25	234.2
565.675	339.52
566.1	346.55
566.525	325.48
566.95	325.48
567.374	318.46
567.799	311.44
568.224	365.27
568.648	346.55
569.073	332.5
569.497	444.85
569.922	339.52
570.346	398.04
570.771	318.46
571.195	241.22
571.619	325.48
572.043	306.76
572.467	259.95
572.891	309.1
573.315	285.69
573.739	323.14
574.163	318.46
574.587	327.82
575.011	299.73
575.435	348.89
575.858	353.57
576.282	304.42
576.705	327.82
577.129	304.42
577.552	409.74
577.976	243.56
578.399	344.21
578.822	257.61
579.245	292.71
579.669	374.63
580.092	304.42
580.515	285.69
580.938	283.35
581.361	316.12
581.784	327.82
582.206	372.29
582.629	320.8
583.052	283.35
583.474	309.1
583.897	341.86
584.32	369.95
584.742	311.44
585.165	231.86
585.587	323.14
586.009	330.16
586.431	245.9
586.854	339.52
587.276	299.73
587.698	367.61
588.12	302.08
588.542	311.44
588.964	278.67
589.386	402.72
589.807	269.31
590.229	339.52
590.651	292.71
591.073	323.14
591.494	295.05
591.916	285.69
592.337	339.52
592.759	353.57
593.18	381.65
593.601	316.12
594.022	320.8
594.444	330.16
594.865	299.73
595.286	365.27
595.707	295.05
596.128	316.12
596.549	311.44
596.97	383.99
597.39	327.82
597.811	292.71
598.232	388.68
598.652	339.52
599.073	304.42
599.494	323.14
599.914	311.44
600.334	283.35
600.755	325.48
601.175	297.39
601.595	316.12
602.015	395.7
602.436	302.08
602.856	482.3
603.276	323.14
603.696	295.05
604.115	325.48
604.535	395.7
604.955	344.21
605.375	306.76
605.794	339.52
606.214	379.31
606.634	353.57
607.053	290.37
607.473	276.33
607.892	302.08
608.311	297.39
608.731	281.01
609.15	355.91
609.569	259.95
609.988	320.8
610.407	276.33
610.826	360.59
611.245	323.14
611.664	295.05
612.083	348.89
612.501	344.21
612.92	362.93
613.339	302.08
613.757	316.12
614.176	283.35
614.594	271.65
615.013	309.1
615.431	339.52
615.85	290.37
616.268	348.89
616.686	365.27
617.104	313.78
617.522	381.65
617.94	257.61
618.358	348.89
618.776	290.37
619.194	358.25
619.612	341.86
620.03	348.89
620.447	297.39
620.865	365.27
621.282	269.31
621.7	320.8
622.117	348.89
622.535	318.46
622.952	281.01
623.369	332.5
623.787	367.61
624.204	334.84
624.621	262.29
625.038	346.55
625.455	330.16
625.872	386.33
626.289	304.42
626.706	304.42
627.123	351.23
627.539	316.12
627.956	316.12
628.373	334.84
628.789	372.29
629.206	367.61
629.622	332.5
630.038	313.78
630.455	295.05
630.871	341.86
631.287	376.97
631.703	316.12
632.12	330.16
632.536	297.39
632.952	339.52
633.368	278.67
633.783	379.31
634.199	358.25
634.615	360.59
635.031	302.08
635.446	304.42
635.862	269.31
636.277	334.84
636.693	302.08
637.108	273.99
637.524	358.25
637.939	262.29
638.354	295.05
638.77	311.44
639.185	367.61
639.6	325.48
640.015	290.37
640.43	419.1
640.845	348.89
641.259	344.21
641.674	295.05
642.089	379.31
642.504	351.23
642.918	330.16
643.333	299.73
643.747	348.89
644.162	278.67
644.576	297.39
644.991	311.44
645.405	295.05
645.819	353.57
646.233	351.23
646.647	388.68
647.061	311.44
647.475	325.48
647.889	290.37
648.303	320.8
648.717	320.8
649.131	348.89
649.545	285.69
649.958	341.86
650.372	344.21
650.785	255.26
651.199	372.29
651.612	320.8
652.026	362.93
652.439	379.31
652.852	297.39
653.266	285.69
653.679	316.12
654.092	327.82
654.505	302.08
654.918	281.01
655.331	391.02
655.744	346.55
656.156	360.59
656.569	302.08
656.982	332.5
657.394	281.01
657.807	323.14
658.22	255.26
658.632	278.67
659.044	325.48
659.457	323.14
659.869	334.84
660.281	320.8
660.693	323.14
661.106	360.59
661.518	339.52
661.93	295.05
662.342	414.42
662.754	339.52
663.165	362.93
663.577	306.76
663.989	372.29
664.401	325.48
664.812	339.52
665.224	351.23
665.635	341.86
666.047	304.42
666.458	295.05
666.869	344.21
667.281	344.21
667.692	278.67
668.103	302.08
668.514	316.12
668.925	383.99
669.336	313.78
669.747	271.65
670.158	348.89
670.569	383.99
670.979	290.37
671.39	325.48
671.801	365.27
672.211	320.8
672.622	360.59
673.032	285.69
673.443	365.27
673.853	341.86
674.263	320.8
674.674	292.71
675.084	306.76
675.494	365.27
675.904	311.44
676.314	311.44
676.724	311.44
677.134	313.78
677.544	281.01
677.953	362.93
678.363	325.48
678.773	353.57
679.182	320.8
679.592	266.97
680.001	346.55
680.411	285.69
680.82	327.82
681.23	273.99
681.639	330.16
682.048	323.14
682.457	330.16
682.866	262.29
683.275	316.12
683.684	273.99
684.093	330.16
684.502	283.35
684.911	243.56
685.32	304.42
685.728	348.89
686.137	344.21
686.546	330.16
686.954	369.95
687.363	330.16
687.771	381.65
688.179	360.59
688.588	358.25
688.996	381.65
689.404	334.84
689.812	360.59
690.22	339.52
690.628	353.57
691.036	323.14
691.444	309.1
691.852	273.99
692.26	376.97
692.667	318.46
693.075	283.35
693.483	323.14
693.89	292.71
694.298	278.67
694.705	281.01
695.112	306.76
695.52	362.93
695.927	362.93
696.334	379.31
696.741	341.86
697.148	224.84
697.555	327.82
697.962	281.01
698.369	358.25
698.776	344.21
699.183	323.14
699.59	346.55
699.996	346.55
700.403	367.61
700.81	323.14
701.216	241.22
701.623	309.1
702.029	374.63
702.435	269.31
702.842	283.35
703.248	341.86
703.654	313.78
704.06	304.42
704.466	412.08
704.872	325.48
705.278	320.8
705.684	358.25
706.09	259.95
706.496	313.78
706.901	379.31
707.307	311.44
707.712	353.57
708.118	369.95
708.523	358.25
708.929	297.39
709.334	269.31
709.74	313.78
710.145	288.03
710.55	348.89
710.955	295.05
711.36	327.82
711.765	292.71
712.17	313.78
712.575	283.35
712.98	793.59
713.385	360.59
713.789	245.9
714.194	306.76
714.599	320.8
715.003	309.1
715.408	362.93
715.812	353.57
716.217	341.86
716.621	302.08
717.025	337.18
717.429	299.73
717.833	318.46
718.238	330.16
718.642	278.67
719.046	290.37
719.449	398.04
719.853	365.27
720.257	316.12
720.661	346.55
721.065	337.18
721.468	273.99
721.872	323.14
722.275	337.18
722.679	309.1
723.082	346.55
723.485	250.58
723.889	395.7
724.292	281.01
724.695	332.5
725.098	341.86
725.501	379.31
725.904	278.67
726.307	313.78
726.71	320.8
727.113	292.71
727.516	353.57
727.918	299.73
728.321	353.57
728.724	325.48
729.126	288.03
729.529	341.86
729.931	299.73
730.333	388.68
730.736	360.59
731.138	355.91
731.54	348.89
731.942	295.05
732.344	381.65
732.746	358.25
733.148	365.27
733.55	330.16
733.952	288.03
734.354	295.05
734.756	311.44
735.157	327.82
735.559	344.21
735.96	248.24
736.362	358.25
736.763	405.06
737.165	369.95
737.566	346.55
737.967	325.48
738.368	339.52
738.77	372.29
739.171	292.71
739.572	327.82
739.973	374.63
740.374	334.84
740.774	337.18
741.175	306.76
741.576	299.73
741.977	341.86
742.377	369.95
742.778	323.14
743.178	304.42
743.579	337.18
743.979	362.93
744.379	358.25
744.78	372.29
745.18	367.61
745.58	341.86
745.98	346.55
746.38	339.52
746.78	351.23
747.18	325.48
747.58	278.67
747.98	276.33
748.38	311.44
748.779	344.21
749.179	313.78
749.578	281.01
749.978	316.12
750.377	381.65
750.777	323.14
751.176	330.16
751.575	332.5
751.975	327.82
752.374	285.69
752.773	302.08
753.172	353.57
753.571	344.21
753.97	285.69
754.369	372.29
754.768	372.29
755.166	290.37
755.565	346.55
755.964	353.57
756.362	313.78
756.761	337.18
757.159	341.86
757.558	318.46
757.956	309.1
758.354	348.89
758.753	337.18
759.151	302.08
759.549	379.31
759.947	295.05
760.345	376.97
760.743	351.23
761.141	419.1
761.539	391.02
761.936	353.57
762.334	320.8
762.732	353.57
763.129	346.55
763.527	309.1
763.924	313.78
764.322	306.76
764.719	337.18
