Data from Al_FLMS009871__821__15-30-05-996.txt Node

Date: Fri Mar 08 15:30:05 CST 2024
User: pe5414po
Spectrometer: FLMS00987
Trigger mode: 0
Integration Time (sec): 1.000000E-1
Scans to average: 1
Electric dark correction enabled: true
Nonlinearity correction enabled: false
Boxcar width: 0
XAxis mode: Wavelengths
Number of Pixels in Spectrum: 2048
>>>>>Begin Spectral Data<<<<<
188.938	-58.37
189.409	-58.37
189.879	-58.37
190.349	-144.97
190.819	-74.75
191.29	-88.79
191.76	-130.92
192.23	-123.9
192.7	-58.37
193.17	-93.48
193.64	7.17
194.109	-88.79
194.579	-37.3
195.049	32.91
195.519	70.36
195.988	51.64
196.458	77.38
196.927	103.13
197.397	72.7
197.866	110.15
198.336	96.11
198.805	133.56
199.274	178.03
199.744	187.39
200.213	163.98
200.682	171.01
201.151	259.95
201.62	234.2
202.089	192.07
202.558	175.69
203.027	264.63
203.495	215.48
203.964	318.46
204.433	236.54
204.902	281.01
205.37	292.71
205.839	252.92
206.307	285.69
206.776	306.76
207.244	341.86
207.712	311.44
208.181	266.97
208.649	236.54
209.117	323.14
209.585	250.58
210.053	255.26
210.521	344.21
210.989	358.25
211.457	288.03
211.925	285.69
212.393	259.95
212.861	290.37
213.328	320.8
213.796	220.16
214.264	259.95
214.731	206.11
215.199	196.75
215.666	245.9
216.133	302.08
216.601	257.61
217.068	266.97
217.535	210.79
218.003	213.14
218.47	245.9
218.937	231.86
219.404	278.67
219.871	264.63
220.338	290.37
220.805	217.82
221.271	238.88
221.738	285.69
222.205	273.99
222.671	313.78
223.138	250.58
223.605	297.39
224.071	217.82
224.538	278.67
225.004	273.99
225.47	192.07
225.937	248.24
226.403	255.26
226.869	285.69
227.335	231.86
227.801	306.76
228.267	273.99
228.733	306.76
229.199	227.18
229.665	271.65
230.131	290.37
230.597	269.31
231.062	248.24
231.528	259.95
231.994	238.88
232.459	234.2
232.925	234.2
233.39	199.09
233.856	248.24
234.321	213.14
234.786	187.39
235.252	276.33
235.717	241.22
236.182	255.26
236.647	224.84
237.112	234.2
237.577	302.08
238.042	369.95
238.507	213.14
238.972	290.37
239.436	276.33
239.901	236.54
240.366	316.12
240.83	257.61
241.295	257.61
241.76	278.67
242.224	292.71
242.688	257.61
243.153	306.76
243.617	259.95
244.081	266.97
244.545	278.67
245.01	311.44
245.474	327.82
245.938	243.56
246.402	245.9
246.866	238.88
247.33	241.22
247.793	234.2
248.257	285.69
248.721	250.58
249.185	227.18
249.648	262.29
250.112	276.33
250.575	306.76
251.039	281.01
251.502	269.31
251.965	281.01
252.429	316.12
252.892	252.92
253.355	290.37
253.818	210.79
254.281	281.01
254.744	262.29
255.207	285.69
255.67	276.33
256.133	288.03
256.596	234.2
257.059	257.61
257.522	288.03
257.984	273.99
258.447	309.1
258.909	196.75
259.372	264.63
259.834	266.97
260.297	255.26
260.759	313.78
261.221	206.11
261.684	208.45
262.146	278.67
262.608	269.31
263.07	316.12
263.532	299.73
263.994	283.35
264.456	243.56
264.918	290.37
265.38	299.73
265.842	248.24
266.303	288.03
266.765	276.33
267.227	262.29
267.688	337.18
268.15	302.08
268.611	285.69
269.072	297.39
269.534	281.01
269.995	285.69
270.456	236.54
270.918	297.39
271.379	304.42
271.84	299.73
272.301	292.71
272.762	316.12
273.223	313.78
273.684	259.95
274.144	266.97
274.605	325.48
275.066	262.29
275.527	283.35
275.987	257.61
276.448	241.22
276.908	285.69
277.369	238.88
277.829	278.67
278.289	316.12
278.75	313.78
279.21	269.31
279.67	339.52
280.13	346.55
280.59	285.69
281.05	194.41
281.51	262.29
281.97	283.35
282.43	248.24
282.89	283.35
283.35	332.5
283.809	304.42
284.269	245.9
284.729	245.9
285.188	269.31
285.648	325.48
286.107	283.35
286.567	288.03
287.026	362.93
287.485	327.82
287.944	234.2
288.404	273.99
288.863	243.56
289.322	337.18
289.781	266.97
290.24	285.69
290.699	273.99
291.158	323.14
291.616	290.37
292.075	381.65
292.534	302.08
292.992	302.08
293.451	288.03
293.91	299.73
294.368	290.37
294.827	288.03
295.285	367.61
295.743	304.42
296.202	309.1
296.66	243.56
297.118	309.1
297.576	292.71
298.034	278.67
298.492	266.97
298.95	309.1
299.408	252.92
299.866	297.39
300.324	295.05
300.781	245.9
301.239	355.91
301.697	313.78
302.154	285.69
302.612	306.76
303.069	245.9
303.527	299.73
303.984	302.08
304.441	283.35
304.899	271.65
305.356	236.54
305.813	285.69
306.27	222.5
306.727	292.71
307.184	276.33
307.641	292.71
308.098	288.03
308.555	257.61
309.012	273.99
309.468	362.93
309.925	264.63
310.382	266.97
310.838	283.35
311.295	241.22
311.751	290.37
312.208	297.39
312.664	297.39
313.12	288.03
313.577	304.42
314.033	285.69
314.489	271.65
314.945	290.37
315.401	309.1
315.857	259.95
316.313	297.39
316.769	262.29
317.225	309.1
317.681	304.42
318.136	257.61
318.592	224.84
319.048	318.46
319.503	337.18
319.959	334.84
320.414	316.12
320.869	266.97
321.325	332.5
321.78	276.33
322.235	285.69
322.691	309.1
323.146	353.57
323.601	292.71
324.056	273.99
324.511	288.03
324.966	248.24
325.421	266.97
325.875	278.67
326.33	325.48
326.785	252.92
327.24	306.76
327.694	292.71
328.149	276.33
328.603	318.46
329.058	313.78
329.512	369.95
329.966	278.67
330.421	362.93
330.875	220.16
331.329	292.71
331.783	292.71
332.237	281.01
332.691	304.42
333.145	320.8
333.599	344.21
334.053	264.63
334.507	252.92
334.96	269.31
335.414	316.12
335.868	299.73
336.321	273.99
336.775	351.23
337.228	318.46
337.682	323.14
338.135	332.5
338.588	306.76
339.042	288.03
339.495	346.55
339.948	325.48
340.401	320.8
340.854	281.01
341.307	295.05
341.76	332.5
342.213	323.14
342.666	334.84
343.119	327.82
343.571	334.84
344.024	325.48
344.477	367.61
344.929	234.2
345.382	220.16
345.834	309.1
346.287	304.42
346.739	283.35
347.191	318.46
347.644	269.31
348.096	318.46
348.548	306.76
349	339.52
349.452	323.14
349.904	355.91
350.356	266.97
350.808	337.18
351.26	311.44
351.711	306.76
352.163	238.88
352.615	264.63
353.066	313.78
353.518	264.63
353.969	365.27
354.421	292.71
354.872	316.12
355.324	255.26
355.775	330.16
356.226	285.69
356.677	297.39
357.128	327.82
357.579	283.35
358.03	302.08
358.481	297.39
358.932	304.42
359.383	351.23
359.834	306.76
360.285	306.76
360.735	323.14
361.186	264.63
361.637	311.44
362.087	285.69
362.538	355.91
362.988	320.8
363.438	231.86
363.889	311.44
364.339	288.03
364.789	313.78
365.239	255.26
365.689	346.55
366.139	273.99
366.589	313.78
367.039	330.16
367.489	278.67
367.939	304.42
368.389	306.76
368.839	306.76
369.288	250.58
369.738	281.01
370.187	302.08
370.637	290.37
371.086	341.86
371.536	332.5
371.985	290.37
372.434	320.8
372.884	327.82
373.333	311.44
373.782	330.16
374.231	313.78
374.68	273.99
375.129	281.01
375.578	334.84
376.027	259.95
376.475	213.14
376.924	320.8
377.373	285.69
377.822	318.46
378.27	295.05
378.719	290.37
379.167	273.99
379.616	278.67
380.064	304.42
380.512	269.31
380.961	276.33
381.409	259.95
381.857	281.01
382.305	316.12
382.753	323.14
383.201	292.71
383.649	318.46
384.097	248.24
384.545	337.18
384.992	348.89
385.44	311.44
385.888	295.05
386.335	316.12
386.783	266.97
387.231	273.99
387.678	316.12
388.125	400.38
388.573	276.33
389.02	283.35
389.467	292.71
389.914	266.97
390.362	304.42
390.809	320.8
391.256	302.08
391.703	297.39
392.15	320.8
392.596	339.52
393.043	302.08
393.49	306.76
393.937	281.01
394.383	339.52
394.83	311.44
395.276	344.21
395.723	341.86
396.169	304.42
396.616	334.84
397.062	306.76
397.508	262.29
397.954	236.54
398.401	362.93
398.847	313.78
399.293	332.5
399.739	412.08
400.185	344.21
400.631	262.29
401.076	306.76
401.522	283.35
401.968	299.73
402.414	365.27
402.859	323.14
403.305	295.05
403.75	302.08
404.196	309.1
404.641	229.52
405.086	334.84
405.532	362.93
405.977	278.67
406.422	318.46
406.867	302.08
407.312	266.97
407.757	351.23
408.202	271.65
408.647	313.78
409.092	344.21
409.537	306.76
409.982	311.44
410.426	276.33
410.871	316.12
411.316	266.97
411.76	271.65
412.205	362.93
412.649	325.48
413.093	332.5
413.538	320.8
413.982	295.05
414.426	309.1
414.87	285.69
415.314	344.21
415.758	283.35
416.202	334.84
416.646	323.14
417.09	227.18
417.534	332.5
417.978	273.99
418.421	337.18
418.865	348.89
419.309	297.39
419.752	325.48
420.196	348.89
420.639	309.1
421.083	344.21
421.526	313.78
421.969	271.65
422.412	320.8
422.856	266.97
423.299	351.23
423.742	302.08
424.185	304.42
424.628	344.21
425.071	311.44
425.513	208.45
425.956	320.8
426.399	330.16
426.842	262.29
427.284	358.25
427.727	288.03
428.169	264.63
428.612	278.67
429.054	360.59
429.497	306.76
429.939	234.2
430.381	316.12
430.823	309.1
431.265	334.84
431.707	290.37
432.149	351.23
432.591	318.46
433.033	351.23
433.475	337.18
433.917	383.99
434.359	339.52
434.8	299.73
435.242	297.39
435.684	285.69
436.125	290.37
436.567	330.16
437.008	318.46
437.449	295.05
437.891	330.16
438.332	351.23
438.773	311.44
439.214	341.86
439.656	316.12
440.097	273.99
440.538	316.12
440.978	316.12
441.419	400.38
441.86	332.5
442.301	288.03
442.742	323.14
443.182	341.86
443.623	318.46
444.063	334.84
444.504	262.29
444.944	306.76
445.385	344.21
445.825	281.01
446.265	304.42
446.706	351.23
447.146	351.23
447.586	299.73
448.026	229.52
448.466	278.67
448.906	325.48
449.346	283.35
449.786	290.37
450.225	302.08
450.665	234.2
451.105	257.61
451.544	292.71
451.984	262.29
452.424	367.61
452.863	365.27
453.302	306.76
453.742	245.9
454.181	313.78
454.62	334.84
455.059	281.01
455.499	281.01
455.938	320.8
456.377	311.44
456.816	313.78
457.254	313.78
457.693	271.65
458.132	292.71
458.571	250.58
459.01	344.21
459.448	297.39
459.887	285.69
460.325	302.08
460.764	351.23
461.202	271.65
461.641	355.91
462.079	306.76
462.517	302.08
462.955	288.03
463.393	290.37
463.832	266.97
464.27	327.82
464.708	311.44
465.145	360.59
465.583	248.24
466.021	320.8
466.459	248.24
466.897	372.29
467.334	330.16
467.772	288.03
468.209	386.33
468.647	297.39
469.084	323.14
469.522	302.08
469.959	360.59
470.396	273.99
470.833	266.97
471.271	330.16
471.708	311.44
472.145	283.35
472.582	278.67
473.019	316.12
473.456	288.03
473.892	250.58
474.329	292.71
474.766	299.73
475.202	257.61
475.639	318.46
476.076	299.73
476.512	339.52
476.949	383.99
477.385	311.44
477.821	323.14
478.258	323.14
478.694	311.44
479.13	252.92
479.566	330.16
480.002	297.39
480.438	269.31
480.874	306.76
481.31	318.46
481.746	278.67
482.181	351.23
482.617	276.33
483.053	332.5
483.488	290.37
483.924	295.05
484.36	288.03
484.795	348.89
485.23	255.26
485.666	290.37
486.101	306.76
486.536	290.37
486.971	255.26
487.407	306.76
487.842	332.5
488.277	393.36
488.712	323.14
489.146	316.12
489.581	295.05
490.016	306.76
490.451	266.97
490.885	306.76
491.32	346.55
491.755	311.44
492.189	360.59
492.624	320.8
493.058	295.05
493.492	281.01
493.927	292.71
494.361	292.71
494.795	213.14
495.229	344.21
495.663	341.86
496.097	320.8
496.531	302.08
496.965	318.46
497.399	313.78
497.833	273.99
498.266	311.44
498.7	273.99
499.134	257.61
499.567	339.52
500.001	311.44
500.434	302.08
500.868	306.76
501.301	344.21
501.734	311.44
502.168	348.89
502.601	316.12
503.034	304.42
503.467	365.27
503.9	334.84
504.333	316.12
504.766	266.97
505.199	334.84
505.632	304.42
506.064	313.78
506.497	332.5
506.93	325.48
507.362	355.91
507.795	283.35
508.227	316.12
508.66	278.67
509.092	234.2
509.524	309.1
509.956	306.76
510.389	332.5
510.821	285.69
511.253	299.73
511.685	360.59
512.117	346.55
512.549	325.48
512.981	292.71
513.412	271.65
513.844	292.71
514.276	285.69
514.707	309.1
515.139	302.08
515.571	318.46
516.002	292.71
516.433	302.08
516.865	313.78
517.296	316.12
517.727	281.01
518.159	288.03
518.59	330.16
519.021	306.76
519.452	383.99
519.883	220.16
520.314	332.5
520.744	316.12
521.175	252.92
521.606	266.97
522.037	344.21
522.467	269.31
522.898	234.2
523.328	313.78
523.759	306.76
524.189	309.1
524.62	299.73
525.05	285.69
525.48	302.08
525.91	309.1
526.341	313.78
526.771	323.14
527.201	395.7
527.631	320.8
528.061	257.61
528.49	297.39
528.92	222.5
529.35	297.39
529.78	423.78
530.209	353.57
530.639	388.68
531.068	281.01
531.498	299.73
531.927	353.57
532.357	285.69
532.786	302.08
533.215	346.55
533.644	327.82
534.074	379.31
534.503	311.44
534.932	292.71
535.361	281.01
535.79	327.82
536.218	288.03
536.647	283.35
537.076	334.84
537.505	262.29
537.933	285.69
538.362	295.05
538.79	320.8
539.219	341.86
539.647	290.37
540.076	292.71
540.504	320.8
540.932	344.21
541.36	339.52
541.788	295.05
542.217	358.25
542.645	344.21
543.073	369.95
543.5	344.21
543.928	217.82
544.356	330.16
544.784	323.14
545.211	320.8
545.639	369.95
546.067	358.25
546.494	316.12
546.922	334.84
547.349	334.84
547.776	302.08
548.204	273.99
548.631	318.46
549.058	332.5
549.485	337.18
549.912	316.12
550.339	288.03
550.766	271.65
551.193	306.76
551.62	313.78
552.047	304.42
552.474	327.82
552.9	295.05
553.327	285.69
553.754	306.76
554.18	302.08
554.607	234.2
555.033	278.67
555.459	297.39
555.886	351.23
556.312	367.61
556.738	304.42
557.164	304.42
557.59	276.33
558.016	297.39
558.442	353.57
558.868	311.44
559.294	353.57
559.72	311.44
560.145	243.56
560.571	290.37
560.997	358.25
561.422	341.86
561.848	334.84
562.273	252.92
562.699	290.37
563.124	278.67
563.549	259.95
563.974	257.61
564.4	243.56
564.825	360.59
565.25	332.5
565.675	295.05
566.1	302.08
566.525	262.29
566.95	334.84
567.374	273.99
567.799	273.99
568.224	288.03
568.648	318.46
569.073	332.5
569.497	292.71
569.922	288.03
570.346	309.1
570.771	257.61
571.195	306.76
571.619	311.44
572.043	332.5
572.467	327.82
572.891	259.95
573.315	285.69
573.739	278.67
574.163	302.08
574.587	383.99
575.011	332.5
575.435	344.21
575.858	266.97
576.282	264.63
576.705	281.01
577.129	330.16
577.552	299.73
577.976	311.44
578.399	278.67
578.822	313.78
579.245	344.21
579.669	332.5
580.092	241.22
580.515	299.73
580.938	292.71
581.361	309.1
581.784	306.76
582.206	285.69
582.629	290.37
583.052	334.84
583.474	295.05
583.897	295.05
584.32	311.44
584.742	332.5
585.165	295.05
585.587	306.76
586.009	306.76
586.431	259.95
586.854	320.8
587.276	330.16
587.698	304.42
588.12	351.23
588.542	379.31
588.964	339.52
589.386	302.08
589.807	306.76
590.229	325.48
590.651	269.31
591.073	297.39
591.494	269.31
591.916	309.1
592.337	281.01
592.759	290.37
593.18	323.14
593.601	351.23
594.022	281.01
594.444	299.73
594.865	238.88
595.286	273.99
595.707	348.89
596.128	276.33
596.549	285.69
596.97	311.44
597.39	344.21
597.811	372.29
598.232	306.76
598.652	297.39
599.073	367.61
599.494	266.97
599.914	323.14
600.334	309.1
600.755	234.2
601.175	316.12
601.595	297.39
602.015	297.39
602.436	229.52
602.856	482.3
603.276	393.36
603.696	313.78
604.115	299.73
604.535	236.54
604.955	358.25
605.375	309.1
605.794	250.58
606.214	271.65
606.634	264.63
607.053	302.08
607.473	313.78
607.892	365.27
608.311	304.42
608.731	358.25
609.15	302.08
609.569	311.44
609.988	304.42
610.407	330.16
610.826	278.67
611.245	334.84
611.664	348.89
612.083	311.44
612.501	288.03
612.92	290.37
613.339	341.86
613.757	227.18
614.176	344.21
614.594	309.1
615.013	295.05
615.431	273.99
615.85	348.89
616.268	360.59
616.686	295.05
617.104	245.9
617.522	325.48
617.94	250.58
618.358	311.44
618.776	269.31
619.194	306.76
619.612	346.55
620.03	248.24
620.447	311.44
620.865	299.73
621.282	276.33
621.7	290.37
622.117	348.89
622.535	362.93
622.952	304.42
623.369	288.03
623.787	351.23
624.204	316.12
624.621	369.95
625.038	367.61
625.455	346.55
625.872	316.12
626.289	337.18
626.706	292.71
627.123	320.8
627.539	271.65
627.956	309.1
628.373	309.1
628.789	311.44
629.206	376.97
629.622	332.5
630.038	318.46
630.455	281.01
630.871	283.35
631.287	302.08
631.703	358.25
632.12	295.05
632.536	313.78
632.952	339.52
633.368	358.25
633.783	311.44
634.199	325.48
634.615	269.31
635.031	302.08
635.446	255.26
635.862	358.25
636.277	295.05
636.693	262.29
637.108	302.08
637.524	339.52
637.939	283.35
638.354	339.52
638.77	295.05
639.185	292.71
639.6	339.52
640.015	316.12
640.43	330.16
640.845	330.16
641.259	259.95
641.674	306.76
642.089	337.18
642.504	400.38
642.918	344.21
643.333	266.97
643.747	304.42
644.162	234.2
644.576	341.86
644.991	369.95
645.405	316.12
645.819	311.44
646.233	281.01
646.647	334.84
647.061	292.71
647.475	355.91
647.889	353.57
648.303	271.65
648.717	374.63
649.131	330.16
649.545	337.18
649.958	262.29
650.372	290.37
650.785	238.88
651.199	283.35
651.612	262.29
652.026	243.56
652.439	332.5
652.852	283.35
653.266	288.03
653.679	346.55
654.092	271.65
654.505	297.39
654.918	259.95
655.331	276.33
655.744	318.46
656.156	355.91
656.569	290.37
656.982	290.37
657.394	273.99
657.807	346.55
658.22	379.31
658.632	327.82
659.044	281.01
659.457	311.44
659.869	304.42
660.281	311.44
660.693	309.1
661.106	313.78
661.518	288.03
661.93	376.97
662.342	231.86
662.754	351.23
663.165	283.35
663.577	281.01
663.989	325.48
664.401	304.42
664.812	334.84
665.224	231.86
665.635	276.33
666.047	318.46
666.458	255.26
666.869	318.46
667.281	304.42
667.692	339.52
668.103	337.18
668.514	316.12
668.925	351.23
669.336	273.99
669.747	330.16
670.158	290.37
670.569	295.05
670.979	264.63
671.39	311.44
671.801	348.89
672.211	299.73
672.622	278.67
673.032	302.08
673.443	278.67
673.853	334.84
674.263	290.37
674.674	290.37
675.084	362.93
675.494	276.33
675.904	295.05
676.314	285.69
676.724	281.01
677.134	299.73
677.544	311.44
677.953	316.12
678.363	255.26
678.773	341.86
679.182	351.23
679.592	259.95
680.001	271.65
680.411	283.35
680.82	344.21
681.23	320.8
681.639	323.14
682.048	271.65
682.457	325.48
682.866	299.73
683.275	320.8
683.684	325.48
684.093	299.73
684.502	257.61
684.911	360.59
685.32	311.44
685.728	341.86
686.137	313.78
686.546	278.67
686.954	316.12
687.363	283.35
687.771	334.84
688.179	302.08
688.588	323.14
688.996	295.05
689.404	297.39
689.812	299.73
690.22	320.8
690.628	362.93
691.036	316.12
691.444	323.14
691.852	295.05
692.26	330.16
692.667	224.84
693.075	299.73
693.483	306.76
693.89	283.35
694.298	320.8
694.705	355.91
695.112	318.46
695.52	313.78
695.927	255.26
696.334	325.48
696.741	299.73
697.148	257.61
697.555	344.21
697.962	302.08
698.369	248.24
698.776	238.88
699.183	353.57
699.59	309.1
699.996	362.93
700.403	400.38
700.81	292.71
701.216	341.86
701.623	248.24
702.029	323.14
702.435	369.95
702.842	236.54
703.248	311.44
703.654	334.84
704.06	199.09
704.466	297.39
704.872	348.89
705.278	316.12
705.684	313.78
706.09	288.03
706.496	374.63
706.901	330.16
707.307	290.37
707.712	302.08
708.118	285.69
708.523	229.52
708.929	283.35
709.334	299.73
709.74	311.44
710.145	330.16
710.55	330.16
710.955	297.39
711.36	196.75
711.765	288.03
712.17	278.67
712.575	358.25
712.98	767.84
713.385	323.14
713.789	332.5
714.194	257.61
714.599	273.99
715.003	295.05
715.408	334.84
715.812	278.67
716.217	353.57
716.621	302.08
717.025	278.67
717.429	332.5
717.833	318.46
718.238	285.69
718.642	316.12
719.046	327.82
719.449	311.44
719.853	276.33
720.257	330.16
720.661	248.24
721.065	299.73
721.468	358.25
721.872	288.03
722.275	292.71
722.679	297.39
723.082	304.42
723.485	269.31
723.889	271.65
724.292	348.89
724.695	304.42
725.098	245.9
725.501	238.88
725.904	299.73
726.307	292.71
726.71	311.44
727.113	302.08
727.516	292.71
727.918	327.82
728.321	306.76
728.724	320.8
729.126	311.44
729.529	306.76
729.931	304.42
730.333	290.37
730.736	320.8
731.138	339.52
731.54	285.69
731.942	330.16
732.344	313.78
732.746	250.58
733.148	316.12
733.55	302.08
733.952	283.35
734.354	259.95
734.756	276.33
735.157	290.37
735.559	344.21
735.96	292.71
736.362	318.46
736.763	320.8
737.165	248.24
737.566	290.37
737.967	283.35
738.368	393.36
738.77	306.76
739.171	255.26
739.572	323.14
739.973	288.03
740.374	313.78
740.774	346.55
741.175	278.67
741.576	320.8
741.977	285.69
742.377	278.67
742.778	229.52
743.178	224.84
743.579	306.76
743.979	255.26
744.379	271.65
744.78	241.22
745.18	309.1
745.58	313.78
745.98	334.84
746.38	309.1
746.78	290.37
747.18	360.59
747.58	288.03
747.98	327.82
748.38	332.5
748.779	290.37
749.179	325.48
749.578	313.78
749.978	327.82
750.377	278.67
750.777	285.69
751.176	252.92
751.575	231.86
751.975	304.42
752.374	281.01
752.773	278.67
753.172	299.73
753.571	309.1
753.97	283.35
754.369	276.33
754.768	281.01
755.166	346.55
755.565	369.95
755.964	320.8
756.362	362.93
756.761	337.18
757.159	327.82
757.558	362.93
757.956	297.39
758.354	337.18
758.753	309.1
759.151	262.29
759.549	337.18
759.947	281.01
760.345	402.72
760.743	318.46
761.141	355.91
761.539	281.01
761.936	248.24
762.334	281.01
762.732	323.14
763.129	341.86
763.527	309.1
763.924	283.35
764.322	281.01
764.719	330.16
