Data from Al_FLMS009871__838__15-30-07-696.txt Node

Date: Fri Mar 08 15:30:07 CST 2024
User: pe5414po
Spectrometer: FLMS00987
Trigger mode: 0
Integration Time (sec): 1.000000E-1
Scans to average: 1
Electric dark correction enabled: true
Nonlinearity correction enabled: false
Boxcar width: 0
XAxis mode: Wavelengths
Number of Pixels in Spectrum: 2048
>>>>>Begin Spectral Data<<<<<
188.938	-91.13
189.409	-91.13
189.879	-91.13
190.349	-81.77
190.819	-98.16
191.29	-180.07
191.76	-86.45
192.23	-79.43
192.7	-30.28
193.17	-93.48
193.64	23.55
194.109	-98.16
194.579	-27.94
195.049	75.04
195.519	21.21
195.988	42.28
196.458	9.51
196.927	44.62
197.397	142.92
197.866	133.56
198.336	103.13
198.805	180.37
199.274	178.03
199.744	152.28
200.213	227.18
200.682	236.54
201.151	222.5
201.62	264.63
202.089	288.03
202.558	217.82
203.027	255.26
203.495	398.04
203.964	283.35
204.433	355.91
204.902	283.35
205.37	269.31
205.839	238.88
206.307	391.02
206.776	273.99
207.244	297.39
207.712	313.78
208.181	290.37
208.649	313.78
209.117	311.44
209.585	281.01
210.053	327.82
210.521	283.35
210.989	327.82
211.457	334.84
211.925	320.8
212.393	278.67
212.861	306.76
213.328	320.8
213.796	290.37
214.264	236.54
214.731	252.92
215.199	276.33
215.666	278.67
216.133	269.31
216.601	278.67
217.068	213.14
217.535	224.84
218.003	281.01
218.47	281.01
218.937	281.01
219.404	304.42
219.871	217.82
220.338	306.76
220.805	273.99
221.271	292.71
221.738	295.05
222.205	302.08
222.671	248.24
223.138	227.18
223.605	330.16
224.071	304.42
224.538	250.58
225.004	318.46
225.47	306.76
225.937	250.58
226.403	276.33
226.869	262.29
227.335	264.63
227.801	304.42
228.267	266.97
228.733	238.88
229.199	255.26
229.665	269.31
230.131	281.01
230.597	295.05
231.062	295.05
231.528	292.71
231.994	309.1
232.459	255.26
232.925	304.42
233.39	295.05
233.856	292.71
234.321	302.08
234.786	306.76
235.252	299.73
235.717	262.29
236.182	208.45
236.647	259.95
237.112	313.78
237.577	325.48
238.042	292.71
238.507	278.67
238.972	295.05
239.436	323.14
239.901	299.73
240.366	297.39
240.83	295.05
241.295	327.82
241.76	271.65
242.224	297.39
242.688	266.97
243.153	285.69
243.617	325.48
244.081	283.35
244.545	295.05
245.01	281.01
245.474	309.1
245.938	299.73
246.402	334.84
246.866	295.05
247.33	353.57
247.793	334.84
248.257	250.58
248.721	281.01
249.185	290.37
249.648	266.97
250.112	323.14
250.575	290.37
251.039	273.99
251.502	273.99
251.965	323.14
252.429	271.65
252.892	306.76
253.355	334.84
253.818	302.08
254.281	285.69
254.744	208.45
255.207	295.05
255.67	252.92
256.133	288.03
256.596	276.33
257.059	278.67
257.522	323.14
257.984	264.63
258.447	299.73
258.909	304.42
259.372	276.33
259.834	309.1
260.297	353.57
260.759	236.54
261.221	257.61
261.684	304.42
262.146	278.67
262.608	365.27
263.07	316.12
263.532	234.2
263.994	309.1
264.456	309.1
264.918	316.12
265.38	304.42
265.842	259.95
266.303	325.48
266.765	311.44
267.227	351.23
267.688	309.1
268.15	313.78
268.611	285.69
269.072	320.8
269.534	295.05
269.995	302.08
270.456	346.55
270.918	266.97
271.379	316.12
271.84	271.65
272.301	278.67
272.762	297.39
273.223	309.1
273.684	369.95
274.144	264.63
274.605	304.42
275.066	276.33
275.527	334.84
275.987	304.42
276.448	264.63
276.908	351.23
277.369	327.82
277.829	313.78
278.289	257.61
278.75	367.61
279.21	309.1
279.67	292.71
280.13	341.86
280.59	281.01
281.05	348.89
281.51	362.93
281.97	358.25
282.43	299.73
282.89	292.71
283.35	320.8
283.809	309.1
284.269	334.84
284.729	325.48
285.188	273.99
285.648	353.57
286.107	367.61
286.567	285.69
287.026	290.37
287.485	344.21
287.944	304.42
288.404	302.08
288.863	299.73
289.322	297.39
289.781	323.14
290.24	369.95
290.699	339.52
291.158	302.08
291.616	309.1
292.075	309.1
292.534	365.27
292.992	288.03
293.451	311.44
293.91	320.8
294.368	344.21
294.827	325.48
295.285	271.65
295.743	292.71
296.202	316.12
296.66	276.33
297.118	351.23
297.576	316.12
298.034	339.52
298.492	271.65
298.95	304.42
299.408	243.56
299.866	304.42
300.324	288.03
300.781	325.48
301.239	285.69
301.697	288.03
302.154	318.46
302.612	290.37
303.069	257.61
303.527	327.82
303.984	243.56
304.441	339.52
304.899	372.29
305.356	299.73
305.813	325.48
306.27	311.44
306.727	316.12
307.184	295.05
307.641	292.71
308.098	304.42
308.555	353.57
309.012	299.73
309.468	309.1
309.925	344.21
310.382	327.82
310.838	313.78
311.295	311.44
311.751	302.08
312.208	304.42
312.664	325.48
313.12	309.1
313.577	320.8
314.033	339.52
314.489	351.23
314.945	332.5
315.401	320.8
315.857	278.67
316.313	344.21
316.769	295.05
317.225	402.72
317.681	330.16
318.136	327.82
318.592	355.91
319.048	327.82
319.503	316.12
319.959	311.44
320.414	264.63
320.869	297.39
321.325	391.02
321.78	309.1
322.235	330.16
322.691	316.12
323.146	421.44
323.601	323.14
324.056	288.03
324.511	288.03
324.966	332.5
325.421	311.44
325.875	327.82
326.33	299.73
326.785	351.23
327.24	304.42
327.694	288.03
328.149	297.39
328.603	283.35
329.058	365.27
329.512	351.23
329.966	327.82
330.421	309.1
330.875	292.71
331.329	334.84
331.783	299.73
332.237	381.65
332.691	358.25
333.145	292.71
333.599	313.78
334.053	320.8
334.507	323.14
334.96	311.44
335.414	344.21
335.868	323.14
336.321	325.48
336.775	313.78
337.228	362.93
337.682	323.14
338.135	327.82
338.588	276.33
339.042	266.97
339.495	318.46
339.948	374.63
340.401	255.26
340.854	351.23
341.307	351.23
341.76	320.8
342.213	353.57
342.666	325.48
343.119	346.55
343.571	299.73
344.024	339.52
344.477	379.31
344.929	341.86
345.382	344.21
345.834	292.71
346.287	325.48
346.739	337.18
347.191	337.18
347.644	374.63
348.096	334.84
348.548	346.55
349	273.99
349.452	273.99
349.904	334.84
350.356	266.97
350.808	316.12
351.26	334.84
351.711	339.52
352.163	374.63
352.615	337.18
353.066	346.55
353.518	332.5
353.969	316.12
354.421	288.03
354.872	306.76
355.324	334.84
355.775	276.33
356.226	346.55
356.677	238.88
357.128	355.91
357.579	360.59
358.03	351.23
358.481	348.89
358.932	290.37
359.383	353.57
359.834	332.5
360.285	323.14
360.735	325.48
361.186	386.33
361.637	332.5
362.087	276.33
362.538	323.14
362.988	318.46
363.438	362.93
363.889	313.78
364.339	313.78
364.789	299.73
365.239	311.44
365.689	346.55
366.139	369.95
366.589	337.18
367.039	316.12
367.489	372.29
367.939	311.44
368.389	402.72
368.839	325.48
369.288	299.73
369.738	332.5
370.187	259.95
370.637	358.25
371.086	276.33
371.536	348.89
371.985	365.27
372.434	323.14
372.884	288.03
373.333	337.18
373.782	311.44
374.231	334.84
374.68	295.05
375.129	351.23
375.578	278.67
376.027	334.84
376.475	346.55
376.924	276.33
377.373	281.01
377.822	318.46
378.27	351.23
378.719	348.89
379.167	309.1
379.616	344.21
380.064	292.71
380.512	290.37
380.961	320.8
381.409	288.03
381.857	281.01
382.305	358.25
382.753	325.48
383.201	339.52
383.649	379.31
384.097	367.61
384.545	306.76
384.992	341.86
385.44	386.33
385.888	337.18
386.335	391.02
386.783	337.18
387.231	313.78
387.678	320.8
388.125	339.52
388.573	365.27
389.02	339.52
389.467	299.73
389.914	302.08
390.362	414.42
390.809	306.76
391.256	325.48
391.703	367.61
392.15	302.08
392.596	414.42
393.043	327.82
393.49	304.42
393.937	353.57
394.383	297.39
394.83	292.71
395.276	320.8
395.723	313.78
396.169	337.18
396.616	383.99
397.062	334.84
397.508	297.39
397.954	346.55
398.401	288.03
398.847	208.45
399.293	281.01
399.739	402.72
400.185	283.35
400.631	276.33
401.076	334.84
401.522	358.25
401.968	325.48
402.414	325.48
402.859	281.01
403.305	332.5
403.75	259.95
404.196	398.04
404.641	276.33
405.086	288.03
405.532	412.08
405.977	365.27
406.422	337.18
406.867	346.55
407.312	407.4
407.757	311.44
408.202	386.33
408.647	297.39
409.092	320.8
409.537	323.14
409.982	264.63
410.426	288.03
410.871	295.05
411.316	348.89
411.76	374.63
412.205	311.44
412.649	337.18
413.093	309.1
413.538	330.16
413.982	325.48
414.426	320.8
414.87	339.52
415.314	362.93
415.758	297.39
416.202	313.78
416.646	311.44
417.09	325.48
417.534	299.73
417.978	290.37
418.421	290.37
418.865	330.16
419.309	360.59
419.752	288.03
420.196	325.48
420.639	311.44
421.083	311.44
421.526	323.14
421.969	332.5
422.412	374.63
422.856	348.89
423.299	311.44
423.742	379.31
424.185	327.82
424.628	330.16
425.071	339.52
425.513	344.21
425.956	341.86
426.399	353.57
426.842	339.52
427.284	297.39
427.727	299.73
428.169	313.78
428.612	327.82
429.054	362.93
429.497	332.5
429.939	381.65
430.381	369.95
430.823	362.93
431.265	412.08
431.707	332.5
432.149	421.44
432.591	341.86
433.033	379.31
433.475	334.84
433.917	346.55
434.359	386.33
434.8	369.95
435.242	332.5
435.684	313.78
436.125	269.31
436.567	344.21
437.008	318.46
437.449	369.95
437.891	313.78
438.332	341.86
438.773	351.23
439.214	339.52
439.656	295.05
440.097	355.91
440.538	383.99
440.978	332.5
441.419	358.25
441.86	351.23
442.301	316.12
442.742	292.71
443.182	304.42
443.623	288.03
444.063	369.95
444.504	327.82
444.944	316.12
445.385	379.31
445.825	346.55
446.265	374.63
446.706	362.93
447.146	337.18
447.586	355.91
448.026	334.84
448.466	358.25
448.906	388.68
449.346	405.06
449.786	288.03
450.225	337.18
450.665	348.89
451.105	318.46
451.544	344.21
451.984	309.1
452.424	339.52
452.863	348.89
453.302	236.54
453.742	379.31
454.181	428.46
454.62	358.25
455.059	348.89
455.499	302.08
455.938	323.14
456.377	262.29
456.816	320.8
457.254	348.89
457.693	348.89
458.132	365.27
458.571	353.57
459.01	334.84
459.448	250.58
459.887	334.84
460.325	302.08
460.764	323.14
461.202	351.23
461.641	299.73
462.079	290.37
462.517	391.02
462.955	355.91
463.393	295.05
463.832	250.58
464.27	320.8
464.708	360.59
465.145	259.95
465.583	407.4
466.021	290.37
466.459	367.61
466.897	398.04
467.334	318.46
467.772	355.91
468.209	334.84
468.647	381.65
469.084	379.31
469.522	311.44
469.959	222.5
470.396	383.99
470.833	337.18
471.271	346.55
471.708	325.48
472.145	346.55
472.582	292.71
473.019	362.93
473.456	330.16
473.892	337.18
474.329	330.16
474.766	292.71
475.202	332.5
475.639	372.29
476.076	353.57
476.512	311.44
476.949	330.16
477.385	383.99
477.821	262.29
478.258	379.31
478.694	372.29
479.13	353.57
479.566	302.08
480.002	297.39
480.438	374.63
480.874	360.59
481.31	295.05
481.746	292.71
482.181	299.73
482.617	302.08
483.053	309.1
483.488	383.99
483.924	334.84
484.36	330.16
484.795	306.76
485.23	381.65
485.666	306.76
486.101	313.78
486.536	353.57
486.971	388.68
487.407	318.46
487.842	341.86
488.277	332.5
488.712	332.5
489.146	341.86
489.581	330.16
490.016	360.59
490.451	341.86
490.885	355.91
491.32	327.82
491.755	269.31
492.189	332.5
492.624	327.82
493.058	339.52
493.492	316.12
493.927	299.73
494.361	351.23
494.795	330.16
495.229	362.93
495.663	355.91
496.097	311.44
496.531	365.27
496.965	334.84
497.399	355.91
497.833	302.08
498.266	334.84
498.7	395.7
499.134	295.05
499.567	311.44
500.001	376.97
500.434	365.27
500.868	325.48
501.301	318.46
501.734	306.76
502.168	339.52
502.601	362.93
503.034	355.91
503.467	302.08
503.9	323.14
504.333	325.48
504.766	398.04
505.199	297.39
505.632	376.97
506.064	332.5
506.497	341.86
506.93	252.92
507.362	318.46
507.795	283.35
508.227	355.91
508.66	360.59
509.092	362.93
509.524	376.97
509.956	344.21
510.389	325.48
510.821	355.91
511.253	323.14
511.685	297.39
512.117	332.5
512.549	285.69
512.981	348.89
513.412	327.82
513.844	304.42
514.276	323.14
514.707	346.55
515.139	362.93
515.571	292.71
516.002	327.82
516.433	346.55
516.865	372.29
517.296	323.14
517.727	283.35
518.159	297.39
518.59	306.76
519.021	290.37
519.452	252.92
519.883	292.71
520.314	299.73
520.744	290.37
521.175	348.89
521.606	297.39
522.037	367.61
522.467	297.39
522.898	391.02
523.328	302.08
523.759	351.23
524.189	273.99
524.62	355.91
525.05	379.31
525.48	367.61
525.91	323.14
526.341	344.21
526.771	353.57
527.201	309.1
527.631	348.89
528.061	355.91
528.49	299.73
528.92	379.31
529.35	325.48
529.78	283.35
530.209	320.8
530.639	358.25
531.068	304.42
531.498	271.65
531.927	259.95
532.357	283.35
532.786	376.97
533.215	327.82
533.644	306.76
534.074	318.46
534.503	320.8
534.932	273.99
535.361	362.93
535.79	327.82
536.218	306.76
536.647	344.21
537.076	306.76
537.505	304.42
537.933	339.52
538.362	351.23
538.79	369.95
539.219	309.1
539.647	351.23
540.076	297.39
540.504	388.68
540.932	355.91
541.36	325.48
541.788	332.5
542.217	327.82
542.645	285.69
543.073	353.57
543.5	327.82
543.928	412.08
544.356	344.21
544.784	379.31
545.211	318.46
545.639	306.76
546.067	292.71
546.494	332.5
546.922	327.82
547.349	344.21
547.776	355.91
548.204	367.61
548.631	299.73
549.058	367.61
549.485	374.63
549.912	381.65
550.339	325.48
550.766	264.63
551.193	358.25
551.62	311.44
552.047	327.82
552.474	327.82
552.9	273.99
553.327	353.57
553.754	302.08
554.18	344.21
554.607	395.7
555.033	330.16
555.459	341.86
555.886	278.67
556.312	323.14
556.738	269.31
557.164	334.84
557.59	290.37
558.016	323.14
558.442	290.37
558.868	346.55
559.294	332.5
559.72	344.21
560.145	309.1
560.571	334.84
560.997	325.48
561.422	337.18
561.848	355.91
562.273	311.44
562.699	285.69
563.124	365.27
563.549	306.76
563.974	334.84
564.4	339.52
564.825	290.37
565.25	297.39
565.675	285.69
566.1	355.91
566.525	330.16
566.95	306.76
567.374	327.82
567.799	388.68
568.224	358.25
568.648	320.8
569.073	313.78
569.497	339.52
569.922	337.18
570.346	311.44
570.771	367.61
571.195	341.86
571.619	362.93
572.043	278.67
572.467	330.16
572.891	316.12
573.315	318.46
573.739	318.46
574.163	295.05
574.587	339.52
575.011	313.78
575.435	311.44
575.858	325.48
576.282	290.37
576.705	339.52
577.129	323.14
577.552	400.38
577.976	262.29
578.399	273.99
578.822	358.25
579.245	383.99
579.669	323.14
580.092	339.52
580.515	297.39
580.938	316.12
581.361	325.48
581.784	304.42
582.206	348.89
582.629	323.14
583.052	337.18
583.474	355.91
583.897	365.27
584.32	325.48
584.742	266.97
585.165	362.93
585.587	344.21
586.009	330.16
586.431	318.46
586.854	313.78
587.276	327.82
587.698	360.59
588.12	372.29
588.542	367.61
588.964	323.14
589.386	320.8
589.807	351.23
590.229	346.55
590.651	372.29
591.073	374.63
591.494	381.65
591.916	383.99
592.337	297.39
592.759	346.55
593.18	259.95
593.601	276.33
594.022	372.29
594.444	285.69
594.865	302.08
595.286	332.5
595.707	276.33
596.128	318.46
596.549	299.73
596.97	306.76
597.39	346.55
597.811	383.99
598.232	273.99
598.652	306.76
599.073	304.42
599.494	362.93
599.914	269.31
600.334	316.12
600.755	313.78
601.175	341.86
601.595	369.95
602.015	332.5
602.436	304.42
602.856	458.89
603.276	304.42
603.696	309.1
604.115	341.86
604.535	337.18
604.955	358.25
605.375	318.46
605.794	306.76
606.214	365.27
606.634	292.71
607.053	358.25
607.473	353.57
607.892	351.23
608.311	316.12
608.731	316.12
609.15	273.99
609.569	327.82
609.988	318.46
610.407	309.1
610.826	327.82
611.245	330.16
611.664	348.89
612.083	362.93
612.501	292.71
612.92	241.22
613.339	391.02
613.757	316.12
614.176	421.44
614.594	288.03
615.013	360.59
615.431	346.55
615.85	383.99
616.268	362.93
616.686	369.95
617.104	323.14
617.522	316.12
617.94	367.61
618.358	313.78
618.776	313.78
619.194	276.33
619.612	327.82
620.03	386.33
620.447	309.1
620.865	383.99
621.282	341.86
621.7	358.25
622.117	362.93
622.535	283.35
622.952	297.39
623.369	323.14
623.787	320.8
624.204	355.91
624.621	339.52
625.038	426.12
625.455	374.63
625.872	391.02
626.289	297.39
626.706	348.89
627.123	285.69
627.539	386.33
627.956	346.55
628.373	304.42
628.789	372.29
629.206	341.86
629.622	353.57
630.038	292.71
630.455	332.5
630.871	365.27
631.287	304.42
631.703	323.14
632.12	316.12
632.536	299.73
632.952	339.52
633.368	379.31
633.783	295.05
634.199	304.42
634.615	358.25
635.031	278.67
635.446	393.36
635.862	393.36
636.277	355.91
636.693	306.76
637.108	346.55
637.524	376.97
637.939	259.95
638.354	344.21
638.77	318.46
639.185	381.65
639.6	358.25
640.015	304.42
640.43	323.14
640.845	367.61
641.259	351.23
641.674	353.57
642.089	360.59
642.504	318.46
642.918	306.76
643.333	313.78
643.747	313.78
644.162	309.1
644.576	344.21
644.991	337.18
645.405	341.86
645.819	313.78
646.233	302.08
646.647	337.18
647.061	283.35
647.475	313.78
647.889	337.18
648.303	367.61
648.717	344.21
649.131	297.39
649.545	299.73
649.958	339.52
650.372	320.8
650.785	327.82
651.199	341.86
651.612	353.57
652.026	339.52
652.439	292.71
652.852	344.21
653.266	238.88
653.679	327.82
654.092	306.76
654.505	297.39
654.918	252.92
655.331	299.73
655.744	344.21
656.156	323.14
656.569	379.31
656.982	311.44
657.394	330.16
657.807	290.37
658.22	332.5
658.632	281.01
659.044	306.76
659.457	334.84
659.869	330.16
660.281	285.69
660.693	288.03
661.106	271.65
661.518	341.86
661.93	283.35
662.342	388.68
662.754	318.46
663.165	320.8
663.577	337.18
663.989	330.16
664.401	323.14
664.812	302.08
665.224	306.76
665.635	325.48
666.047	297.39
666.458	285.69
666.869	288.03
667.281	360.59
667.692	365.27
668.103	332.5
668.514	355.91
668.925	299.73
669.336	355.91
669.747	330.16
670.158	365.27
670.569	330.16
670.979	325.48
671.39	344.21
671.801	306.76
672.211	386.33
672.622	325.48
673.032	337.18
673.443	341.86
673.853	252.92
674.263	334.84
674.674	299.73
675.084	334.84
675.494	318.46
675.904	358.25
676.314	355.91
676.724	297.39
677.134	337.18
677.544	269.31
677.953	395.7
678.363	288.03
678.773	337.18
679.182	339.52
679.592	318.46
680.001	325.48
680.411	351.23
680.82	316.12
681.23	362.93
681.639	320.8
682.048	341.86
682.457	360.59
682.866	332.5
683.275	313.78
683.684	269.31
684.093	398.04
684.502	304.42
684.911	393.36
685.32	351.23
685.728	369.95
686.137	243.56
686.546	332.5
686.954	288.03
687.363	351.23
687.771	304.42
688.179	273.99
688.588	360.59
688.996	313.78
689.404	304.42
689.812	285.69
690.22	358.25
690.628	332.5
691.036	318.46
691.444	318.46
691.852	266.97
692.26	339.52
692.667	374.63
693.075	358.25
693.483	330.16
693.89	248.24
694.298	339.52
694.705	292.71
695.112	386.33
695.52	339.52
695.927	290.37
696.334	344.21
696.741	320.8
697.148	344.21
697.555	283.35
697.962	348.89
698.369	398.04
698.776	367.61
699.183	341.86
699.59	376.97
699.996	316.12
700.403	365.27
700.81	330.16
701.216	271.65
701.623	311.44
702.029	323.14
702.435	311.44
702.842	306.76
703.248	199.09
703.654	339.52
704.06	351.23
704.466	273.99
704.872	290.37
705.278	288.03
705.684	339.52
706.09	351.23
706.496	297.39
706.901	339.52
707.307	337.18
707.712	358.25
708.118	313.78
708.523	332.5
708.929	259.95
709.334	344.21
709.74	367.61
710.145	313.78
710.55	327.82
710.955	313.78
711.36	299.73
711.765	325.48
712.17	323.14
712.575	348.89
712.98	777.2
713.385	330.16
713.789	365.27
714.194	327.82
714.599	283.35
715.003	353.57
715.408	302.08
715.812	302.08
716.217	325.48
716.621	344.21
717.025	351.23
717.429	306.76
717.833	372.29
718.238	365.27
718.642	266.97
719.046	290.37
719.449	341.86
719.853	398.04
720.257	325.48
720.661	313.78
721.065	339.52
721.468	327.82
721.872	295.05
722.275	323.14
722.679	318.46
723.082	358.25
723.485	386.33
723.889	407.4
724.292	271.65
724.695	292.71
725.098	320.8
725.501	325.48
725.904	323.14
726.307	330.16
726.71	320.8
727.113	372.29
727.516	318.46
727.918	351.23
728.321	316.12
728.724	376.97
729.126	276.33
729.529	283.35
729.931	285.69
730.333	341.86
730.736	330.16
731.138	323.14
731.54	311.44
731.942	266.97
732.344	360.59
732.746	353.57
733.148	346.55
733.55	358.25
733.952	341.86
734.354	351.23
734.756	295.05
735.157	311.44
735.559	316.12
735.96	299.73
736.362	318.46
736.763	332.5
737.165	348.89
737.566	318.46
737.967	330.16
738.368	316.12
738.77	295.05
739.171	302.08
739.572	348.89
739.973	348.89
740.374	276.33
740.774	360.59
741.175	395.7
741.576	306.76
741.977	325.48
742.377	313.78
742.778	393.36
743.178	306.76
743.579	210.79
743.979	229.52
744.379	299.73
744.78	353.57
745.18	355.91
745.58	337.18
745.98	299.73
746.38	367.61
746.78	360.59
747.18	362.93
747.58	344.21
747.98	320.8
748.38	419.1
748.779	332.5
749.179	323.14
749.578	351.23
749.978	367.61
750.377	243.56
750.777	252.92
751.176	341.86
751.575	285.69
751.975	330.16
752.374	292.71
752.773	362.93
753.172	313.78
753.571	327.82
753.97	297.39
754.369	292.71
754.768	341.86
755.166	299.73
755.565	297.39
755.964	313.78
756.362	325.48
756.761	332.5
757.159	376.97
757.558	327.82
757.956	323.14
758.354	440.17
758.753	323.14
759.151	325.48
759.549	297.39
759.947	313.78
760.345	381.65
760.743	309.1
761.141	295.05
761.539	309.1
761.936	379.31
762.334	299.73
762.732	330.16
763.129	313.78
763.527	362.93
763.924	360.59
764.322	288.03
