Data from Al_FLMS009871__824__15-30-06-296.txt Node

Date: Fri Mar 08 15:30:06 CST 2024
User: pe5414po
Spectrometer: FLMS00987
Trigger mode: 0
Integration Time (sec): 1.000000E-1
Scans to average: 1
Electric dark correction enabled: true
Nonlinearity correction enabled: false
Boxcar width: 0
XAxis mode: Wavelengths
Number of Pixels in Spectrum: 2048
>>>>>Begin Spectral Data<<<<<
188.938	-71.68
189.409	-71.68
189.879	-71.68
190.349	-167.64
190.819	-90.4
191.29	-186.37
191.76	-113.81
192.23	-118.49
192.7	-36.57
193.17	-102.11
193.64	-55.3
194.109	17.26
194.579	19.6
195.049	43.01
195.519	-17.85
195.988	-3.8
196.458	7.9
196.927	85.14
197.397	148.33
197.866	131.95
198.336	181.1
198.805	148.33
199.274	188.12
199.744	199.82
200.213	174.08
200.682	211.53
201.151	181.1
201.62	300.47
202.089	197.48
202.558	213.87
203.027	316.85
203.495	319.19
203.964	295.79
204.433	291.1
204.902	335.57
205.37	302.81
205.839	244.29
206.307	256
206.776	323.87
207.244	335.57
207.712	277.06
208.181	291.1
208.649	342.6
209.117	344.94
209.585	363.66
210.053	251.32
210.521	258.34
210.989	237.27
211.457	288.76
211.925	284.08
212.393	302.81
212.861	246.63
213.328	281.74
213.796	335.57
214.264	333.23
214.731	225.57
215.199	300.47
215.666	244.29
216.133	316.85
216.601	293.44
217.068	300.47
217.535	291.1
218.003	281.74
218.47	274.72
218.937	323.87
219.404	277.06
219.871	281.74
220.338	286.42
220.805	277.06
221.271	293.44
221.738	241.95
222.205	300.47
222.671	204.5
223.138	256
223.605	305.15
224.071	274.72
224.538	263.02
225.004	298.13
225.47	225.57
225.937	330.89
226.403	225.57
226.869	305.15
227.335	241.95
227.801	291.1
228.267	239.61
228.733	295.79
229.199	312.17
229.665	321.53
230.131	220.89
230.597	251.32
231.062	288.76
231.528	267.7
231.994	248.97
232.459	256
232.925	302.81
233.39	284.08
233.856	330.89
234.321	330.89
234.786	277.06
235.252	323.87
235.717	248.97
236.182	239.61
236.647	272.38
237.112	284.08
237.577	293.44
238.042	298.13
238.507	298.13
238.972	323.87
239.436	323.87
239.901	291.1
240.366	241.95
240.83	312.17
241.295	274.72
241.76	288.76
242.224	239.61
242.688	302.81
243.153	291.1
243.617	253.66
244.081	251.32
244.545	335.57
245.01	309.83
245.474	309.83
245.938	281.74
246.402	288.76
246.866	312.17
247.33	328.55
247.793	300.47
248.257	291.1
248.721	321.53
249.185	291.1
249.648	286.42
250.112	309.83
250.575	351.96
251.039	309.83
251.502	314.51
251.965	270.04
252.429	356.64
252.892	241.95
253.355	328.55
253.818	274.72
254.281	246.63
254.744	244.29
255.207	213.87
255.67	253.66
256.133	263.02
256.596	328.55
257.059	333.23
257.522	288.76
257.984	272.38
258.447	323.87
258.909	267.7
259.372	316.85
259.834	312.17
260.297	267.7
260.759	274.72
261.221	274.72
261.684	302.81
262.146	342.6
262.608	316.85
263.07	314.51
263.532	347.28
263.994	295.79
264.456	368.34
264.918	298.13
265.38	330.89
265.842	295.79
266.303	335.57
266.765	347.28
267.227	330.89
267.688	319.19
268.15	270.04
268.611	270.04
269.072	248.97
269.534	300.47
269.995	347.28
270.456	363.66
270.918	358.98
271.379	232.59
271.84	300.47
272.301	328.55
272.762	256
273.223	319.19
273.684	256
274.144	277.06
274.605	328.55
275.066	272.38
275.527	337.91
275.987	309.83
276.448	335.57
276.908	286.42
277.369	309.83
277.829	281.74
278.289	300.47
278.75	302.81
279.21	302.81
279.67	300.47
280.13	244.29
280.59	258.34
281.05	351.96
281.51	375.36
281.97	291.1
282.43	323.87
282.89	256
283.35	298.13
283.809	361.32
284.269	366
284.729	363.66
285.188	305.15
285.648	312.17
286.107	307.49
286.567	309.83
287.026	246.63
287.485	270.04
287.944	272.38
288.404	349.62
288.863	305.15
289.322	333.23
289.781	335.57
290.24	248.97
290.699	309.83
291.158	368.34
291.616	279.4
292.075	293.44
292.534	344.94
292.992	323.87
293.451	319.19
293.91	316.85
294.368	295.79
294.827	232.59
295.285	288.76
295.743	323.87
296.202	307.49
296.66	237.27
297.118	270.04
297.576	335.57
298.034	373.02
298.492	307.49
298.95	267.7
299.408	349.62
299.866	265.36
300.324	307.49
300.781	256
301.239	321.53
301.697	305.15
302.154	258.34
302.612	358.98
303.069	323.87
303.527	277.06
303.984	335.57
304.441	298.13
304.899	309.83
305.356	298.13
305.813	326.21
306.27	363.66
306.727	312.17
307.184	314.51
307.641	288.76
308.098	246.63
308.555	223.23
309.012	286.42
309.468	330.89
309.925	312.17
310.382	277.06
310.838	288.76
311.295	373.02
311.751	277.06
312.208	234.93
312.664	279.4
313.12	279.4
313.577	326.21
314.033	312.17
314.489	258.34
314.945	312.17
315.401	363.66
315.857	335.57
316.313	328.55
316.769	312.17
317.225	295.79
317.681	382.39
318.136	260.68
318.592	295.79
319.048	314.51
319.503	335.57
319.959	340.26
320.414	373.02
320.869	293.44
321.325	330.89
321.78	307.49
322.235	337.91
322.691	363.66
323.146	323.87
323.601	356.64
324.056	246.63
324.511	286.42
324.966	302.81
325.421	349.62
325.875	323.87
326.33	323.87
326.785	302.81
327.24	323.87
327.694	300.47
328.149	274.72
328.603	251.32
329.058	323.87
329.512	344.94
329.966	291.1
330.421	295.79
330.875	293.44
331.329	279.4
331.783	316.85
332.237	323.87
332.691	293.44
333.145	323.87
333.599	316.85
334.053	358.98
334.507	335.57
334.96	295.79
335.414	344.94
335.868	298.13
336.321	291.1
336.775	335.57
337.228	344.94
337.682	330.89
338.135	260.68
338.588	286.42
339.042	349.62
339.495	330.89
339.948	309.83
340.401	344.94
340.854	349.62
341.307	253.66
341.76	295.79
342.213	300.47
342.666	265.36
343.119	314.51
343.571	277.06
344.024	316.85
344.477	380.04
344.929	333.23
345.382	293.44
345.834	279.4
346.287	387.07
346.739	316.85
347.191	344.94
347.644	314.51
348.096	326.21
348.548	314.51
349	354.3
349.452	340.26
349.904	293.44
350.356	321.53
350.808	354.3
351.26	344.94
351.711	295.79
352.163	295.79
352.615	305.15
353.066	354.3
353.518	293.44
353.969	293.44
354.421	298.13
354.872	354.3
355.324	293.44
355.775	295.79
356.226	281.74
356.677	312.17
357.128	326.21
357.579	319.19
358.03	335.57
358.481	389.41
358.932	333.23
359.383	368.34
359.834	309.83
360.285	321.53
360.735	340.26
361.186	321.53
361.637	337.91
362.087	305.15
362.538	314.51
362.988	305.15
363.438	309.83
363.889	263.02
364.339	344.94
364.789	321.53
365.239	307.49
365.689	342.6
366.139	300.47
366.589	335.57
367.039	295.79
367.489	223.23
367.939	302.81
368.389	333.23
368.839	312.17
369.288	377.7
369.738	349.62
370.187	356.64
370.637	363.66
371.086	295.79
371.536	342.6
371.985	347.28
372.434	366
372.884	312.17
373.333	265.36
373.782	330.89
374.231	323.87
374.68	277.06
375.129	356.64
375.578	389.41
376.027	351.96
376.475	298.13
376.924	298.13
377.373	347.28
377.822	246.63
378.27	307.49
378.719	321.53
379.167	429.2
379.616	319.19
380.064	286.42
380.512	321.53
380.961	309.83
381.409	312.17
381.857	347.28
382.305	349.62
382.753	356.64
383.201	361.32
383.649	286.42
384.097	347.28
384.545	337.91
384.992	342.6
385.44	316.85
385.888	288.76
386.335	309.83
386.783	277.06
387.231	256
387.678	340.26
388.125	260.68
388.573	342.6
389.02	387.07
389.467	347.28
389.914	309.83
390.362	358.98
390.809	326.21
391.256	356.64
391.703	333.23
392.15	314.51
392.596	314.51
393.043	321.53
393.49	319.19
393.937	326.21
394.383	302.81
394.83	391.75
395.276	328.55
395.723	356.64
396.169	330.89
396.616	370.68
397.062	330.89
397.508	323.87
397.954	342.6
398.401	403.45
398.847	335.57
399.293	375.36
399.739	396.43
400.185	326.21
400.631	347.28
401.076	279.4
401.522	366
401.968	342.6
402.414	330.89
402.859	309.83
403.305	330.89
403.75	323.87
404.196	344.94
404.641	347.28
405.086	366
405.532	333.23
405.977	321.53
406.422	256
406.867	333.23
407.312	300.47
407.757	344.94
408.202	351.96
408.647	351.96
409.092	293.44
409.537	277.06
409.982	363.66
410.426	270.04
410.871	312.17
411.316	281.74
411.76	349.62
412.205	284.08
412.649	298.13
413.093	337.91
413.538	366
413.982	319.19
414.426	248.97
414.87	293.44
415.314	351.96
415.758	305.15
416.202	286.42
416.646	241.95
417.09	370.68
417.534	312.17
417.978	270.04
418.421	265.36
418.865	302.81
419.309	373.02
419.752	314.51
420.196	330.89
420.639	328.55
421.083	328.55
421.526	321.53
421.969	298.13
422.412	375.36
422.856	295.79
423.299	342.6
423.742	319.19
424.185	256
424.628	295.79
425.071	358.98
425.513	391.75
425.956	366
426.399	323.87
426.842	373.02
427.284	337.91
427.727	363.66
428.169	253.66
428.612	457.28
429.054	326.21
429.497	366
429.939	354.3
430.381	356.64
430.823	358.98
431.265	307.49
431.707	337.91
432.149	354.3
432.591	309.83
433.033	295.79
433.475	288.76
433.917	328.55
434.359	335.57
434.8	323.87
435.242	284.08
435.684	293.44
436.125	337.91
436.567	335.57
437.008	326.21
437.449	323.87
437.891	309.83
438.332	384.73
438.773	373.02
439.214	260.68
439.656	335.57
440.097	337.91
440.538	314.51
440.978	279.4
441.419	232.59
441.86	340.26
442.301	347.28
442.742	396.43
443.182	326.21
443.623	298.13
444.063	342.6
444.504	295.79
444.944	305.15
445.385	293.44
445.825	302.81
446.265	293.44
446.706	368.34
447.146	358.98
447.586	337.91
448.026	337.91
448.466	333.23
448.906	328.55
449.346	356.64
449.786	328.55
450.225	314.51
450.665	335.57
451.105	356.64
451.544	319.19
451.984	375.36
452.424	302.81
452.863	368.34
453.302	319.19
453.742	366
454.181	380.04
454.62	267.7
455.059	281.74
455.499	337.91
455.938	281.74
456.377	316.85
456.816	307.49
457.254	323.87
457.693	351.96
458.132	319.19
458.571	270.04
459.01	335.57
459.448	358.98
459.887	330.89
460.325	328.55
460.764	288.76
461.202	312.17
461.641	384.73
462.079	361.32
462.517	314.51
462.955	298.13
463.393	295.79
463.832	291.1
464.27	302.81
464.708	307.49
465.145	302.81
465.583	321.53
466.021	328.55
466.459	291.1
466.897	377.7
467.334	314.51
467.772	337.91
468.209	389.41
468.647	323.87
469.084	230.25
469.522	302.81
469.959	272.38
470.396	312.17
470.833	344.94
471.271	279.4
471.708	286.42
472.145	337.91
472.582	356.64
473.019	344.94
473.456	321.53
473.892	256
474.329	389.41
474.766	370.68
475.202	326.21
475.639	337.91
476.076	267.7
476.512	307.49
476.949	330.89
477.385	298.13
477.821	253.66
478.258	335.57
478.694	312.17
479.13	366
479.566	387.07
480.002	356.64
480.438	284.08
480.874	309.83
481.31	272.38
481.746	319.19
482.181	384.73
482.617	389.41
483.053	267.7
483.488	398.77
483.924	342.6
484.36	337.91
484.795	396.43
485.23	321.53
485.666	354.3
486.101	326.21
486.536	361.32
486.971	361.32
487.407	300.47
487.842	349.62
488.277	321.53
488.712	316.85
489.146	265.36
489.581	305.15
490.016	248.97
490.451	342.6
490.885	288.76
491.32	361.32
491.755	363.66
492.189	358.98
492.624	256
493.058	293.44
493.492	335.57
493.927	349.62
494.361	347.28
494.795	300.47
495.229	300.47
495.663	274.72
496.097	337.91
496.531	351.96
496.965	300.47
497.399	328.55
497.833	328.55
498.266	347.28
498.7	288.76
499.134	281.74
499.567	323.87
500.001	328.55
500.434	295.79
500.868	410.47
501.301	380.04
501.734	312.17
502.168	328.55
502.601	312.17
503.034	302.81
503.467	344.94
503.9	333.23
504.333	319.19
504.766	305.15
505.199	380.04
505.632	382.39
506.064	312.17
506.497	323.87
506.93	382.39
507.362	321.53
507.795	326.21
508.227	291.1
508.66	344.94
509.092	312.17
509.524	291.1
509.956	302.81
510.389	314.51
510.821	340.26
511.253	394.09
511.685	375.36
512.117	366
512.549	307.49
512.981	356.64
513.412	328.55
513.844	295.79
514.276	286.42
514.707	307.49
515.139	300.47
515.571	337.91
516.002	288.76
516.433	279.4
516.865	270.04
517.296	333.23
517.727	309.83
518.159	284.08
518.59	284.08
519.021	326.21
519.452	349.62
519.883	347.28
520.314	305.15
520.744	351.96
521.175	340.26
521.606	305.15
522.037	309.83
522.467	316.85
522.898	279.4
523.328	389.41
523.759	387.07
524.189	291.1
524.62	302.81
525.05	330.89
525.48	401.11
525.91	309.83
526.341	347.28
526.771	342.6
527.201	375.36
527.631	321.53
528.061	291.1
528.49	328.55
528.92	270.04
529.35	277.06
529.78	351.96
530.209	319.19
530.639	267.7
531.068	326.21
531.498	330.89
531.927	358.98
532.357	380.04
532.786	256
533.215	340.26
533.644	272.38
534.074	291.1
534.503	354.3
534.932	347.28
535.361	323.87
535.79	314.51
536.218	323.87
536.647	307.49
537.076	305.15
537.505	330.89
537.933	354.3
538.362	330.89
538.79	321.53
539.219	330.89
539.647	384.73
540.076	363.66
540.504	342.6
540.932	277.06
541.36	309.83
541.788	342.6
542.217	344.94
542.645	316.85
543.073	312.17
543.5	351.96
543.928	340.26
544.356	335.57
544.784	368.34
545.211	333.23
545.639	340.26
546.067	305.15
546.494	344.94
546.922	356.64
547.349	307.49
547.776	356.64
548.204	288.76
548.631	349.62
549.058	389.41
549.485	321.53
549.912	309.83
550.339	321.53
550.766	281.74
551.193	326.21
551.62	314.51
552.047	337.91
552.474	291.1
552.9	342.6
553.327	265.36
553.754	349.62
554.18	337.91
554.607	300.47
555.033	312.17
555.459	319.19
555.886	230.25
556.312	370.68
556.738	370.68
557.164	319.19
557.59	366
558.016	293.44
558.442	405.79
558.868	302.81
559.294	389.41
559.72	263.02
560.145	277.06
560.571	319.19
560.997	309.83
561.422	354.3
561.848	319.19
562.273	344.94
562.699	351.96
563.124	342.6
563.549	340.26
563.974	305.15
564.4	288.76
564.825	316.85
565.25	302.81
565.675	263.02
566.1	284.08
566.525	293.44
566.95	274.72
567.374	291.1
567.799	333.23
568.224	323.87
568.648	309.83
569.073	333.23
569.497	281.74
569.922	340.26
570.346	326.21
570.771	351.96
571.195	326.21
571.619	366
572.043	351.96
572.467	358.98
572.891	293.44
573.315	363.66
573.739	295.79
574.163	321.53
574.587	337.91
575.011	328.55
575.435	312.17
575.858	298.13
576.282	314.51
576.705	351.96
577.129	384.73
577.552	356.64
577.976	335.57
578.399	316.85
578.822	377.7
579.245	370.68
579.669	370.68
580.092	349.62
580.515	321.53
580.938	337.91
581.361	410.47
581.784	321.53
582.206	323.87
582.629	295.79
583.052	319.19
583.474	335.57
583.897	309.83
584.32	312.17
584.742	316.85
585.165	403.45
585.587	330.89
586.009	300.47
586.431	337.91
586.854	321.53
587.276	258.34
587.698	375.36
588.12	333.23
588.542	323.87
588.964	342.6
589.386	316.85
589.807	319.19
590.229	330.89
590.651	284.08
591.073	326.21
591.494	284.08
591.916	370.68
592.337	426.86
592.759	333.23
593.18	340.26
593.601	267.7
594.022	279.4
594.444	335.57
594.865	288.76
595.286	403.45
595.707	363.66
596.128	326.21
596.549	330.89
596.97	335.57
597.39	263.02
597.811	373.02
598.232	358.98
598.652	323.87
599.073	368.34
599.494	244.29
599.914	293.44
600.334	337.91
600.755	298.13
601.175	272.38
601.595	305.15
602.015	366
602.436	309.83
602.856	476.01
603.276	370.68
603.696	312.17
604.115	351.96
604.535	319.19
604.955	288.76
605.375	335.57
605.794	314.51
606.214	335.57
606.634	337.91
607.053	274.72
607.473	377.7
607.892	312.17
608.311	265.36
608.731	351.96
609.15	272.38
609.569	361.32
609.988	328.55
610.407	305.15
610.826	284.08
611.245	319.19
611.664	354.3
612.083	333.23
612.501	330.89
612.92	295.79
613.339	380.04
613.757	321.53
614.176	377.7
614.594	295.79
615.013	368.34
615.431	316.85
615.85	309.83
616.268	337.91
616.686	349.62
617.104	277.06
617.522	354.3
617.94	375.36
618.358	295.79
618.776	309.83
619.194	312.17
619.612	330.89
620.03	300.47
620.447	307.49
620.865	277.06
621.282	263.02
621.7	380.04
622.117	286.42
622.535	326.21
622.952	344.94
623.369	319.19
623.787	288.76
624.204	344.94
624.621	321.53
625.038	302.81
625.455	342.6
625.872	377.7
626.289	265.36
626.706	253.66
627.123	314.51
627.539	354.3
627.956	356.64
628.373	370.68
628.789	281.74
629.206	270.04
629.622	321.53
630.038	337.91
630.455	307.49
630.871	305.15
631.287	316.85
631.703	309.83
632.12	295.79
632.536	349.62
632.952	288.76
633.368	316.85
633.783	351.96
634.199	433.88
634.615	314.51
635.031	279.4
635.446	354.3
635.862	274.72
636.277	328.55
636.693	340.26
637.108	241.95
637.524	363.66
637.939	291.1
638.354	394.09
638.77	347.28
639.185	344.94
639.6	316.85
640.015	347.28
640.43	347.28
640.845	337.91
641.259	335.57
641.674	312.17
642.089	384.73
642.504	351.96
642.918	328.55
643.333	340.26
643.747	323.87
644.162	323.87
644.576	321.53
644.991	309.83
645.405	253.66
645.819	312.17
646.233	312.17
646.647	291.1
647.061	342.6
647.475	366
647.889	356.64
648.303	328.55
648.717	319.19
649.131	373.02
649.545	337.91
649.958	291.1
650.372	347.28
650.785	370.68
651.199	298.13
651.612	333.23
652.026	267.7
652.439	323.87
652.852	270.04
653.266	302.81
653.679	298.13
654.092	396.43
654.505	330.89
654.918	298.13
655.331	305.15
655.744	363.66
656.156	337.91
656.569	333.23
656.982	344.94
657.394	274.72
657.807	335.57
658.22	328.55
658.632	344.94
659.044	354.3
659.457	328.55
659.869	358.98
660.281	347.28
660.693	321.53
661.106	326.21
661.518	351.96
661.93	361.32
662.342	319.19
662.754	370.68
663.165	358.98
663.577	382.39
663.989	335.57
664.401	337.91
664.812	340.26
665.224	319.19
665.635	307.49
666.047	279.4
666.458	351.96
666.869	277.06
667.281	263.02
667.692	302.81
668.103	354.3
668.514	316.85
668.925	302.81
669.336	300.47
669.747	342.6
670.158	274.72
670.569	405.79
670.979	253.66
671.39	384.73
671.801	410.47
672.211	291.1
672.622	291.1
673.032	314.51
673.443	314.51
673.853	358.98
674.263	253.66
674.674	347.28
675.084	340.26
675.494	405.79
675.904	342.6
676.314	291.1
676.724	384.73
677.134	295.79
677.544	384.73
677.953	373.02
678.363	366
678.773	417.49
679.182	298.13
679.592	323.87
680.001	330.89
680.411	408.13
680.82	312.17
681.23	270.04
681.639	288.76
682.048	361.32
682.457	265.36
682.866	370.68
683.275	302.81
683.684	312.17
684.093	316.85
684.502	305.15
684.911	340.26
685.32	314.51
685.728	370.68
686.137	316.85
686.546	373.02
686.954	384.73
687.363	387.07
687.771	265.36
688.179	335.57
688.588	377.7
688.996	347.28
689.404	286.42
689.812	328.55
690.22	321.53
690.628	323.87
691.036	347.28
691.444	340.26
691.852	333.23
692.26	300.47
692.667	316.85
693.075	314.51
693.483	309.83
693.89	270.04
694.298	305.15
694.705	326.21
695.112	377.7
695.52	333.23
695.927	330.89
696.334	302.81
696.741	274.72
697.148	347.28
697.555	288.76
697.962	286.42
698.369	333.23
698.776	398.77
699.183	277.06
699.59	335.57
699.996	373.02
700.403	270.04
700.81	298.13
701.216	391.75
701.623	358.98
702.029	298.13
702.435	316.85
702.842	316.85
703.248	316.85
703.654	309.83
704.06	340.26
704.466	335.57
704.872	293.44
705.278	335.57
705.684	356.64
706.09	342.6
706.496	237.27
706.901	300.47
707.307	340.26
707.712	380.04
708.118	363.66
708.523	305.15
708.929	342.6
709.334	305.15
709.74	270.04
710.145	288.76
710.55	312.17
710.955	316.85
711.36	335.57
711.765	312.17
712.17	354.3
712.575	319.19
712.98	845.81
713.385	344.94
713.789	333.23
714.194	330.89
714.599	300.47
715.003	412.81
715.408	340.26
715.812	401.11
716.217	356.64
716.621	337.91
717.025	319.19
717.429	337.91
717.833	373.02
718.238	380.04
718.642	323.87
719.046	323.87
719.449	300.47
719.853	382.39
720.257	288.76
720.661	363.66
721.065	316.85
721.468	319.19
721.872	279.4
722.275	419.83
722.679	302.81
723.082	288.76
723.485	300.47
723.889	312.17
724.292	316.85
724.695	309.83
725.098	419.83
725.501	305.15
725.904	281.74
726.307	270.04
726.71	366
727.113	349.62
727.516	340.26
727.918	277.06
728.321	321.53
728.724	333.23
729.126	351.96
729.529	356.64
729.931	316.85
730.333	375.36
730.736	335.57
731.138	326.21
731.54	258.34
731.942	335.57
732.344	347.28
732.746	279.4
733.148	298.13
733.55	373.02
733.952	293.44
734.354	333.23
734.756	335.57
735.157	307.49
735.559	227.91
735.96	305.15
736.362	312.17
736.763	368.34
737.165	288.76
737.566	375.36
737.967	279.4
738.368	295.79
738.77	295.79
739.171	284.08
739.572	272.38
739.973	354.3
740.374	256
740.774	344.94
741.175	375.36
741.576	295.79
741.977	298.13
742.377	337.91
742.778	312.17
743.178	230.25
743.579	354.3
743.979	340.26
744.379	300.47
744.78	333.23
745.18	330.89
745.58	335.57
745.98	323.87
746.38	351.96
746.78	274.72
747.18	295.79
747.58	312.17
747.98	312.17
748.38	321.53
748.779	342.6
749.179	298.13
749.578	319.19
749.978	356.64
750.377	300.47
750.777	335.57
751.176	344.94
751.575	337.91
751.975	370.68
752.374	337.91
752.773	316.85
753.172	312.17
753.571	277.06
753.97	270.04
754.369	356.64
754.768	279.4
755.166	375.36
755.565	321.53
755.964	251.32
756.362	291.1
756.761	382.39
757.159	328.55
757.558	356.64
757.956	330.89
758.354	295.79
758.753	312.17
759.151	272.38
759.549	309.83
759.947	347.28
760.345	326.21
760.743	333.23
761.141	347.28
761.539	337.91
761.936	356.64
762.334	302.81
762.732	326.21
763.129	333.23
763.527	323.87
763.924	309.83
764.322	370.68
764.719	270.04
765.117	307.49
765.514	321.53
765.911	263.02
766.308	335.57
766.705	321.53
767.102	293.44
