Data from Al_FLMS009871__834__15-30-07-296.txt Node

Date: Fri Mar 08 15:30:07 CST 2024
User: pe5414po
Spectrometer: FLMS00987
Trigger mode: 0
Integration Time (sec): 1.000000E-1
Scans to average: 1
Electric dark correction enabled: true
Nonlinearity correction enabled: false
Boxcar width: 0
XAxis mode: Wavelengths
Number of Pixels in Spectrum: 2048
>>>>>Begin Spectral Data<<<<<
188.938	-111.61
189.409	-111.61
189.879	-111.61
190.349	-125.66
190.819	-123.32
191.29	-118.64
191.76	-34.38
192.23	-120.98
192.7	-120.98
193.17	-10.97
193.64	-78.85
194.109	28.82
194.579	7.75
195.049	-20.33
195.519	40.52
195.988	14.77
196.458	12.43
196.927	63.93
197.397	87.33
197.866	94.35
198.336	155.21
198.805	136.48
199.274	68.61
199.744	216.06
200.213	148.19
200.682	216.06
201.151	230.1
201.62	220.74
202.089	265.21
202.558	293.3
203.027	223.08
203.495	216.06
203.964	253.51
204.433	286.28
204.902	248.83
205.37	297.98
205.839	288.62
206.307	288.62
206.776	337.77
207.244	281.6
207.712	340.11
208.181	326.07
208.649	260.53
209.117	283.94
209.585	279.26
210.053	244.15
210.521	279.26
210.989	297.98
211.457	262.87
211.925	223.08
212.393	297.98
212.861	255.85
213.328	260.53
213.796	241.81
214.264	316.7
214.731	204.36
215.199	309.68
215.666	265.21
216.133	288.62
216.601	232.44
217.068	293.3
217.535	293.3
218.003	290.96
218.47	237.13
218.937	321.38
219.404	267.55
219.871	220.74
220.338	255.85
220.805	244.15
221.271	248.83
221.738	211.38
222.205	220.74
222.671	230.1
223.138	241.81
223.605	183.29
224.071	248.83
224.538	234.78
225.004	230.1
225.47	199.68
225.937	281.6
226.403	239.47
226.869	237.13
227.335	248.83
227.801	281.6
228.267	227.76
228.733	230.1
229.199	202.02
229.665	234.78
230.131	265.21
230.597	230.1
231.062	253.51
231.528	239.47
231.994	302.66
232.459	290.96
232.925	230.1
233.39	251.17
233.856	267.55
234.321	351.81
234.786	255.85
235.252	211.38
235.717	255.85
236.182	305
236.647	295.64
237.112	314.36
237.577	178.61
238.042	281.6
238.507	192.66
238.972	276.91
239.436	187.97
239.901	232.44
240.366	321.38
240.83	267.55
241.295	295.64
241.76	312.02
242.224	237.13
242.688	258.19
243.153	323.73
243.617	262.87
244.081	244.15
244.545	211.38
245.01	244.15
245.474	230.1
245.938	312.02
246.402	293.3
246.866	202.02
247.33	246.49
247.793	290.96
248.257	225.42
248.721	258.19
249.185	365.85
249.648	323.73
250.112	288.62
250.575	312.02
251.039	234.78
251.502	251.17
251.965	239.47
252.429	255.85
252.892	323.73
253.355	293.3
253.818	297.98
254.281	216.06
254.744	230.1
255.207	305
255.67	290.96
256.133	274.57
256.596	316.7
257.059	286.28
257.522	267.55
257.984	232.44
258.447	300.32
258.909	255.85
259.372	286.28
259.834	272.23
260.297	354.15
260.759	223.08
261.221	225.42
261.684	295.64
262.146	321.38
262.608	297.98
263.07	269.89
263.532	246.49
263.994	281.6
264.456	262.87
264.918	293.3
265.38	288.62
265.842	295.64
266.303	283.94
266.765	279.26
267.227	225.42
267.688	255.85
268.15	286.28
268.611	206.7
269.072	274.57
269.534	223.08
269.995	267.55
270.456	281.6
270.918	232.44
271.379	276.91
271.84	307.34
272.301	328.41
272.762	255.85
273.223	316.7
273.684	286.28
274.144	265.21
274.605	321.38
275.066	230.1
275.527	302.66
275.987	290.96
276.448	239.47
276.908	230.1
277.369	281.6
277.829	342.45
278.289	269.89
278.75	323.73
279.21	211.38
279.67	241.81
280.13	262.87
280.59	269.89
281.05	239.47
281.51	361.17
281.97	312.02
282.43	293.3
282.89	265.21
283.35	351.81
283.809	309.68
284.269	314.36
284.729	225.42
285.188	370.54
285.648	305
286.107	232.44
286.567	286.28
287.026	293.3
287.485	323.73
287.944	314.36
288.404	326.07
288.863	234.78
289.322	323.73
289.781	267.55
290.24	290.96
290.699	269.89
291.158	213.72
291.616	347.13
292.075	309.68
292.534	274.57
292.992	283.94
293.451	265.21
293.91	297.98
294.368	302.66
294.827	272.23
295.285	290.96
295.743	314.36
296.202	293.3
296.66	258.19
297.118	293.3
297.576	241.81
298.034	230.1
298.492	309.68
298.95	365.85
299.408	323.73
299.866	269.89
300.324	267.55
300.781	279.26
301.239	307.34
301.697	314.36
302.154	293.3
302.612	290.96
303.069	335.43
303.527	316.7
303.984	272.23
304.441	295.64
304.899	288.62
305.356	330.75
305.813	274.57
306.27	307.34
306.727	253.51
307.184	330.75
307.641	300.32
308.098	230.1
308.555	344.79
309.012	330.75
309.468	220.74
309.925	293.3
310.382	272.23
310.838	241.81
311.295	305
311.751	295.64
312.208	300.32
312.664	246.49
313.12	269.89
313.577	262.87
314.033	258.19
314.489	335.43
314.945	286.28
315.401	326.07
315.857	293.3
316.313	276.91
316.769	279.26
317.225	305
317.681	321.38
318.136	290.96
318.592	253.51
319.048	279.26
319.503	230.1
319.959	300.32
320.414	260.53
320.869	326.07
321.325	274.57
321.78	244.15
322.235	302.66
322.691	386.92
323.146	288.62
323.601	295.64
324.056	265.21
324.511	305
324.966	281.6
325.421	307.34
325.875	337.77
326.33	248.83
326.785	286.28
327.24	321.38
327.694	274.57
328.149	274.57
328.603	337.77
329.058	328.41
329.512	281.6
329.966	314.36
330.421	295.64
330.875	326.07
331.329	316.7
331.783	312.02
332.237	309.68
332.691	276.91
333.145	293.3
333.599	265.21
334.053	351.81
334.507	316.7
334.96	262.87
335.414	328.41
335.868	309.68
336.321	290.96
336.775	372.88
337.228	297.98
337.682	330.75
338.135	265.21
338.588	269.89
339.042	297.98
339.495	288.62
339.948	262.87
340.401	272.23
340.854	330.75
341.307	260.53
341.76	274.57
342.213	321.38
342.666	307.34
343.119	286.28
343.571	297.98
344.024	220.74
344.477	281.6
344.929	241.81
345.382	319.04
345.834	330.75
346.287	361.17
346.739	265.21
347.191	377.56
347.644	326.07
348.096	365.85
348.548	314.36
349	272.23
349.452	319.04
349.904	302.66
350.356	312.02
350.808	290.96
351.26	227.76
351.711	251.17
352.163	305
352.615	323.73
353.066	302.66
353.518	309.68
353.969	269.89
354.421	281.6
354.872	248.83
355.324	290.96
355.775	316.7
356.226	307.34
356.677	354.15
357.128	267.55
357.579	307.34
358.03	297.98
358.481	283.94
358.932	330.75
359.383	295.64
359.834	293.3
360.285	288.62
360.735	351.81
361.186	286.28
361.637	272.23
362.087	262.87
362.538	255.85
362.988	244.15
363.438	272.23
363.889	335.43
364.339	279.26
364.789	290.96
365.239	302.66
365.689	283.94
366.139	269.89
366.589	368.2
367.039	316.7
367.489	314.36
367.939	314.36
368.389	330.75
368.839	356.49
369.288	279.26
369.738	314.36
370.187	244.15
370.637	370.54
371.086	330.75
371.536	340.11
371.985	253.51
372.434	283.94
372.884	248.83
373.333	342.45
373.782	309.68
374.231	246.49
374.68	295.64
375.129	337.77
375.578	262.87
376.027	340.11
376.475	276.91
376.924	337.77
377.373	297.98
377.822	330.75
378.27	356.49
378.719	319.04
379.167	269.89
379.616	255.85
380.064	323.73
380.512	232.44
380.961	293.3
381.409	204.36
381.857	337.77
382.305	286.28
382.753	293.3
383.201	300.32
383.649	316.7
384.097	274.57
384.545	342.45
384.992	286.28
385.44	316.7
385.888	274.57
386.335	272.23
386.783	314.36
387.231	328.41
387.678	340.11
388.125	314.36
388.573	246.49
389.02	319.04
389.467	316.7
389.914	281.6
390.362	286.28
390.809	351.81
391.256	326.07
391.703	330.75
392.15	255.85
392.596	319.04
393.043	295.64
393.49	335.43
393.937	305
394.383	234.78
394.83	297.98
395.276	281.6
395.723	255.85
396.169	244.15
396.616	260.53
397.062	241.81
397.508	251.17
397.954	267.55
398.401	363.51
398.847	288.62
399.293	307.34
399.739	307.34
400.185	272.23
400.631	344.79
401.076	283.94
401.522	330.75
401.968	283.94
402.414	293.3
402.859	340.11
403.305	300.32
403.75	300.32
404.196	328.41
404.641	305
405.086	216.06
405.532	326.07
405.977	377.56
406.422	302.66
406.867	281.6
407.312	368.2
407.757	316.7
408.202	333.09
408.647	342.45
409.092	288.62
409.537	267.55
409.982	330.75
410.426	305
410.871	309.68
411.316	297.98
411.76	281.6
412.205	342.45
412.649	351.81
413.093	307.34
413.538	279.26
413.982	326.07
414.426	309.68
414.87	351.81
415.314	302.66
415.758	349.47
416.202	354.15
416.646	340.11
417.09	333.09
417.534	272.23
417.978	309.68
418.421	274.57
418.865	333.09
419.309	314.36
419.752	312.02
420.196	354.15
420.639	347.13
421.083	290.96
421.526	300.32
421.969	328.41
422.412	251.17
422.856	293.3
423.299	382.24
423.742	288.62
424.185	349.47
424.628	269.89
425.071	319.04
425.513	307.34
425.956	382.24
426.399	351.81
426.842	255.85
427.284	293.3
427.727	307.34
428.169	283.94
428.612	319.04
429.054	290.96
429.497	314.36
429.939	344.79
430.381	262.87
430.823	288.62
431.265	255.85
431.707	276.91
432.149	358.83
432.591	372.88
433.033	274.57
433.475	305
433.917	239.47
434.359	258.19
434.8	321.38
435.242	290.96
435.684	258.19
436.125	328.41
436.567	253.51
437.008	262.87
437.449	326.07
437.891	295.64
438.332	297.98
438.773	293.3
439.214	312.02
439.656	274.57
440.097	295.64
440.538	307.34
440.978	309.68
441.419	281.6
441.86	319.04
442.301	244.15
442.742	349.47
443.182	246.49
443.623	251.17
444.063	358.83
444.504	321.38
444.944	281.6
445.385	323.73
445.825	326.07
446.265	295.64
446.706	309.68
447.146	255.85
447.586	300.32
448.026	293.3
448.466	309.68
448.906	302.66
449.346	272.23
449.786	321.38
450.225	356.49
450.665	307.34
451.105	253.51
451.544	321.38
451.984	295.64
452.424	307.34
452.863	279.26
453.302	312.02
453.742	351.81
454.181	258.19
454.62	321.38
455.059	312.02
455.499	290.96
455.938	262.87
456.377	393.94
456.816	356.49
457.254	281.6
457.693	307.34
458.132	316.7
458.571	344.79
459.01	288.62
459.448	335.43
459.887	316.7
460.325	274.57
460.764	251.17
461.202	326.07
461.641	297.98
462.079	321.38
462.517	347.13
462.955	302.66
463.393	316.7
463.832	363.51
464.27	286.28
464.708	283.94
465.145	337.77
465.583	344.79
466.021	316.7
466.459	305
466.897	267.55
467.334	283.94
467.772	349.47
468.209	255.85
468.647	305
469.084	314.36
469.522	295.64
469.959	356.49
470.396	389.26
470.833	305
471.271	290.96
471.708	262.87
472.145	293.3
472.582	272.23
473.019	290.96
473.456	255.85
473.892	396.28
474.329	272.23
474.766	330.75
475.202	307.34
475.639	272.23
476.076	365.85
476.512	297.98
476.949	337.77
477.385	330.75
477.821	302.66
478.258	302.66
478.694	321.38
479.13	330.75
479.566	365.85
480.002	351.81
480.438	248.83
480.874	295.64
481.31	272.23
481.746	283.94
482.181	286.28
482.617	267.55
483.053	323.73
483.488	269.89
483.924	258.19
484.36	258.19
484.795	309.68
485.23	351.81
485.666	316.7
486.101	323.73
486.536	333.09
486.971	297.98
487.407	337.77
487.842	288.62
488.277	295.64
488.712	323.73
489.146	288.62
489.581	293.3
490.016	302.66
490.451	290.96
490.885	300.32
491.32	321.38
491.755	295.64
492.189	262.87
492.624	349.47
493.058	288.62
493.492	333.09
493.927	314.36
494.361	340.11
494.795	276.91
495.229	279.26
495.663	300.32
496.097	295.64
496.531	314.36
496.965	262.87
497.399	335.43
497.833	344.79
498.266	347.13
498.7	286.28
499.134	312.02
499.567	321.38
500.001	274.57
500.434	316.7
500.868	333.09
501.301	234.78
501.734	276.91
502.168	305
502.601	354.15
503.034	262.87
503.467	283.94
503.9	290.96
504.333	333.09
504.766	316.7
505.199	307.34
505.632	286.28
506.064	297.98
506.497	305
506.93	344.79
507.362	297.98
507.795	389.26
508.227	335.43
508.66	309.68
509.092	316.7
509.524	312.02
509.956	328.41
510.389	246.49
510.821	260.53
511.253	335.43
511.685	295.64
512.117	321.38
512.549	300.32
512.981	283.94
513.412	283.94
513.844	300.32
514.276	319.04
514.707	330.75
515.139	220.74
515.571	267.55
516.002	307.34
516.433	382.24
516.865	295.64
517.296	314.36
517.727	323.73
518.159	330.75
518.59	372.88
519.021	253.51
519.452	230.1
519.883	272.23
520.314	281.6
520.744	255.85
521.175	283.94
521.606	234.78
522.037	312.02
522.467	386.92
522.898	323.73
523.328	323.73
523.759	288.62
524.189	276.91
524.62	356.49
525.05	319.04
525.48	300.32
525.91	260.53
526.341	314.36
526.771	307.34
527.201	260.53
527.631	283.94
528.061	297.98
528.49	300.32
528.92	386.92
529.35	312.02
529.78	351.81
530.209	312.02
530.639	326.07
531.068	248.83
531.498	295.64
531.927	342.45
532.357	281.6
532.786	321.38
533.215	253.51
533.644	314.36
534.074	328.41
534.503	321.38
534.932	244.15
535.361	283.94
535.79	347.13
536.218	321.38
536.647	305
537.076	312.02
537.505	267.55
537.933	349.47
538.362	267.55
538.79	272.23
539.219	281.6
539.647	361.17
540.076	272.23
540.504	314.36
540.932	274.57
541.36	297.98
541.788	244.15
542.217	321.38
542.645	309.68
543.073	300.32
543.5	288.62
543.928	354.15
544.356	309.68
544.784	316.7
545.211	260.53
545.639	307.34
546.067	274.57
546.494	307.34
546.922	265.21
547.349	255.85
547.776	302.66
548.204	281.6
548.631	344.79
549.058	267.55
549.485	323.73
549.912	290.96
550.339	321.38
550.766	321.38
551.193	253.51
551.62	230.1
552.047	274.57
552.474	333.09
552.9	337.77
553.327	283.94
553.754	286.28
554.18	286.28
554.607	333.09
555.033	274.57
555.459	300.32
555.886	295.64
556.312	290.96
556.738	314.36
557.164	356.49
557.59	391.6
558.016	319.04
558.442	340.11
558.868	262.87
559.294	293.3
559.72	283.94
560.145	302.66
560.571	286.28
560.997	302.66
561.422	398.62
561.848	262.87
562.273	319.04
562.699	267.55
563.124	323.73
563.549	365.85
563.974	340.11
564.4	312.02
564.825	337.77
565.25	305
565.675	316.7
566.1	253.51
566.525	290.96
566.95	349.47
567.374	309.68
567.799	279.26
568.224	349.47
568.648	326.07
569.073	248.83
569.497	288.62
569.922	321.38
570.346	361.17
570.771	293.3
571.195	281.6
571.619	288.62
572.043	305
572.467	290.96
572.891	276.91
573.315	274.57
573.739	274.57
574.163	305
574.587	330.75
575.011	328.41
575.435	379.9
575.858	300.32
576.282	365.85
576.705	333.09
577.129	302.66
577.552	276.91
577.976	330.75
578.399	260.53
578.822	272.23
579.245	300.32
579.669	323.73
580.092	337.77
580.515	232.44
580.938	410.33
581.361	283.94
581.784	258.19
582.206	307.34
582.629	340.11
583.052	400.96
583.474	305
583.897	323.73
584.32	335.43
584.742	267.55
585.165	335.43
585.587	305
586.009	323.73
586.431	335.43
586.854	281.6
587.276	302.66
587.698	253.51
588.12	300.32
588.542	269.89
588.964	344.79
589.386	342.45
589.807	293.3
590.229	288.62
590.651	316.7
591.073	241.81
591.494	295.64
591.916	286.28
592.337	307.34
592.759	297.98
593.18	199.68
593.601	286.28
594.022	276.91
594.444	241.81
594.865	326.07
595.286	295.64
595.707	305
596.128	309.68
596.549	283.94
596.97	321.38
597.39	323.73
597.811	309.68
598.232	330.75
598.652	309.68
599.073	281.6
599.494	351.81
599.914	354.15
600.334	300.32
600.755	335.43
601.175	251.17
601.595	342.45
602.015	279.26
602.436	330.75
602.856	438.41
603.276	326.07
603.696	290.96
604.115	297.98
604.535	258.19
604.955	269.89
605.375	302.66
605.794	293.3
606.214	321.38
606.634	300.32
607.053	251.17
607.473	286.28
607.892	319.04
608.311	323.73
608.731	330.75
609.15	265.21
609.569	370.54
609.988	307.34
610.407	295.64
610.826	253.51
611.245	305
611.664	300.32
612.083	316.7
612.501	323.73
612.92	326.07
613.339	267.55
613.757	344.79
614.176	283.94
614.594	300.32
615.013	274.57
615.431	262.87
615.85	297.98
616.268	319.04
616.686	368.2
617.104	286.28
617.522	288.62
617.94	246.49
618.358	297.98
618.776	361.17
619.194	290.96
619.612	340.11
620.03	337.77
620.447	279.26
620.865	337.77
621.282	340.11
621.7	305
622.117	302.66
622.535	279.26
622.952	297.98
623.369	300.32
623.787	272.23
624.204	281.6
624.621	297.98
625.038	302.66
625.455	335.43
625.872	297.98
626.289	251.17
626.706	255.85
627.123	314.36
627.539	251.17
627.956	279.26
628.373	288.62
628.789	309.68
629.206	290.96
629.622	330.75
630.038	326.07
630.455	307.34
630.871	307.34
631.287	251.17
631.703	272.23
632.12	335.43
632.536	279.26
632.952	340.11
633.368	321.38
633.783	283.94
634.199	279.26
634.615	358.83
635.031	314.36
635.446	225.42
635.862	300.32
636.277	326.07
636.693	276.91
637.108	309.68
637.524	363.51
637.939	265.21
638.354	302.66
638.77	309.68
639.185	340.11
639.6	283.94
640.015	272.23
640.43	323.73
640.845	321.38
641.259	295.64
641.674	361.17
642.089	241.81
642.504	328.41
642.918	262.87
643.333	281.6
643.747	258.19
644.162	321.38
644.576	293.3
644.991	307.34
645.405	335.43
645.819	337.77
646.233	286.28
646.647	267.55
647.061	246.49
647.475	232.44
647.889	358.83
648.303	230.1
648.717	258.19
649.131	248.83
649.545	321.38
649.958	314.36
650.372	309.68
650.785	305
651.199	309.68
651.612	244.15
652.026	272.23
652.439	302.66
652.852	281.6
653.266	326.07
653.679	363.51
654.092	307.34
654.505	309.68
654.918	363.51
655.331	344.79
655.744	297.98
656.156	279.26
656.569	316.7
656.982	302.66
657.394	330.75
657.807	288.62
658.22	274.57
658.632	302.66
659.044	361.17
659.457	262.87
659.869	283.94
660.281	347.13
660.693	333.09
661.106	281.6
661.518	307.34
661.93	305
662.342	293.3
662.754	290.96
663.165	302.66
663.577	312.02
663.989	333.09
664.401	239.47
664.812	340.11
665.224	211.38
665.635	342.45
666.047	347.13
666.458	309.68
666.869	314.36
667.281	314.36
667.692	267.55
668.103	232.44
668.514	279.26
668.925	248.83
669.336	309.68
669.747	328.41
670.158	335.43
670.569	330.75
670.979	314.36
671.39	279.26
671.801	246.49
672.211	340.11
672.622	286.28
673.032	262.87
673.443	255.85
673.853	183.29
674.263	314.36
674.674	295.64
675.084	363.51
675.494	309.68
675.904	351.81
676.314	272.23
676.724	375.22
677.134	279.26
677.544	297.98
677.953	333.09
678.363	330.75
678.773	312.02
679.182	316.7
679.592	326.07
680.001	319.04
680.411	305
680.82	258.19
681.23	312.02
681.639	288.62
682.048	316.7
682.457	314.36
682.866	286.28
683.275	234.78
683.684	283.94
684.093	260.53
684.502	375.22
684.911	361.17
685.32	340.11
685.728	276.91
686.137	316.7
686.546	293.3
686.954	319.04
687.363	281.6
687.771	319.04
688.179	344.79
688.588	319.04
688.996	297.98
689.404	297.98
689.812	326.07
690.22	316.7
690.628	344.79
691.036	251.17
691.444	246.49
691.852	279.26
692.26	302.66
692.667	302.66
693.075	269.89
693.483	258.19
693.89	237.13
694.298	262.87
694.705	347.13
695.112	279.26
695.52	286.28
695.927	272.23
696.334	312.02
696.741	288.62
697.148	293.3
697.555	276.91
697.962	237.13
698.369	295.64
698.776	302.66
699.183	267.55
699.59	295.64
699.996	351.81
700.403	281.6
700.81	286.28
701.216	300.32
701.623	323.73
702.029	305
702.435	312.02
702.842	361.17
703.248	246.49
703.654	262.87
704.06	328.41
704.466	253.51
704.872	314.36
705.278	244.15
705.684	279.26
706.09	326.07
706.496	349.47
706.901	300.32
707.307	312.02
707.712	330.75
708.118	321.38
708.523	305
708.929	274.57
709.334	262.87
709.74	295.64
710.145	290.96
710.55	272.23
710.955	389.26
711.36	260.53
711.765	286.28
712.17	386.92
712.575	260.53
712.98	787.15
713.385	288.62
713.789	319.04
714.194	314.36
714.599	302.66
715.003	288.62
715.408	260.53
715.812	302.66
716.217	328.41
716.621	342.45
717.025	279.26
717.429	312.02
717.833	276.91
718.238	288.62
718.642	286.28
719.046	241.81
719.449	295.64
719.853	286.28
720.257	265.21
720.661	300.32
721.065	312.02
721.468	370.54
721.872	272.23
722.275	356.49
722.679	302.66
723.082	262.87
723.485	262.87
723.889	302.66
724.292	288.62
724.695	323.73
725.098	274.57
725.501	288.62
725.904	319.04
726.307	279.26
726.71	314.36
727.113	295.64
727.516	283.94
727.918	241.81
728.321	363.51
728.724	276.91
729.126	337.77
729.529	365.85
729.931	321.38
730.333	283.94
730.736	305
731.138	241.81
731.54	340.11
731.942	342.45
732.344	295.64
732.746	286.28
733.148	312.02
733.55	309.68
733.952	286.28
734.354	258.19
734.756	272.23
735.157	309.68
735.559	269.89
735.96	272.23
736.362	365.85
736.763	241.81
737.165	241.81
737.566	246.49
737.967	349.47
738.368	321.38
738.77	283.94
739.171	335.43
739.572	253.51
739.973	375.22
740.374	305
740.774	342.45
741.175	363.51
741.576	312.02
741.977	368.2
742.377	309.68
742.778	286.28
743.178	321.38
743.579	305
743.979	300.32
744.379	251.17
744.78	305
745.18	314.36
745.58	305
745.98	312.02
746.38	316.7
746.78	365.85
747.18	319.04
747.58	230.1
747.98	328.41
748.38	335.43
748.779	297.98
749.179	279.26
749.578	281.6
749.978	321.38
750.377	302.66
750.777	302.66
751.176	358.83
751.575	368.2
751.975	267.55
752.374	281.6
752.773	347.13
753.172	309.68
753.571	239.47
753.97	281.6
754.369	326.07
754.768	340.11
755.166	363.51
755.565	281.6
755.964	307.34
756.362	354.15
756.761	295.64
757.159	302.66
757.558	269.89
757.956	293.3
758.354	377.56
758.753	225.42
759.151	356.49
759.549	335.43
759.947	267.55
760.345	314.36
760.743	255.85
761.141	419.69
761.539	232.44
761.936	262.87
762.334	328.41
762.732	276.91
763.129	265.21
763.527	255.85
763.924	302.66
764.322	340.11
764.719	244.15
765.117	295.64
765.514	300.32
765.911	309.68
766.308	295.64
766.705	274.57
767.102	342.45
767.499	312.02
