Data from Al_FLMS009871__836__15-30-07-496.txt Node

Date: Fri Mar 08 15:30:07 CST 2024
User: pe5414po
Spectrometer: FLMS00987
Trigger mode: 0
Integration Time (sec): 1.000000E-1
Scans to average: 1
Electric dark correction enabled: true
Nonlinearity correction enabled: false
Boxcar width: 0
XAxis mode: Wavelengths
Number of Pixels in Spectrum: 2048
>>>>>Begin Spectral Data<<<<<
188.938	-56.17
189.409	-56.17
189.879	-56.17
190.349	-86.6
190.819	-133.41
191.29	-102.98
191.76	-65.53
192.23	-65.53
192.7	-67.88
193.17	-39.79
193.64	-23.41
194.109	-37.45
194.579	-18.72
195.049	-35.11
195.519	-2.34
195.988	2.34
196.458	79.58
196.927	84.26
197.397	102.98
197.866	86.6
198.336	102.98
198.805	142.77
199.274	117.03
199.744	159.16
200.213	271.5
200.682	215.33
201.151	215.33
201.62	250.44
202.089	224.69
202.558	243.42
203.027	252.78
203.495	215.33
203.964	245.76
204.433	308.95
204.902	271.5
205.37	290.23
205.839	280.86
206.307	266.82
206.776	224.69
207.244	308.95
207.712	332.36
208.181	308.95
208.649	278.52
209.117	332.36
209.585	327.68
210.053	306.61
210.521	294.91
210.989	330.02
211.457	250.44
211.925	299.59
212.393	269.16
212.861	278.52
213.328	327.68
213.796	325.33
214.264	341.72
214.731	241.08
215.199	241.08
215.666	266.82
216.133	306.61
216.601	301.93
217.068	222.35
217.535	259.8
218.003	259.8
218.47	269.16
218.937	271.5
219.404	222.35
219.871	278.52
220.338	250.44
220.805	259.8
221.271	322.99
221.738	259.8
222.205	245.76
222.671	255.12
223.138	278.52
223.605	278.52
224.071	315.97
224.538	238.73
225.004	205.97
225.47	212.99
225.937	306.61
226.403	231.71
226.869	292.57
227.335	220.01
227.801	203.63
228.267	320.65
228.733	241.08
229.199	196.61
229.665	250.44
230.131	325.33
230.597	271.5
231.062	278.52
231.528	257.46
231.994	287.89
232.459	283.2
232.925	262.14
233.39	231.71
233.856	273.84
234.321	311.29
234.786	294.91
235.252	271.5
235.717	269.16
236.182	276.18
236.647	215.33
237.112	292.57
237.577	266.82
238.042	287.89
238.507	241.08
238.972	276.18
239.436	318.31
239.901	255.12
240.366	259.8
240.83	259.8
241.295	278.52
241.76	294.91
242.224	355.76
242.688	273.84
243.153	245.76
243.617	297.25
244.081	269.16
244.545	257.46
245.01	285.55
245.474	229.37
245.938	283.2
246.402	259.8
246.866	259.8
247.33	208.31
247.793	287.89
248.257	337.04
248.721	255.12
249.185	269.16
249.648	365.12
250.112	245.76
250.575	341.72
251.039	262.14
251.502	301.93
251.965	285.55
252.429	299.59
252.892	330.02
253.355	318.31
253.818	290.23
254.281	236.39
254.744	280.86
255.207	248.1
255.67	285.55
256.133	234.05
256.596	304.27
257.059	294.91
257.522	269.16
257.984	259.8
258.447	262.14
258.909	250.44
259.372	259.8
259.834	287.89
260.297	259.8
260.759	304.27
261.221	297.25
261.684	250.44
262.146	269.16
262.608	278.52
263.07	297.25
263.532	273.84
263.994	250.44
264.456	325.33
264.918	250.44
265.38	255.12
265.842	318.31
266.303	344.06
266.765	278.52
267.227	325.33
267.688	271.5
268.15	285.55
268.611	339.38
269.072	297.25
269.534	250.44
269.995	318.31
270.456	269.16
270.918	322.99
271.379	278.52
271.84	297.25
272.301	285.55
272.762	278.52
273.223	250.44
273.684	311.29
274.144	297.25
274.605	259.8
275.066	273.84
275.527	301.93
275.987	337.04
276.448	241.08
276.908	283.2
277.369	280.86
277.829	327.68
278.289	266.82
278.75	330.02
279.21	262.14
279.67	322.99
280.13	341.72
280.59	344.06
281.05	322.99
281.51	308.95
281.97	287.89
282.43	344.06
282.89	297.25
283.35	241.08
283.809	290.23
284.269	259.8
284.729	362.78
285.188	334.7
285.648	348.74
286.107	337.04
286.567	292.57
287.026	269.16
287.485	334.7
287.944	299.59
288.404	337.04
288.863	276.18
289.322	306.61
289.781	297.25
290.24	308.95
290.699	299.59
291.158	334.7
291.616	320.65
292.075	306.61
292.534	322.99
292.992	271.5
293.451	297.25
293.91	290.23
294.368	278.52
294.827	297.25
295.285	271.5
295.743	330.02
296.202	234.05
296.66	273.84
297.118	273.84
297.576	299.59
298.034	313.63
298.492	280.86
298.95	304.27
299.408	318.31
299.866	299.59
300.324	273.84
300.781	290.23
301.239	287.89
301.697	257.46
302.154	280.86
302.612	341.72
303.069	341.72
303.527	325.33
303.984	311.29
304.441	271.5
304.899	278.52
305.356	344.06
305.813	386.19
306.27	299.59
306.727	313.63
307.184	259.8
307.641	297.25
308.098	337.04
308.555	322.99
309.012	283.2
309.468	311.29
309.925	259.8
310.382	318.31
310.838	315.97
311.295	327.68
311.751	299.59
312.208	334.7
312.664	322.99
313.12	259.8
313.577	308.95
314.033	271.5
314.489	320.65
314.945	315.97
315.401	283.2
315.857	276.18
316.313	290.23
316.769	285.55
317.225	255.12
317.681	393.21
318.136	330.02
318.592	294.91
319.048	283.2
319.503	294.91
319.959	285.55
320.414	332.36
320.869	283.2
321.325	308.95
321.78	259.8
322.235	344.06
322.691	273.84
323.146	280.86
323.601	299.59
324.056	255.12
324.511	292.57
324.966	318.31
325.421	276.18
325.875	318.31
326.33	280.86
326.785	299.59
327.24	252.78
327.694	325.33
328.149	299.59
328.603	318.31
329.058	304.27
329.512	318.31
329.966	287.89
330.421	262.14
330.875	346.4
331.329	330.02
331.783	266.82
332.237	311.29
332.691	276.18
333.145	299.59
333.599	290.23
334.053	372.15
334.507	322.99
334.96	287.89
335.414	290.23
335.868	388.53
336.321	325.33
336.775	339.38
337.228	278.52
337.682	355.76
338.135	306.61
338.588	334.7
339.042	313.63
339.495	353.42
339.948	299.59
340.401	292.57
340.854	315.97
341.307	283.2
341.76	292.57
342.213	351.08
342.666	308.95
343.119	320.65
343.571	313.63
344.024	248.1
344.477	273.84
344.929	318.31
345.382	290.23
345.834	278.52
346.287	315.97
346.739	294.91
347.191	332.36
347.644	337.04
348.096	311.29
348.548	287.89
349	358.1
349.452	325.33
349.904	290.23
350.356	262.14
350.808	259.8
351.26	304.27
351.711	287.89
352.163	379.17
352.615	276.18
353.066	297.25
353.518	353.42
353.969	330.02
354.421	353.42
354.872	301.93
355.324	348.74
355.775	311.29
356.226	234.05
356.677	292.57
357.128	341.72
357.579	374.49
358.03	318.31
358.481	304.27
358.932	285.55
359.383	283.2
359.834	393.21
360.285	332.36
360.735	306.61
361.186	273.84
361.637	252.78
362.087	322.99
362.538	241.08
362.988	250.44
363.438	248.1
363.889	327.68
364.339	325.33
364.789	311.29
365.239	278.52
365.689	339.38
366.139	276.18
366.589	278.52
367.039	280.86
367.489	362.78
367.939	341.72
368.389	362.78
368.839	311.29
369.288	322.99
369.738	348.74
370.187	278.52
370.637	348.74
371.086	360.44
371.536	348.74
371.985	276.18
372.434	311.29
372.884	308.95
373.333	297.25
373.782	337.04
374.231	315.97
374.68	337.04
375.129	271.5
375.578	376.83
376.027	318.31
376.475	334.7
376.924	248.1
377.373	294.91
377.822	341.72
378.27	318.31
378.719	301.93
379.167	306.61
379.616	358.1
380.064	292.57
380.512	271.5
380.961	308.95
381.409	339.38
381.857	280.86
382.305	308.95
382.753	266.82
383.201	341.72
383.649	313.63
384.097	337.04
384.545	299.59
384.992	362.78
385.44	367.46
385.888	278.52
386.335	308.95
386.783	337.04
387.231	339.38
387.678	360.44
388.125	320.65
388.573	271.5
389.02	257.46
389.467	332.36
389.914	306.61
390.362	374.49
390.809	266.82
391.256	287.89
391.703	325.33
392.15	287.89
392.596	383.85
393.043	442.36
393.49	255.12
393.937	339.38
394.383	339.38
394.83	388.53
395.276	294.91
395.723	280.86
396.169	280.86
396.616	313.63
397.062	255.12
397.508	330.02
397.954	332.36
398.401	351.08
398.847	315.97
399.293	355.76
399.739	290.23
400.185	283.2
400.631	287.89
401.076	278.52
401.522	290.23
401.968	276.18
402.414	308.95
402.859	376.83
403.305	348.74
403.75	304.27
404.196	315.97
404.641	224.69
405.086	280.86
405.532	304.27
405.977	283.2
406.422	325.33
406.867	351.08
407.312	313.63
407.757	353.42
408.202	280.86
408.647	301.93
409.092	320.65
409.537	311.29
409.982	283.2
410.426	290.23
410.871	308.95
411.316	369.8
411.76	332.36
412.205	308.95
412.649	304.27
413.093	290.23
413.538	283.2
413.982	264.48
414.426	313.63
414.87	339.38
415.314	388.53
415.758	332.36
416.202	337.04
416.646	353.42
417.09	299.59
417.534	353.42
417.978	320.65
418.421	308.95
418.865	311.29
419.309	304.27
419.752	362.78
420.196	294.91
420.639	229.37
421.083	393.21
421.526	348.74
421.969	287.89
422.412	372.15
422.856	386.19
423.299	341.72
423.742	308.95
424.185	245.76
424.628	259.8
425.071	346.4
425.513	306.61
425.956	322.99
426.399	304.27
426.842	395.55
427.284	280.86
427.727	301.93
428.169	325.33
428.612	330.02
429.054	365.12
429.497	290.23
429.939	299.59
430.381	250.44
430.823	243.42
431.265	346.4
431.707	341.72
432.149	271.5
432.591	315.97
433.033	388.53
433.475	234.05
433.917	362.78
434.359	304.27
434.8	325.33
435.242	376.83
435.684	332.36
436.125	311.29
436.567	292.57
437.008	283.2
437.449	327.68
437.891	245.76
438.332	304.27
438.773	276.18
439.214	262.14
439.656	285.55
440.097	299.59
440.538	287.89
440.978	297.25
441.419	313.63
441.86	287.89
442.301	383.85
442.742	315.97
443.182	334.7
443.623	315.97
444.063	306.61
444.504	290.23
444.944	348.74
445.385	334.7
445.825	311.29
446.265	325.33
446.706	318.31
447.146	313.63
447.586	278.52
448.026	355.76
448.466	330.02
448.906	313.63
449.346	297.25
449.786	311.29
450.225	280.86
450.665	369.8
451.105	273.84
451.544	390.87
451.984	290.23
452.424	379.17
452.863	334.7
453.302	252.78
453.742	287.89
454.181	262.14
454.62	301.93
455.059	287.89
455.499	332.36
455.938	320.65
456.377	318.31
456.816	337.04
457.254	315.97
457.693	278.52
458.132	262.14
458.571	285.55
459.01	252.78
459.448	325.33
459.887	367.46
460.325	294.91
460.764	344.06
461.202	290.23
461.641	376.83
462.079	318.31
462.517	344.06
462.955	278.52
463.393	313.63
463.832	318.31
464.27	313.63
464.708	353.42
465.145	320.65
465.583	278.52
466.021	271.5
466.459	367.46
466.897	283.2
467.334	308.95
467.772	334.7
468.209	341.72
468.647	290.23
469.084	299.59
469.522	318.31
469.959	311.29
470.396	334.7
470.833	369.8
471.271	234.05
471.708	280.86
472.145	337.04
472.582	301.93
473.019	301.93
473.456	215.33
473.892	369.8
474.329	313.63
474.766	285.55
475.202	313.63
475.639	271.5
476.076	372.15
476.512	320.65
476.949	418.96
477.385	376.83
477.821	299.59
478.258	297.25
478.694	299.59
479.13	320.65
479.566	285.55
480.002	374.49
480.438	292.57
480.874	304.27
481.31	308.95
481.746	292.57
482.181	379.17
482.617	285.55
483.053	278.52
483.488	327.68
483.924	318.31
484.36	273.84
484.795	297.25
485.23	273.84
485.666	304.27
486.101	271.5
486.536	299.59
486.971	273.84
487.407	220.01
487.842	325.33
488.277	257.46
488.712	351.08
489.146	332.36
489.581	287.89
490.016	297.25
490.451	315.97
490.885	315.97
491.32	325.33
491.755	325.33
492.189	367.46
492.624	311.29
493.058	348.74
493.492	339.38
493.927	311.29
494.361	271.5
494.795	379.17
495.229	290.23
495.663	374.49
496.097	294.91
496.531	327.68
496.965	311.29
497.399	365.12
497.833	374.49
498.266	325.33
498.7	304.27
499.134	294.91
499.567	332.36
500.001	322.99
500.434	297.25
500.868	306.61
501.301	278.52
501.734	311.29
502.168	348.74
502.601	255.12
503.034	315.97
503.467	297.25
503.9	332.36
504.333	308.95
504.766	257.46
505.199	325.33
505.632	315.97
506.064	362.78
506.497	304.27
506.93	348.74
507.362	259.8
507.795	301.93
508.227	339.38
508.66	292.57
509.092	341.72
509.524	297.25
509.956	313.63
510.389	341.72
510.821	266.82
511.253	283.2
511.685	292.57
512.117	320.65
512.549	301.93
512.981	292.57
513.412	262.14
513.844	280.86
514.276	313.63
514.707	322.99
515.139	280.86
515.571	294.91
516.002	304.27
516.433	320.65
516.865	287.89
517.296	346.4
517.727	325.33
518.159	330.02
518.59	318.31
519.021	339.38
519.452	337.04
519.883	334.7
520.314	360.44
520.744	299.59
521.175	355.76
521.606	374.49
522.037	287.89
522.467	306.61
522.898	341.72
523.328	341.72
523.759	262.14
524.189	320.65
524.62	306.61
525.05	306.61
525.48	344.06
525.91	313.63
526.341	322.99
526.771	386.19
527.201	283.2
527.631	292.57
528.061	315.97
528.49	320.65
528.92	425.98
529.35	355.76
529.78	374.49
530.209	306.61
530.639	346.4
531.068	348.74
531.498	337.04
531.927	365.12
532.357	339.38
532.786	369.8
533.215	318.31
533.644	365.12
534.074	332.36
534.503	374.49
534.932	330.02
535.361	351.08
535.79	341.72
536.218	311.29
536.647	355.76
537.076	318.31
537.505	292.57
537.933	269.16
538.362	290.23
538.79	337.04
539.219	285.55
539.647	313.63
540.076	306.61
540.504	294.91
540.932	290.23
541.36	315.97
541.788	344.06
542.217	264.48
542.645	353.42
543.073	285.55
543.5	306.61
543.928	315.97
544.356	332.36
544.784	278.52
545.211	348.74
545.639	287.89
546.067	264.48
546.494	367.46
546.922	287.89
547.349	299.59
547.776	325.33
548.204	313.63
548.631	332.36
549.058	292.57
549.485	365.12
549.912	334.7
550.339	358.1
550.766	259.8
551.193	341.72
551.62	294.91
552.047	325.33
552.474	351.08
552.9	301.93
553.327	372.15
553.754	344.06
554.18	344.06
554.607	330.02
555.033	294.91
555.459	330.02
555.886	372.15
556.312	344.06
556.738	322.99
557.164	283.2
557.59	332.36
558.016	227.03
558.442	330.02
558.868	283.2
559.294	332.36
559.72	325.33
560.145	318.31
560.571	276.18
560.997	346.4
561.422	297.25
561.848	325.33
562.273	308.95
562.699	372.15
563.124	285.55
563.549	283.2
563.974	301.93
564.4	313.63
564.825	283.2
565.25	386.19
565.675	304.27
566.1	346.4
566.525	283.2
566.95	294.91
567.374	290.23
567.799	231.71
568.224	262.14
568.648	243.42
569.073	301.93
569.497	322.99
569.922	325.33
570.346	318.31
570.771	280.86
571.195	285.55
571.619	325.33
572.043	269.16
572.467	332.36
572.891	313.63
573.315	301.93
573.739	315.97
574.163	278.52
574.587	325.33
575.011	372.15
575.435	313.63
575.858	315.97
576.282	297.25
576.705	381.51
577.129	320.65
577.552	301.93
577.976	344.06
578.399	283.2
578.822	330.02
579.245	262.14
579.669	369.8
580.092	330.02
580.515	294.91
580.938	280.86
581.361	337.04
581.784	325.33
582.206	351.08
582.629	330.02
583.052	304.27
583.474	294.91
583.897	283.2
584.32	353.42
584.742	266.82
585.165	315.97
585.587	306.61
586.009	304.27
586.431	283.2
586.854	264.48
587.276	353.42
587.698	269.16
588.12	334.7
588.542	318.31
588.964	271.5
589.386	344.06
589.807	264.48
590.229	320.65
590.651	294.91
591.073	332.36
591.494	311.29
591.916	304.27
592.337	388.53
592.759	259.8
593.18	362.78
593.601	257.46
594.022	325.33
594.444	292.57
594.865	400.23
595.286	334.7
595.707	301.93
596.128	301.93
596.549	285.55
596.97	283.2
597.39	358.1
597.811	290.23
598.232	327.68
598.652	372.15
599.073	285.55
599.494	285.55
599.914	294.91
600.334	327.68
600.755	315.97
601.175	362.78
601.595	306.61
602.015	348.74
602.436	313.63
602.856	381.51
603.276	297.25
603.696	348.74
604.115	294.91
604.535	297.25
604.955	325.33
605.375	367.46
605.794	276.18
606.214	334.7
606.634	315.97
607.053	348.74
607.473	313.63
607.892	311.29
608.311	348.74
608.731	320.65
609.15	360.44
609.569	330.02
609.988	313.63
610.407	266.82
610.826	383.85
611.245	264.48
611.664	351.08
612.083	334.7
612.501	339.38
612.92	299.59
613.339	266.82
613.757	250.44
614.176	348.74
614.594	243.42
615.013	379.17
615.431	297.25
615.85	339.38
616.268	346.4
616.686	294.91
617.104	283.2
617.522	381.51
617.94	299.59
618.358	252.78
618.776	259.8
619.194	271.5
619.612	400.23
620.03	322.99
620.447	308.95
620.865	278.52
621.282	308.95
621.7	325.33
622.117	339.38
622.535	322.99
622.952	320.65
623.369	332.36
623.787	301.93
624.204	294.91
624.621	358.1
625.038	304.27
625.455	264.48
625.872	313.63
626.289	315.97
626.706	346.4
627.123	311.29
627.539	285.55
627.956	353.42
628.373	344.06
628.789	327.68
629.206	248.1
629.622	315.97
630.038	325.33
630.455	330.02
630.871	290.23
631.287	386.19
631.703	273.84
632.12	283.2
632.536	290.23
632.952	262.14
633.368	327.68
633.783	355.76
634.199	346.4
634.615	271.5
635.031	243.42
635.446	332.36
635.862	257.46
636.277	243.42
636.693	266.82
637.108	299.59
637.524	367.46
637.939	255.12
638.354	294.91
638.77	306.61
639.185	365.12
639.6	299.59
640.015	346.4
640.43	301.93
640.845	306.61
641.259	313.63
641.674	322.99
642.089	304.27
642.504	313.63
642.918	287.89
643.333	287.89
643.747	297.25
644.162	325.33
644.576	273.84
644.991	283.2
645.405	269.16
645.819	259.8
646.233	330.02
646.647	369.8
647.061	374.49
647.475	311.29
647.889	320.65
648.303	285.55
648.717	301.93
649.131	280.86
649.545	266.82
649.958	290.23
650.372	255.12
650.785	318.31
651.199	332.36
651.612	344.06
652.026	332.36
652.439	332.36
652.852	294.91
653.266	278.52
653.679	404.91
654.092	311.29
654.505	325.33
654.918	292.57
655.331	259.8
655.744	304.27
656.156	337.04
656.569	381.51
656.982	280.86
657.394	339.38
657.807	325.33
658.22	266.82
658.632	287.89
659.044	351.08
659.457	351.08
659.869	320.65
660.281	330.02
660.693	311.29
661.106	320.65
661.518	353.42
661.93	313.63
662.342	332.36
662.754	337.04
663.165	374.49
663.577	306.61
663.989	306.61
664.401	386.19
664.812	257.46
665.224	341.72
665.635	306.61
666.047	311.29
666.458	360.44
666.869	297.25
667.281	273.84
667.692	320.65
668.103	341.72
668.514	325.33
668.925	339.38
669.336	308.95
669.747	271.5
670.158	372.15
670.569	367.46
670.979	308.95
671.39	346.4
671.801	346.4
672.211	301.93
672.622	341.72
673.032	271.5
673.443	322.99
673.853	313.63
674.263	285.55
674.674	348.74
675.084	308.95
675.494	287.89
675.904	344.06
676.314	334.7
676.724	308.95
677.134	313.63
677.544	348.74
677.953	344.06
678.363	283.2
678.773	374.49
679.182	348.74
679.592	313.63
680.001	334.7
680.411	290.23
680.82	360.44
681.23	266.82
681.639	339.38
682.048	325.33
682.457	308.95
682.866	269.16
683.275	283.2
683.684	308.95
684.093	283.2
684.502	322.99
684.911	348.74
685.32	308.95
685.728	290.23
686.137	351.08
686.546	283.2
686.954	299.59
687.363	280.86
687.771	313.63
688.179	330.02
688.588	252.78
688.996	327.68
689.404	285.55
689.812	269.16
690.22	294.91
690.628	360.44
691.036	294.91
691.444	273.84
691.852	301.93
692.26	386.19
692.667	306.61
693.075	273.84
693.483	337.04
693.89	313.63
694.298	313.63
694.705	348.74
695.112	327.68
695.52	304.27
695.927	269.16
696.334	255.12
696.741	290.23
697.148	257.46
697.555	325.33
697.962	339.38
698.369	365.12
698.776	308.95
699.183	311.29
699.59	372.15
699.996	351.08
700.403	318.31
700.81	327.68
701.216	337.04
701.623	301.93
702.029	315.97
702.435	304.27
702.842	351.08
703.248	299.59
703.654	304.27
704.06	301.93
704.466	297.25
704.872	320.65
705.278	285.55
705.684	292.57
706.09	276.18
706.496	330.02
706.901	313.63
707.307	301.93
707.712	280.86
708.118	287.89
708.523	355.76
708.929	301.93
709.334	332.36
709.74	280.86
710.145	301.93
710.55	257.46
710.955	337.04
711.36	320.65
711.765	374.49
712.17	383.85
712.575	315.97
712.98	842.59
713.385	346.4
713.789	262.14
714.194	299.59
714.599	339.38
715.003	271.5
715.408	318.31
715.812	346.4
716.217	290.23
716.621	313.63
717.025	407.25
717.429	294.91
717.833	341.72
718.238	322.99
718.642	334.7
719.046	344.06
719.449	372.15
719.853	315.97
720.257	353.42
720.661	301.93
721.065	306.61
721.468	283.2
721.872	287.89
722.275	315.97
722.679	337.04
723.082	287.89
723.485	257.46
723.889	287.89
724.292	334.7
724.695	407.25
725.098	325.33
725.501	358.1
725.904	311.29
726.307	358.1
726.71	287.89
727.113	278.52
727.516	379.17
727.918	332.36
728.321	294.91
728.724	297.25
729.126	334.7
729.529	348.74
729.931	315.97
730.333	283.2
730.736	358.1
731.138	297.25
731.54	360.44
731.942	315.97
732.344	351.08
732.746	327.68
733.148	306.61
733.55	269.16
733.952	334.7
734.354	330.02
734.756	318.31
735.157	264.48
735.559	301.93
735.96	320.65
736.362	327.68
736.763	351.08
737.165	304.27
737.566	304.27
737.967	294.91
738.368	271.5
738.77	278.52
739.171	339.38
739.572	306.61
739.973	325.33
740.374	290.23
740.774	255.12
741.175	360.44
741.576	273.84
741.977	297.25
742.377	285.55
742.778	280.86
743.178	320.65
743.579	327.68
743.979	301.93
744.379	306.61
744.78	285.55
745.18	332.36
745.58	280.86
745.98	243.42
746.38	358.1
746.78	212.99
747.18	320.65
747.58	341.72
747.98	308.95
748.38	308.95
748.779	287.89
749.179	294.91
749.578	311.29
749.978	369.8
750.377	313.63
750.777	301.93
751.176	362.78
751.575	257.46
751.975	301.93
752.374	301.93
752.773	360.44
753.172	339.38
753.571	273.84
753.97	299.59
754.369	318.31
754.768	301.93
755.166	318.31
755.565	308.95
755.964	294.91
756.362	365.12
756.761	308.95
757.159	313.63
757.558	285.55
757.956	292.57
758.354	332.36
758.753	285.55
759.151	259.8
759.549	344.06
759.947	341.72
760.345	278.52
760.743	269.16
761.141	386.19
761.539	278.52
761.936	287.89
762.334	353.42
762.732	311.29
763.129	313.63
763.527	297.25
763.924	297.25
764.322	344.06
764.719	262.14
765.117	334.7
765.514	250.44
