Data from Al_FLMS009871__831__15-30-06-999.txt Node

Date: Fri Mar 08 15:30:06 CST 2024
User: pe5414po
Spectrometer: FLMS00987
Trigger mode: 0
Integration Time (sec): 1.000000E-1
Scans to average: 1
Electric dark correction enabled: true
Nonlinearity correction enabled: false
Boxcar width: 0
XAxis mode: Wavelengths
Number of Pixels in Spectrum: 2048
>>>>>Begin Spectral Data<<<<<
188.938	-70.51
189.409	-70.51
189.879	-70.51
190.349	-65.83
190.819	-105.62
191.29	-145.41
191.76	-152.43
192.23	-131.36
192.7	-96.25
193.17	-65.83
193.64	-9.65
194.109	-56.47
194.579	58.22
195.049	23.11
195.519	30.13
195.988	72.26
196.458	44.18
196.927	48.86
197.397	144.82
197.866	105.03
198.336	130.78
198.805	191.63
199.274	165.89
199.744	163.54
200.213	193.97
200.682	212.7
201.151	238.44
201.62	243.12
202.089	229.08
202.558	191.63
203.027	196.31
203.495	247.8
203.964	282.91
204.433	266.53
204.902	308.66
205.37	287.59
205.839	205.67
206.307	315.68
206.776	308.66
207.244	311
207.712	336.74
208.181	268.87
208.649	327.38
209.117	301.64
209.585	222.06
210.053	296.96
210.521	252.49
210.989	254.83
211.457	357.81
211.925	313.34
212.393	280.57
212.861	254.83
213.328	226.74
213.796	245.46
214.264	275.89
214.731	268.87
215.199	296.96
215.666	287.59
216.133	296.96
216.601	275.89
217.068	247.8
217.535	271.21
218.003	247.8
218.47	257.17
218.937	261.85
219.404	280.57
219.871	245.46
220.338	257.17
220.805	196.31
221.271	250.14
221.738	259.51
222.205	296.96
222.671	299.3
223.138	226.74
223.605	257.17
224.071	271.21
224.538	219.72
225.004	203.33
225.47	287.59
225.937	205.67
226.403	254.83
226.869	271.21
227.335	243.12
227.801	285.25
228.267	226.74
228.733	226.74
229.199	273.55
229.665	240.78
230.131	266.53
230.597	268.87
231.062	217.38
231.528	212.7
231.994	243.12
232.459	247.8
232.925	294.61
233.39	278.23
233.856	308.66
234.321	254.83
234.786	332.06
235.252	243.12
235.717	313.34
236.182	231.42
236.647	306.32
237.112	210.36
237.577	236.1
238.042	238.44
238.507	289.93
238.972	289.93
239.436	285.25
239.901	287.59
240.366	257.17
240.83	250.14
241.295	278.23
241.76	308.66
242.224	238.44
242.688	285.25
243.153	261.85
243.617	275.89
244.081	259.51
244.545	285.25
245.01	271.21
245.474	264.19
245.938	257.17
246.402	299.3
246.866	247.8
247.33	254.83
247.793	222.06
248.257	299.3
248.721	259.51
249.185	327.38
249.648	301.64
250.112	266.53
250.575	268.87
251.039	318.02
251.502	245.46
251.965	325.04
252.429	336.74
252.892	271.21
253.355	208.02
253.818	226.74
254.281	318.02
254.744	296.96
255.207	334.4
255.67	278.23
256.133	311
256.596	226.74
257.059	275.89
257.522	275.89
257.984	275.89
258.447	268.87
258.909	259.51
259.372	313.34
259.834	299.3
260.297	308.66
260.759	229.08
261.221	308.66
261.684	294.61
262.146	292.27
262.608	254.83
263.07	280.57
263.532	268.87
263.994	252.49
264.456	292.27
264.918	306.32
265.38	296.96
265.842	247.8
266.303	296.96
266.765	287.59
267.227	336.74
267.688	332.06
268.15	266.53
268.611	261.85
269.072	299.3
269.534	301.64
269.995	313.34
270.456	266.53
270.918	311
271.379	273.55
271.84	287.59
272.301	294.61
272.762	280.57
273.223	334.4
273.684	315.68
274.144	299.3
274.605	252.49
275.066	301.64
275.527	229.08
275.987	266.53
276.448	245.46
276.908	292.27
277.369	231.42
277.829	252.49
278.289	336.74
278.75	226.74
279.21	268.87
279.67	247.8
280.13	268.87
280.59	287.59
281.05	329.72
281.51	285.25
281.97	243.12
282.43	322.7
282.89	280.57
283.35	292.27
283.809	233.76
284.269	254.83
284.729	313.34
285.188	306.32
285.648	259.51
286.107	278.23
286.567	264.19
287.026	247.8
287.485	318.02
287.944	299.3
288.404	271.21
288.863	259.51
289.322	238.44
289.781	306.32
290.24	296.96
290.699	348.45
291.158	285.25
291.616	280.57
292.075	303.98
292.534	341.43
292.992	259.51
293.451	346.11
293.91	315.68
294.368	308.66
294.827	275.89
295.285	332.06
295.743	315.68
296.202	289.93
296.66	268.87
297.118	289.93
297.576	266.53
298.034	308.66
298.492	306.32
298.95	285.25
299.408	287.59
299.866	322.7
300.324	254.83
300.781	303.98
301.239	261.85
301.697	257.17
302.154	332.06
302.612	367.17
303.069	238.44
303.527	278.23
303.984	289.93
304.441	313.34
304.899	287.59
305.356	261.85
305.813	313.34
306.27	250.14
306.727	346.11
307.184	341.43
307.641	325.04
308.098	247.8
308.555	294.61
309.012	301.64
309.468	322.7
309.925	252.49
310.382	303.98
310.838	271.21
311.295	353.13
311.751	313.34
312.208	282.91
312.664	318.02
313.12	282.91
313.577	261.85
314.033	299.3
314.489	264.19
314.945	329.72
315.401	273.55
315.857	245.46
316.313	236.1
316.769	264.19
317.225	311
317.681	348.45
318.136	259.51
318.592	348.45
319.048	259.51
319.503	292.27
319.959	296.96
320.414	322.7
320.869	259.51
321.325	313.34
321.78	292.27
322.235	308.66
322.691	303.98
323.146	322.7
323.601	336.74
324.056	367.17
324.511	273.55
324.966	243.12
325.421	271.21
325.875	292.27
326.33	320.36
326.785	339.09
327.24	348.45
327.694	254.83
328.149	268.87
328.603	301.64
329.058	315.68
329.512	315.68
329.966	325.04
330.421	336.74
330.875	287.59
331.329	327.38
331.783	247.8
332.237	266.53
332.691	320.36
333.145	322.7
333.599	301.64
334.053	369.51
334.507	229.08
334.96	273.55
335.414	346.11
335.868	254.83
336.321	271.21
336.775	299.3
337.228	367.17
337.682	348.45
338.135	315.68
338.588	292.27
339.042	343.77
339.495	348.45
339.948	250.14
340.401	341.43
340.854	329.72
341.307	360.15
341.76	268.87
342.213	308.66
342.666	289.93
343.119	329.72
343.571	341.43
344.024	303.98
344.477	282.91
344.929	311
345.382	296.96
345.834	303.98
346.287	355.47
346.739	348.45
347.191	311
347.644	364.83
348.096	294.61
348.548	292.27
349	287.59
349.452	268.87
349.904	353.13
350.356	318.02
350.808	311
351.26	280.57
351.711	327.38
352.163	299.3
352.615	334.4
353.066	334.4
353.518	278.23
353.969	287.59
354.421	301.64
354.872	313.34
355.324	243.12
355.775	294.61
356.226	355.47
356.677	268.87
357.128	322.7
357.579	301.64
358.03	266.53
358.481	320.36
358.932	275.89
359.383	336.74
359.834	343.77
360.285	294.61
360.735	315.68
361.186	247.8
361.637	311
362.087	280.57
362.538	294.61
362.988	369.51
363.438	350.79
363.889	273.55
364.339	362.49
364.789	261.85
365.239	275.89
365.689	341.43
366.139	306.32
366.589	266.53
367.039	367.17
367.489	261.85
367.939	289.93
368.389	275.89
368.839	266.53
369.288	287.59
369.738	278.23
370.187	292.27
370.637	350.79
371.086	289.93
371.536	257.17
371.985	322.7
372.434	320.36
372.884	294.61
373.333	325.04
373.782	294.61
374.231	280.57
374.68	325.04
375.129	350.79
375.578	280.57
376.027	257.17
376.475	273.55
376.924	332.06
377.373	238.44
377.822	250.14
378.27	332.06
378.719	278.23
379.167	303.98
379.616	355.47
380.064	285.25
380.512	252.49
380.961	341.43
381.409	294.61
381.857	320.36
382.305	355.47
382.753	329.72
383.201	289.93
383.649	332.06
384.097	343.77
384.545	282.91
384.992	254.83
385.44	311
385.888	308.66
386.335	332.06
386.783	296.96
387.231	357.81
387.678	306.32
388.125	339.09
388.573	383.56
389.02	299.3
389.467	353.13
389.914	318.02
390.362	278.23
390.809	296.96
391.256	311
391.703	327.38
392.15	306.32
392.596	303.98
393.043	318.02
393.49	268.87
393.937	240.78
394.383	364.83
394.83	350.79
395.276	296.96
395.723	346.11
396.169	266.53
396.616	371.85
397.062	280.57
397.508	318.02
397.954	278.23
398.401	233.76
398.847	303.98
399.293	334.4
399.739	301.64
400.185	332.06
400.631	292.27
401.076	318.02
401.522	285.25
401.968	264.19
402.414	350.79
402.859	245.46
403.305	329.72
403.75	336.74
404.196	320.36
404.641	336.74
405.086	245.46
405.532	329.72
405.977	320.36
406.422	301.64
406.867	301.64
407.312	306.32
407.757	292.27
408.202	264.19
408.647	325.04
409.092	320.36
409.537	355.47
409.982	292.27
410.426	296.96
410.871	280.57
411.316	292.27
411.76	320.36
412.205	325.04
412.649	303.98
413.093	273.55
413.538	343.77
413.982	301.64
414.426	289.93
414.87	374.19
415.314	339.09
415.758	308.66
416.202	395.26
416.646	273.55
417.09	315.68
417.534	329.72
417.978	339.09
418.421	348.45
418.865	320.36
419.309	243.12
419.752	362.49
420.196	334.4
420.639	301.64
421.083	329.72
421.526	343.77
421.969	313.34
422.412	332.06
422.856	292.27
423.299	329.72
423.742	275.89
424.185	318.02
424.628	285.25
425.071	301.64
425.513	273.55
425.956	280.57
426.399	329.72
426.842	322.7
427.284	208.02
427.727	245.46
428.169	362.49
428.612	301.64
429.054	243.12
429.497	325.04
429.939	315.68
430.381	336.74
430.823	315.68
431.265	311
431.707	247.8
432.149	285.25
432.591	231.42
433.033	322.7
433.475	339.09
433.917	289.93
434.359	257.17
434.8	275.89
435.242	327.38
435.684	306.32
436.125	311
436.567	257.17
437.008	355.47
437.449	348.45
437.891	224.4
438.332	311
438.773	224.4
439.214	301.64
439.656	306.32
440.097	282.91
440.538	311
440.978	222.06
441.419	325.04
441.86	364.83
442.301	325.04
442.742	320.36
443.182	350.79
443.623	378.87
444.063	376.53
444.504	378.87
444.944	329.72
445.385	308.66
445.825	285.25
446.265	306.32
446.706	294.61
447.146	301.64
447.586	315.68
448.026	402.28
448.466	411.64
448.906	327.38
449.346	315.68
449.786	327.38
450.225	311
450.665	254.83
451.105	296.96
451.544	308.66
451.984	292.27
452.424	268.87
452.863	325.04
453.302	346.11
453.742	273.55
454.181	301.64
454.62	341.43
455.059	299.3
455.499	292.27
455.938	306.32
456.377	296.96
456.816	238.44
457.254	357.81
457.693	325.04
458.132	308.66
458.571	294.61
459.01	285.25
459.448	311
459.887	252.49
460.325	306.32
460.764	332.06
461.202	308.66
461.641	301.64
462.079	357.81
462.517	332.06
462.955	336.74
463.393	306.32
463.832	343.77
464.27	390.58
464.708	336.74
465.145	357.81
465.583	336.74
466.021	313.34
466.459	341.43
466.897	259.51
467.334	348.45
467.772	353.13
468.209	257.17
468.647	364.83
469.084	280.57
469.522	287.59
469.959	308.66
470.396	341.43
470.833	357.81
471.271	268.87
471.708	303.98
472.145	296.96
472.582	299.3
473.019	306.32
473.456	289.93
473.892	275.89
474.329	313.34
474.766	250.14
475.202	247.8
475.639	250.14
476.076	416.32
476.512	285.25
476.949	322.7
477.385	308.66
477.821	355.47
478.258	271.21
478.694	257.17
479.13	299.3
479.566	282.91
480.002	334.4
480.438	278.23
480.874	275.89
481.31	329.72
481.746	231.42
482.181	294.61
482.617	299.3
483.053	257.17
483.488	306.32
483.924	196.31
484.36	341.43
484.795	311
485.23	252.49
485.666	308.66
486.101	292.27
486.536	327.38
486.971	250.14
487.407	315.68
487.842	371.85
488.277	250.14
488.712	301.64
489.146	280.57
489.581	327.38
490.016	313.34
490.451	303.98
490.885	240.78
491.32	395.26
491.755	311
492.189	355.47
492.624	336.74
493.058	318.02
493.492	282.91
493.927	245.46
494.361	353.13
494.795	329.72
495.229	259.51
495.663	320.36
496.097	301.64
496.531	350.79
496.965	296.96
497.399	378.87
497.833	301.64
498.266	325.04
498.7	285.25
499.134	266.53
499.567	322.7
500.001	306.32
500.434	285.25
500.868	313.34
501.301	303.98
501.734	285.25
502.168	271.21
502.601	327.38
503.034	299.3
503.467	299.3
503.9	322.7
504.333	292.27
504.766	278.23
505.199	250.14
505.632	348.45
506.064	271.21
506.497	278.23
506.93	322.7
507.362	294.61
507.795	282.91
508.227	301.64
508.66	360.15
509.092	289.93
509.524	243.12
509.956	320.36
510.389	208.02
510.821	355.47
511.253	339.09
511.685	268.87
512.117	231.42
512.549	353.13
512.981	301.64
513.412	306.32
513.844	336.74
514.276	322.7
514.707	374.19
515.139	357.81
515.571	341.43
516.002	292.27
516.433	303.98
516.865	287.59
517.296	296.96
517.727	257.17
518.159	357.81
518.59	327.38
519.021	252.49
519.452	285.25
519.883	289.93
520.314	292.27
520.744	348.45
521.175	296.96
521.606	266.53
522.037	306.32
522.467	334.4
522.898	301.64
523.328	322.7
523.759	322.7
524.189	266.53
524.62	308.66
525.05	367.17
525.48	289.93
525.91	313.34
526.341	289.93
526.771	259.51
527.201	282.91
527.631	334.4
528.061	285.25
528.49	278.23
528.92	313.34
529.35	357.81
529.78	346.11
530.209	257.17
530.639	313.34
531.068	247.8
531.498	278.23
531.927	282.91
532.357	360.15
532.786	318.02
533.215	252.49
533.644	341.43
534.074	315.68
534.503	294.61
534.932	325.04
535.361	371.85
535.79	289.93
536.218	303.98
536.647	313.34
537.076	285.25
537.505	308.66
537.933	325.04
538.362	346.11
538.79	341.43
539.219	322.7
539.647	329.72
540.076	294.61
540.504	334.4
540.932	392.92
541.36	303.98
541.788	339.09
542.217	285.25
542.645	280.57
543.073	236.1
543.5	285.25
543.928	315.68
544.356	271.21
544.784	273.55
545.211	268.87
545.639	308.66
546.067	318.02
546.494	296.96
546.922	259.51
547.349	336.74
547.776	343.77
548.204	315.68
548.631	336.74
549.058	318.02
549.485	282.91
549.912	308.66
550.339	346.11
550.766	404.62
551.193	353.13
551.62	259.51
552.047	296.96
552.474	311
552.9	320.36
553.327	294.61
553.754	364.83
554.18	360.15
554.607	367.17
555.033	311
555.459	308.66
555.886	348.45
556.312	322.7
556.738	367.17
557.164	339.09
557.59	292.27
558.016	339.09
558.442	303.98
558.868	296.96
559.294	301.64
559.72	311
560.145	282.91
560.571	341.43
560.997	303.98
561.422	296.96
561.848	325.04
562.273	353.13
562.699	271.21
563.124	289.93
563.549	285.25
563.974	238.44
564.4	364.83
564.825	231.42
565.25	273.55
565.675	341.43
566.1	280.57
566.525	311
566.95	350.79
567.374	311
567.799	332.06
568.224	287.59
568.648	329.72
569.073	322.7
569.497	306.32
569.922	238.44
570.346	350.79
570.771	371.85
571.195	299.3
571.619	289.93
572.043	341.43
572.467	369.51
572.891	252.49
573.315	334.4
573.739	292.27
574.163	355.47
574.587	294.61
575.011	362.49
575.435	350.79
575.858	301.64
576.282	320.36
576.705	271.21
577.129	303.98
577.552	308.66
577.976	292.27
578.399	282.91
578.822	320.36
579.245	322.7
579.669	292.27
580.092	301.64
580.515	334.4
580.938	287.59
581.361	346.11
581.784	306.32
582.206	264.19
582.629	271.21
583.052	275.89
583.474	282.91
583.897	355.47
584.32	296.96
584.742	296.96
585.165	266.53
585.587	315.68
586.009	315.68
586.431	322.7
586.854	289.93
587.276	299.3
587.698	341.43
588.12	308.66
588.542	322.7
588.964	348.45
589.386	339.09
589.807	336.74
590.229	343.77
590.651	318.02
591.073	320.36
591.494	353.13
591.916	329.72
592.337	261.85
592.759	311
593.18	282.91
593.601	252.49
594.022	325.04
594.444	306.32
594.865	301.64
595.286	236.1
595.707	264.19
596.128	303.98
596.549	341.43
596.97	329.72
597.39	329.72
597.811	371.85
598.232	332.06
598.652	252.49
599.073	362.49
599.494	268.87
599.914	271.21
600.334	299.3
600.755	245.46
601.175	355.47
601.595	289.93
602.015	334.4
602.436	301.64
602.856	451.43
603.276	306.32
603.696	268.87
604.115	261.85
604.535	315.68
604.955	212.7
605.375	341.43
605.794	294.61
606.214	329.72
606.634	378.87
607.053	374.19
607.473	303.98
607.892	355.47
608.311	329.72
608.731	252.49
609.15	320.36
609.569	378.87
609.988	325.04
610.407	357.81
610.826	320.36
611.245	353.13
611.664	289.93
612.083	261.85
612.501	273.55
612.92	325.04
613.339	299.3
613.757	311
614.176	292.27
614.594	296.96
615.013	308.66
615.431	325.04
615.85	329.72
616.268	250.14
616.686	275.89
617.104	296.96
617.522	308.66
617.94	306.32
618.358	289.93
618.776	322.7
619.194	313.34
619.612	264.19
620.03	285.25
620.447	282.91
620.865	261.85
621.282	318.02
621.7	390.58
622.117	303.98
622.535	339.09
622.952	357.81
623.369	222.06
623.787	322.7
624.204	243.12
624.621	334.4
625.038	325.04
625.455	294.61
625.872	327.38
626.289	334.4
626.706	350.79
627.123	308.66
627.539	247.8
627.956	268.87
628.373	271.21
628.789	346.11
629.206	348.45
629.622	285.25
630.038	327.38
630.455	306.32
630.871	278.23
631.287	315.68
631.703	299.3
632.12	343.77
632.536	355.47
632.952	313.34
633.368	280.57
633.783	357.81
634.199	364.83
634.615	296.96
635.031	294.61
635.446	329.72
635.862	329.72
636.277	311
636.693	336.74
637.108	289.93
637.524	311
637.939	240.78
638.354	315.68
638.77	334.4
639.185	254.83
639.6	278.23
640.015	346.11
640.43	247.8
640.845	285.25
641.259	254.83
641.674	313.34
642.089	278.23
642.504	303.98
642.918	346.11
643.333	334.4
643.747	275.89
644.162	303.98
644.576	318.02
644.991	306.32
645.405	350.79
645.819	336.74
646.233	318.02
646.647	254.83
647.061	341.43
647.475	341.43
647.889	343.77
648.303	325.04
648.717	264.19
649.131	266.53
649.545	322.7
649.958	336.74
650.372	243.12
650.785	329.72
651.199	261.85
651.612	332.06
652.026	381.21
652.439	357.81
652.852	329.72
653.266	287.59
653.679	257.17
654.092	299.3
654.505	292.27
654.918	311
655.331	285.25
655.744	332.06
656.156	334.4
656.569	306.32
656.982	334.4
657.394	252.49
657.807	275.89
658.22	346.11
658.632	261.85
659.044	336.74
659.457	278.23
659.869	247.8
660.281	320.36
660.693	278.23
661.106	306.32
661.518	308.66
661.93	285.25
662.342	348.45
662.754	332.06
663.165	346.11
663.577	287.59
663.989	350.79
664.401	287.59
664.812	332.06
665.224	212.7
665.635	318.02
666.047	346.11
666.458	303.98
666.869	308.66
667.281	360.15
667.692	320.36
668.103	315.68
668.514	360.15
668.925	334.4
669.336	355.47
669.747	329.72
670.158	280.57
670.569	280.57
670.979	271.21
671.39	287.59
671.801	278.23
672.211	306.32
672.622	362.49
673.032	282.91
673.443	360.15
673.853	327.38
674.263	336.74
674.674	303.98
675.084	334.4
675.494	280.57
675.904	264.19
676.314	222.06
676.724	219.72
677.134	294.61
677.544	367.17
677.953	250.14
678.363	294.61
678.773	332.06
679.182	285.25
679.592	301.64
680.001	318.02
680.411	285.25
680.82	285.25
681.23	322.7
681.639	245.46
682.048	315.68
682.457	336.74
682.866	257.17
683.275	327.38
683.684	264.19
684.093	266.53
684.502	339.09
684.911	303.98
685.32	282.91
685.728	381.21
686.137	275.89
686.546	334.4
686.954	355.47
687.363	348.45
687.771	341.43
688.179	364.83
688.588	303.98
688.996	259.51
689.404	329.72
689.812	341.43
690.22	278.23
690.628	285.25
691.036	318.02
691.444	296.96
691.852	303.98
692.26	285.25
692.667	289.93
693.075	311
693.483	327.38
693.89	378.87
694.298	266.53
694.705	296.96
695.112	357.81
695.52	306.32
695.927	303.98
696.334	294.61
696.741	318.02
697.148	311
697.555	341.43
697.962	299.3
698.369	318.02
698.776	357.81
699.183	273.55
699.59	294.61
699.996	343.77
700.403	292.27
700.81	320.36
701.216	306.32
701.623	229.08
702.029	313.34
702.435	343.77
702.842	306.32
703.248	322.7
703.654	266.53
704.06	360.15
704.466	364.83
704.872	280.57
705.278	332.06
705.684	303.98
706.09	303.98
706.496	376.53
706.901	301.64
707.307	299.3
707.712	332.06
708.118	299.3
708.523	306.32
708.929	315.68
709.334	273.55
709.74	275.89
710.145	292.27
710.55	313.34
710.955	257.17
711.36	339.09
711.765	402.28
712.17	320.36
712.575	299.3
712.98	804.85
713.385	362.49
713.789	296.96
714.194	311
714.599	306.32
715.003	296.96
715.408	294.61
715.812	322.7
716.217	306.32
716.621	341.43
717.025	261.85
717.429	303.98
717.833	280.57
718.238	346.11
718.642	308.66
719.046	278.23
719.449	294.61
719.853	311
720.257	273.55
720.661	296.96
721.065	322.7
721.468	374.19
721.872	348.45
722.275	268.87
722.679	275.89
723.082	336.74
723.485	320.36
723.889	320.36
724.292	285.25
724.695	318.02
725.098	329.72
725.501	320.36
725.904	343.77
726.307	327.38
726.71	278.23
727.113	226.74
727.516	287.59
727.918	285.25
728.321	343.77
728.724	261.85
729.126	250.14
729.529	299.3
729.931	360.15
730.333	327.38
730.736	353.13
731.138	318.02
731.54	334.4
731.942	336.74
732.344	325.04
732.746	341.43
733.148	325.04
733.55	327.38
733.952	357.81
734.354	303.98
734.756	341.43
735.157	336.74
735.559	334.4
735.96	306.32
736.362	285.25
736.763	261.85
737.165	353.13
737.566	285.25
737.967	299.3
738.368	294.61
738.77	268.87
739.171	313.34
739.572	275.89
739.973	306.32
740.374	341.43
740.774	294.61
741.175	275.89
741.576	299.3
741.977	332.06
742.377	247.8
742.778	332.06
743.178	308.66
743.579	268.87
743.979	252.49
744.379	299.3
744.78	289.93
745.18	287.59
745.58	257.17
745.98	282.91
746.38	301.64
746.78	292.27
747.18	299.3
747.58	243.12
747.98	334.4
748.38	282.91
748.779	217.38
749.179	320.36
749.578	282.91
749.978	327.38
750.377	306.32
750.777	311
751.176	339.09
751.575	334.4
751.975	278.23
752.374	346.11
752.773	231.42
753.172	282.91
753.571	322.7
753.97	303.98
754.369	362.49
754.768	364.83
755.166	287.59
755.565	322.7
755.964	289.93
756.362	280.57
756.761	334.4
757.159	327.38
757.558	318.02
757.956	296.96
758.354	329.72
758.753	327.38
759.151	296.96
759.549	320.36
759.947	308.66
760.345	282.91
760.743	287.59
761.141	289.93
761.539	367.17
761.936	278.23
762.334	334.4
762.732	252.49
763.129	287.59
763.527	296.96
763.924	355.47
764.322	271.21
764.719	329.72
765.117	182.27
765.514	280.57
765.911	357.81
766.308	236.1
766.705	320.36
767.102	280.57
767.499	226.74
