Data from Al_FLMS009871__785__15-21-47-414.txt Node

Date: Fri Mar 08 15:21:47 CST 2024
User: pe5414po
Spectrometer: FLMS00987
Trigger mode: 0
Integration Time (sec): 1.000000E-1
Scans to average: 1
Electric dark correction enabled: true
Nonlinearity correction enabled: false
Boxcar width: 0
XAxis mode: Wavelengths
Number of Pixels in Spectrum: 2048
>>>>>Begin Spectral Data<<<<<
188.938	-103.42
189.409	-103.42
189.879	-103.42
190.349	-119.81
190.819	-103.42
191.29	-112.78
191.76	-75.34
192.23	-75.34
192.7	-33.21
193.17	-56.61
193.64	-70.65
194.109	27.65
194.579	13.6
195.049	-77.68
195.519	-19.16
195.988	6.58
196.458	37.01
196.927	48.71
197.397	128.29
197.866	163.4
198.336	95.52
198.805	139.99
199.274	102.54
199.744	207.87
200.213	156.38
200.682	172.76
201.151	238.3
201.62	238.3
202.089	257.02
202.558	184.46
203.027	226.59
203.495	240.64
203.964	198.51
204.433	282.77
204.902	245.32
205.37	257.02
205.839	278.08
206.307	257.02
206.776	261.7
207.244	275.74
207.712	315.53
208.181	264.04
208.649	268.72
209.117	271.06
209.585	301.49
210.053	278.08
210.521	242.98
210.989	282.77
211.457	252.34
211.925	238.3
212.393	212.55
212.861	266.38
213.328	327.24
213.796	313.19
214.264	282.77
214.731	278.08
215.199	329.58
215.666	280.43
216.133	254.68
216.601	233.61
217.068	226.59
217.535	257.02
218.003	154.04
218.47	360
218.937	238.3
219.404	289.79
219.871	240.64
220.338	212.55
220.805	296.81
221.271	240.64
221.738	224.25
222.205	264.04
222.671	245.32
223.138	301.49
223.605	198.51
224.071	275.74
224.538	271.06
225.004	196.17
225.47	233.61
225.937	285.11
226.403	217.23
226.869	163.4
227.335	257.02
227.801	261.7
228.267	254.68
228.733	224.25
229.199	287.45
229.665	301.49
230.131	191.49
230.597	238.3
231.062	261.7
231.528	259.36
231.994	233.61
232.459	273.4
232.925	179.78
233.39	135.31
233.856	296.81
234.321	271.06
234.786	257.02
235.252	303.83
235.717	282.77
236.182	254.68
236.647	257.02
237.112	235.96
237.577	259.36
238.042	266.38
238.507	224.25
238.972	226.59
239.436	280.43
239.901	278.08
240.366	254.68
240.83	238.3
241.295	275.74
241.76	303.83
242.224	254.68
242.688	257.02
243.153	310.85
243.617	245.32
244.081	301.49
244.545	275.74
245.01	324.9
245.474	331.92
245.938	294.47
246.402	299.15
246.866	250
247.33	278.08
247.793	273.4
248.257	250
248.721	266.38
249.185	273.4
249.648	264.04
250.112	271.06
250.575	240.64
251.039	245.32
251.502	303.83
251.965	224.25
252.429	271.06
252.892	278.08
253.355	299.15
253.818	268.72
254.281	261.7
254.744	289.79
255.207	273.4
255.67	261.7
256.133	315.53
256.596	224.25
257.059	257.02
257.522	238.3
257.984	303.83
258.447	324.9
258.909	285.11
259.372	315.53
259.834	310.85
260.297	310.85
260.759	301.49
261.221	268.72
261.684	264.04
262.146	289.79
262.608	275.74
263.07	266.38
263.532	296.81
263.994	289.79
264.456	289.79
264.918	315.53
265.38	245.32
265.842	240.64
266.303	224.25
266.765	275.74
267.227	329.58
267.688	303.83
268.15	273.4
268.611	275.74
269.072	240.64
269.534	303.83
269.995	245.32
270.456	308.51
270.918	282.77
271.379	245.32
271.84	287.45
272.301	285.11
272.762	266.38
273.223	280.43
273.684	289.79
274.144	273.4
274.605	282.77
275.066	306.17
275.527	285.11
275.987	280.43
276.448	242.98
276.908	336.6
277.369	292.13
277.829	310.85
278.289	345.96
278.75	355.32
279.21	257.02
279.67	289.79
280.13	271.06
280.59	271.06
281.05	299.15
281.51	250
281.97	327.24
282.43	280.43
282.89	280.43
283.35	261.7
283.809	207.87
284.269	271.06
284.729	247.66
285.188	308.51
285.648	242.98
286.107	303.83
286.567	280.43
287.026	320.21
287.485	313.19
287.944	257.02
288.404	306.17
288.863	313.19
289.322	261.7
289.781	296.81
290.24	306.17
290.699	367.03
291.158	240.64
291.616	299.15
292.075	203.19
292.534	250
292.992	252.34
293.451	250
293.91	275.74
294.368	315.53
294.827	320.21
295.285	257.02
295.743	296.81
296.202	315.53
296.66	259.36
297.118	285.11
297.576	362.34
298.034	320.21
298.492	329.58
298.95	296.81
299.408	301.49
299.866	259.36
300.324	313.19
300.781	238.3
301.239	343.62
301.697	242.98
302.154	282.77
302.612	250
303.069	315.53
303.527	287.45
303.984	266.38
304.441	289.79
304.899	273.4
305.356	343.62
305.813	324.9
306.27	310.85
306.727	238.3
307.184	294.47
307.641	306.17
308.098	301.49
308.555	327.24
309.012	268.72
309.468	278.08
309.925	235.96
310.382	247.66
310.838	289.79
311.295	287.45
311.751	245.32
312.208	252.34
312.664	324.9
313.12	271.06
313.577	301.49
314.033	285.11
314.489	280.43
314.945	207.87
315.401	285.11
315.857	242.98
316.313	259.36
316.769	303.83
317.225	275.74
317.681	282.77
318.136	289.79
318.592	235.96
319.048	315.53
319.503	273.4
319.959	294.47
320.414	294.47
320.869	289.79
321.325	320.21
321.78	317.87
322.235	278.08
322.691	390.43
323.146	285.11
323.601	247.66
324.056	313.19
324.511	296.81
324.966	287.45
325.421	259.36
325.875	287.45
326.33	273.4
326.785	250
327.24	329.58
327.694	301.49
328.149	226.59
328.603	308.51
329.058	273.4
329.512	303.83
329.966	299.15
330.421	331.92
330.875	285.11
331.329	280.43
331.783	273.4
332.237	355.32
332.691	282.77
333.145	282.77
333.599	275.74
334.053	294.47
334.507	257.02
334.96	388.09
335.414	294.47
335.868	250
336.321	301.49
336.775	306.17
337.228	282.77
337.682	259.36
338.135	320.21
338.588	219.57
339.042	296.81
339.495	336.6
339.948	352.98
340.401	271.06
340.854	334.26
341.307	278.08
341.76	280.43
342.213	282.77
342.666	266.38
343.119	324.9
343.571	282.77
344.024	299.15
344.477	242.98
344.929	268.72
345.382	287.45
345.834	313.19
346.287	317.87
346.739	275.74
347.191	273.4
347.644	329.58
348.096	329.58
348.548	355.32
349	259.36
349.452	303.83
349.904	294.47
350.356	355.32
350.808	299.15
351.26	306.17
351.711	306.17
352.163	348.3
352.615	275.74
353.066	289.79
353.518	334.26
353.969	301.49
354.421	336.6
354.872	329.58
355.324	299.15
355.775	198.51
356.226	336.6
356.677	322.56
357.128	280.43
357.579	275.74
358.03	289.79
358.481	294.47
358.932	320.21
359.383	280.43
359.834	348.3
360.285	308.51
360.735	310.85
361.186	369.37
361.637	336.6
362.087	303.83
362.538	257.02
362.988	289.79
363.438	301.49
363.889	355.32
364.339	315.53
364.789	235.96
365.239	285.11
365.689	313.19
366.139	331.92
366.589	254.68
367.039	322.56
367.489	310.85
367.939	320.21
368.389	329.58
368.839	317.87
369.288	250
369.738	336.6
370.187	303.83
370.637	275.74
371.086	308.51
371.536	296.81
371.985	308.51
372.434	324.9
372.884	334.26
373.333	308.51
373.782	273.4
374.231	355.32
374.68	259.36
375.129	310.85
375.578	294.47
376.027	336.6
376.475	345.96
376.924	315.53
377.373	299.15
377.822	306.17
378.27	299.15
378.719	322.56
379.167	338.94
379.616	360
380.064	292.13
380.512	294.47
380.961	334.26
381.409	313.19
381.857	338.94
382.305	271.06
382.753	306.17
383.201	334.26
383.649	282.77
384.097	280.43
384.545	336.6
384.992	334.26
385.44	310.85
385.888	271.06
386.335	341.28
386.783	313.19
387.231	343.62
387.678	299.15
388.125	299.15
388.573	338.94
389.02	292.13
389.467	292.13
389.914	280.43
390.362	299.15
390.809	285.11
391.256	289.79
391.703	355.32
392.15	261.7
392.596	341.28
393.043	320.21
393.49	294.47
393.937	271.06
394.383	317.87
394.83	310.85
395.276	247.66
395.723	250
396.169	266.38
396.616	271.06
397.062	317.87
397.508	292.13
397.954	301.49
398.401	282.77
398.847	294.47
399.293	303.83
399.739	303.83
400.185	313.19
400.631	289.79
401.076	296.81
401.522	306.17
401.968	357.66
402.414	329.58
402.859	266.38
403.305	292.13
403.75	273.4
404.196	294.47
404.641	280.43
405.086	329.58
405.532	299.15
405.977	289.79
406.422	338.94
406.867	317.87
407.312	327.24
407.757	275.74
408.202	228.93
408.647	261.7
409.092	345.96
409.537	327.24
409.982	334.26
410.426	310.85
410.871	350.64
411.316	294.47
411.76	247.66
412.205	357.66
412.649	341.28
413.093	390.43
413.538	315.53
413.982	334.26
414.426	322.56
414.87	278.08
415.314	301.49
415.758	287.45
416.202	287.45
416.646	287.45
417.09	315.53
417.534	345.96
417.978	367.03
418.421	287.45
418.865	264.04
419.309	338.94
419.752	299.15
420.196	369.37
420.639	301.49
421.083	303.83
421.526	308.51
421.969	271.06
422.412	278.08
422.856	266.38
423.299	292.13
423.742	388.09
424.185	341.28
424.628	287.45
425.071	273.4
425.513	294.47
425.956	306.17
426.399	273.4
426.842	334.26
427.284	317.87
427.727	338.94
428.169	352.98
428.612	341.28
429.054	278.08
429.497	224.25
429.939	299.15
430.381	343.62
430.823	282.77
431.265	310.85
431.707	266.38
432.149	247.66
432.591	301.49
433.033	247.66
433.475	266.38
433.917	296.81
434.359	292.13
434.8	336.6
435.242	287.45
435.684	287.45
436.125	343.62
436.567	322.56
437.008	280.43
437.449	268.72
437.891	343.62
438.332	301.49
438.773	329.58
439.214	280.43
439.656	301.49
440.097	343.62
440.538	266.38
440.978	285.11
441.419	285.11
441.86	327.24
442.301	315.53
442.742	306.17
443.182	334.26
443.623	254.68
444.063	271.06
444.504	235.96
444.944	287.45
445.385	338.94
445.825	308.51
446.265	322.56
446.706	280.43
447.146	296.81
447.586	303.83
448.026	266.38
448.466	310.85
448.906	317.87
449.346	324.9
449.786	310.85
450.225	357.66
450.665	317.87
451.105	303.83
451.544	254.68
451.984	294.47
452.424	331.92
452.863	252.34
453.302	273.4
453.742	299.15
454.181	320.21
454.62	320.21
455.059	303.83
455.499	257.02
455.938	219.57
456.377	360
456.816	317.87
457.254	268.72
457.693	320.21
458.132	282.77
458.571	282.77
459.01	275.74
459.448	306.17
459.887	294.47
460.325	280.43
460.764	317.87
461.202	259.36
461.641	329.58
462.079	306.17
462.517	322.56
462.955	355.32
463.393	301.49
463.832	322.56
464.27	315.53
464.708	301.49
465.145	336.6
465.583	402.13
466.021	315.53
466.459	310.85
466.897	331.92
467.334	308.51
467.772	303.83
468.209	348.3
468.647	289.79
469.084	282.77
469.522	336.6
469.959	217.23
470.396	355.32
470.833	313.19
471.271	313.19
471.708	289.79
472.145	294.47
472.582	257.02
473.019	282.77
473.456	250
473.892	280.43
474.329	278.08
474.766	329.58
475.202	252.34
475.639	329.58
476.076	285.11
476.512	338.94
476.949	289.79
477.385	345.96
477.821	289.79
478.258	334.26
478.694	271.06
479.13	238.3
479.566	313.19
480.002	294.47
480.438	282.77
480.874	364.68
481.31	343.62
481.746	352.98
482.181	324.9
482.617	322.56
483.053	247.66
483.488	348.3
483.924	254.68
484.36	235.96
484.795	296.81
485.23	310.85
485.666	308.51
486.101	360
486.536	350.64
486.971	273.4
487.407	294.47
487.842	317.87
488.277	334.26
488.712	338.94
489.146	275.74
489.581	292.13
490.016	402.13
490.451	348.3
490.885	275.74
491.32	320.21
491.755	289.79
492.189	369.37
492.624	257.02
493.058	292.13
493.492	280.43
493.927	327.24
494.361	292.13
494.795	343.62
495.229	275.74
495.663	285.11
496.097	345.96
496.531	266.38
496.965	306.17
497.399	273.4
497.833	254.68
498.266	308.51
498.7	292.13
499.134	282.77
499.567	275.74
500.001	280.43
500.434	308.51
500.868	294.47
501.301	247.66
501.734	259.36
502.168	374.05
502.601	228.93
503.034	310.85
503.467	264.04
503.9	324.9
504.333	299.15
504.766	254.68
505.199	327.24
505.632	289.79
506.064	240.64
506.497	228.93
506.93	322.56
507.362	289.79
507.795	327.24
508.227	278.08
508.66	259.36
509.092	273.4
509.524	331.92
509.956	238.3
510.389	287.45
510.821	310.85
511.253	289.79
511.685	292.13
512.117	278.08
512.549	301.49
512.981	331.92
513.412	294.47
513.844	275.74
514.276	278.08
514.707	317.87
515.139	259.36
515.571	329.58
516.002	320.21
516.433	310.85
516.865	355.32
517.296	348.3
517.727	294.47
518.159	271.06
518.59	322.56
519.021	294.47
519.452	275.74
519.883	329.58
520.314	336.6
520.744	301.49
521.175	310.85
521.606	292.13
522.037	331.92
522.467	289.79
522.898	303.83
523.328	261.7
523.759	331.92
524.189	264.04
524.62	322.56
525.05	301.49
525.48	313.19
525.91	301.49
526.341	341.28
526.771	343.62
527.201	327.24
527.631	231.27
528.061	336.6
528.49	268.72
528.92	282.77
529.35	308.51
529.78	367.03
530.209	336.6
530.639	315.53
531.068	257.02
531.498	233.61
531.927	275.74
532.357	317.87
532.786	282.77
533.215	254.68
533.644	345.96
534.074	329.58
534.503	271.06
534.932	317.87
535.361	364.68
535.79	345.96
536.218	331.92
536.647	303.83
537.076	331.92
537.505	317.87
537.933	261.7
538.362	273.4
538.79	315.53
539.219	273.4
539.647	303.83
540.076	261.7
540.504	261.7
540.932	240.64
541.36	331.92
541.788	329.58
542.217	341.28
542.645	355.32
543.073	306.17
543.5	306.17
543.928	257.02
544.356	296.81
544.784	257.02
545.211	334.26
545.639	310.85
546.067	301.49
546.494	338.94
546.922	273.4
547.349	264.04
547.776	271.06
548.204	252.34
548.631	303.83
549.058	271.06
549.485	214.89
549.912	285.11
550.339	322.56
550.766	310.85
551.193	313.19
551.62	285.11
552.047	329.58
552.474	320.21
552.9	266.38
553.327	329.58
553.754	334.26
554.18	285.11
554.607	238.3
555.033	282.77
555.459	308.51
555.886	292.13
556.312	324.9
556.738	296.81
557.164	303.83
557.59	266.38
558.016	299.15
558.442	352.98
558.868	296.81
559.294	324.9
559.72	264.04
560.145	313.19
560.571	399.79
560.997	306.17
561.422	268.72
561.848	252.34
562.273	296.81
562.699	315.53
563.124	301.49
563.549	352.98
563.974	289.79
564.4	348.3
564.825	273.4
565.25	224.25
565.675	367.03
566.1	280.43
566.525	299.15
566.95	341.28
567.374	336.6
567.799	303.83
568.224	341.28
568.648	345.96
569.073	273.4
569.497	285.11
569.922	296.81
570.346	264.04
570.771	294.47
571.195	327.24
571.619	268.72
572.043	287.45
572.467	341.28
572.891	334.26
573.315	327.24
573.739	278.08
574.163	282.77
574.587	324.9
575.011	315.53
575.435	322.56
575.858	287.45
576.282	345.96
576.705	268.72
577.129	273.4
577.552	334.26
577.976	296.81
578.399	261.7
578.822	334.26
579.245	289.79
579.669	287.45
580.092	343.62
580.515	317.87
580.938	320.21
581.361	294.47
581.784	292.13
582.206	287.45
582.629	289.79
583.052	294.47
583.474	292.13
583.897	261.7
584.32	296.81
584.742	327.24
585.165	287.45
585.587	261.7
586.009	313.19
586.431	226.59
586.854	317.87
587.276	287.45
587.698	331.92
588.12	278.08
588.542	374.05
588.964	308.51
589.386	315.53
589.807	259.36
590.229	310.85
590.651	322.56
591.073	294.47
591.494	320.21
591.916	301.49
592.337	308.51
592.759	292.13
593.18	296.81
593.601	285.11
594.022	341.28
594.444	317.87
594.865	336.6
595.286	310.85
595.707	329.58
596.128	362.34
596.549	322.56
596.97	261.7
597.39	299.15
597.811	289.79
598.232	301.49
598.652	324.9
599.073	280.43
599.494	294.47
599.914	313.19
600.334	313.19
600.755	306.17
601.175	336.6
601.595	273.4
602.015	371.71
602.436	301.49
602.856	470.01
603.276	336.6
603.696	336.6
604.115	320.21
604.535	364.68
604.955	266.38
605.375	280.43
605.794	252.34
606.214	238.3
606.634	242.98
607.053	320.21
607.473	266.38
607.892	327.24
608.311	268.72
608.731	271.06
609.15	303.83
609.569	245.32
609.988	257.02
610.407	357.66
610.826	336.6
611.245	352.98
611.664	341.28
612.083	343.62
612.501	261.7
612.92	275.74
613.339	343.62
613.757	287.45
614.176	292.13
614.594	322.56
615.013	296.81
615.431	278.08
615.85	268.72
616.268	313.19
616.686	343.62
617.104	315.53
617.522	264.04
617.94	310.85
618.358	310.85
618.776	264.04
619.194	329.58
619.612	308.51
620.03	369.37
620.447	331.92
620.865	364.68
621.282	317.87
621.7	271.06
622.117	259.36
622.535	352.98
622.952	317.87
623.369	214.89
623.787	322.56
624.204	324.9
624.621	338.94
625.038	228.93
625.455	322.56
625.872	259.36
626.289	381.07
626.706	271.06
627.123	310.85
627.539	329.58
627.956	278.08
628.373	268.72
628.789	257.02
629.206	299.15
629.622	261.7
630.038	268.72
630.455	310.85
630.871	338.94
631.287	242.98
631.703	271.06
632.12	362.34
632.536	345.96
632.952	313.19
633.368	280.43
633.783	350.64
634.199	259.36
634.615	331.92
635.031	264.04
635.446	294.47
635.862	245.32
636.277	338.94
636.693	310.85
637.108	280.43
637.524	338.94
637.939	280.43
638.354	336.6
638.77	317.87
639.185	341.28
639.6	331.92
640.015	238.3
640.43	271.06
640.845	313.19
641.259	338.94
641.674	268.72
642.089	348.3
642.504	308.51
642.918	329.58
643.333	275.74
643.747	329.58
644.162	308.51
644.576	341.28
644.991	299.15
645.405	306.17
645.819	289.79
646.233	388.09
646.647	315.53
647.061	341.28
647.475	306.17
647.889	313.19
648.303	301.49
648.717	282.77
649.131	245.32
649.545	245.32
649.958	259.36
650.372	317.87
650.785	261.7
651.199	317.87
651.612	275.74
652.026	376.39
652.439	327.24
652.852	350.64
653.266	341.28
653.679	296.81
654.092	313.19
654.505	289.79
654.918	338.94
655.331	310.85
655.744	296.81
656.156	310.85
656.569	257.02
656.982	313.19
657.394	289.79
657.807	264.04
658.22	280.43
658.632	296.81
659.044	245.32
659.457	294.47
659.869	341.28
660.281	355.32
660.693	264.04
661.106	294.47
661.518	296.81
661.93	212.55
662.342	280.43
662.754	308.51
663.165	324.9
663.577	376.39
663.989	348.3
664.401	289.79
664.812	317.87
665.224	259.36
665.635	327.24
666.047	341.28
666.458	331.92
666.869	261.7
667.281	329.58
667.692	317.87
668.103	250
668.514	301.49
668.925	303.83
669.336	294.47
669.747	317.87
670.158	324.9
670.569	280.43
670.979	348.3
671.39	320.21
671.801	261.7
672.211	334.26
672.622	266.38
673.032	369.37
673.443	280.43
673.853	313.19
674.263	292.13
674.674	334.26
675.084	301.49
675.494	313.19
675.904	287.45
676.314	289.79
676.724	404.47
677.134	355.32
677.544	278.08
677.953	329.58
678.363	434.9
678.773	322.56
679.182	275.74
679.592	292.13
680.001	303.83
680.411	320.21
680.82	259.36
681.23	235.96
681.639	299.15
682.048	282.77
682.457	355.32
682.866	324.9
683.275	261.7
683.684	242.98
684.093	364.68
684.502	299.15
684.911	306.17
685.32	303.83
685.728	252.34
686.137	299.15
686.546	345.96
686.954	231.27
687.363	329.58
687.771	303.83
688.179	364.68
688.588	336.6
688.996	315.53
689.404	317.87
689.812	329.58
690.22	327.24
690.628	294.47
691.036	264.04
691.444	331.92
691.852	271.06
692.26	294.47
692.667	334.26
693.075	299.15
693.483	352.98
693.89	308.51
694.298	310.85
694.705	278.08
695.112	280.43
695.52	301.49
695.927	289.79
696.334	275.74
696.741	310.85
697.148	336.6
697.555	303.83
697.962	331.92
698.369	287.45
698.776	294.47
699.183	308.51
699.59	301.49
699.996	352.98
700.403	320.21
700.81	254.68
701.216	327.24
701.623	331.92
702.029	268.72
702.435	275.74
702.842	308.51
703.248	257.02
703.654	324.9
704.06	306.17
704.466	287.45
704.872	308.51
705.278	301.49
705.684	296.81
706.09	315.53
706.496	278.08
706.901	317.87
707.307	336.6
707.712	315.53
708.118	282.77
708.523	376.39
708.929	313.19
709.334	275.74
709.74	371.71
710.145	289.79
710.55	233.61
710.955	282.77
711.36	301.49
711.765	235.96
712.17	219.57
712.575	360
712.98	785.98
713.385	294.47
713.789	317.87
714.194	310.85
714.599	296.81
715.003	327.24
715.408	320.21
715.812	289.79
716.217	299.15
716.621	278.08
717.025	303.83
717.429	275.74
717.833	369.37
718.238	271.06
718.642	320.21
719.046	357.66
719.449	301.49
719.853	320.21
720.257	341.28
720.661	247.66
721.065	224.25
721.468	308.51
721.872	313.19
722.275	278.08
722.679	292.13
723.082	294.47
723.485	266.38
723.889	324.9
724.292	324.9
724.695	308.51
725.098	278.08
725.501	310.85
725.904	235.96
726.307	357.66
726.71	257.02
727.113	282.77
727.516	271.06
727.918	317.87
728.321	285.11
728.724	315.53
729.126	308.51
729.529	280.43
729.931	369.37
730.333	254.68
730.736	278.08
731.138	233.61
731.54	341.28
731.942	324.9
732.344	266.38
732.746	273.4
733.148	266.38
733.55	357.66
733.952	296.81
734.354	245.32
734.756	360
735.157	292.13
735.559	252.34
735.96	250
736.362	369.37
736.763	329.58
737.165	327.24
737.566	271.06
737.967	268.72
738.368	292.13
738.77	313.19
739.171	285.11
739.572	271.06
739.973	320.21
740.374	280.43
740.774	306.17
741.175	357.66
741.576	280.43
741.977	341.28
742.377	345.96
742.778	348.3
743.178	252.34
743.579	317.87
743.979	282.77
744.379	341.28
744.78	369.37
745.18	289.79
745.58	360
745.98	261.7
746.38	348.3
746.78	282.77
747.18	294.47
747.58	320.21
747.98	313.19
748.38	294.47
748.779	289.79
749.179	310.85
749.578	271.06
749.978	296.81
750.377	287.45
750.777	322.56
751.176	313.19
751.575	331.92
751.975	310.85
752.374	324.9
752.773	250
753.172	320.21
753.571	273.4
753.97	313.19
754.369	306.17
754.768	292.13
755.166	341.28
755.565	289.79
755.964	301.49
756.362	324.9
756.761	308.51
757.159	287.45
757.558	266.38
757.956	299.15
758.354	282.77
758.753	317.87
759.151	301.49
759.549	282.77
759.947	303.83
760.345	341.28
760.743	327.24
761.141	350.64
761.539	322.56
761.936	268.72
762.334	226.59
762.732	238.3
763.129	226.59
763.527	287.45
763.924	362.34
764.322	299.15
764.719	324.9
765.117	247.66
765.514	334.26
765.911	310.85
766.308	303.83
766.705	306.17
