Data from Al_FLMS009871__781__15-21-47-014.txt Node

Date: Fri Mar 08 15:21:47 CST 2024
User: pe5414po
Spectrometer: FLMS00987
Trigger mode: 0
Integration Time (sec): 1.000000E-1
Scans to average: 1
Electric dark correction enabled: true
Nonlinearity correction enabled: false
Boxcar width: 0
XAxis mode: Wavelengths
Number of Pixels in Spectrum: 2048
>>>>>Begin Spectral Data<<<<<
188.938	-58.66
189.409	-58.66
189.879	-58.66
190.349	-96.11
190.819	-163.98
191.29	-93.77
191.76	-39.94
192.23	-89.09
192.7	-93.77
193.17	-119.51
193.64	-14.19
194.109	-23.55
194.579	-16.53
195.049	9.22
195.519	16.24
195.988	63.05
196.458	67.73
196.927	20.92
197.397	65.39
197.866	98.16
198.336	149.65
198.805	161.35
199.274	109.86
199.744	130.92
200.213	194.12
200.682	168.37
201.151	222.2
201.62	327.53
202.089	271.36
202.558	261.99
203.027	261.99
203.495	182.42
203.964	205.82
204.433	201.14
204.902	243.27
205.37	266.67
205.839	311.14
206.307	247.95
206.776	264.33
207.244	304.12
207.712	343.91
208.181	269.02
208.649	292.42
209.117	245.61
209.585	273.7
210.053	280.72
210.521	266.67
210.989	240.93
211.457	306.46
211.925	306.46
212.393	261.99
212.861	297.1
213.328	280.72
213.796	210.5
214.264	233.91
214.731	285.4
215.199	294.76
215.666	229.23
216.133	259.65
216.601	219.86
217.068	287.74
217.535	269.02
218.003	264.33
218.47	360.3
218.937	278.38
219.404	210.5
219.871	266.67
220.338	264.33
220.805	250.29
221.271	238.59
221.738	203.48
222.205	236.25
222.671	250.29
223.138	290.08
223.605	231.57
224.071	257.31
224.538	259.65
225.004	219.86
225.47	233.91
225.937	276.04
226.403	254.97
226.869	196.46
227.335	245.61
227.801	252.63
228.267	212.84
228.733	301.78
229.199	252.63
229.665	278.38
230.131	224.55
230.597	238.59
231.062	273.7
231.528	280.72
231.994	276.04
232.459	238.59
232.925	208.16
233.39	269.02
233.856	294.76
234.321	348.59
234.786	269.02
235.252	208.16
235.717	285.4
236.182	226.89
236.647	212.84
237.112	233.91
237.577	315.83
238.042	301.78
238.507	184.76
238.972	252.63
239.436	299.44
239.901	271.36
240.366	226.89
240.83	257.31
241.295	257.31
241.76	308.8
242.224	243.27
242.688	259.65
243.153	264.33
243.617	208.16
244.081	243.27
244.545	280.72
245.01	299.44
245.474	278.38
245.938	231.57
246.402	294.76
246.866	285.4
247.33	219.86
247.793	285.4
248.257	238.59
248.721	259.65
249.185	259.65
249.648	245.61
250.112	287.74
250.575	245.61
251.039	360.3
251.502	313.49
251.965	339.23
252.429	304.12
252.892	273.7
253.355	273.7
253.818	264.33
254.281	278.38
254.744	245.61
255.207	283.06
255.67	259.65
256.133	240.93
256.596	238.59
257.059	254.97
257.522	217.52
257.984	243.27
258.447	271.36
258.909	283.06
259.372	151.99
259.834	222.2
260.297	346.25
260.759	285.4
261.221	240.93
261.684	301.78
262.146	271.36
262.608	280.72
263.07	325.19
263.532	243.27
263.994	250.29
264.456	285.4
264.918	346.25
265.38	252.63
265.842	318.17
266.303	304.12
266.765	259.65
267.227	276.04
267.688	257.31
268.15	285.4
268.611	236.25
269.072	280.72
269.534	236.25
269.995	315.83
270.456	329.87
270.918	240.93
271.379	280.72
271.84	245.61
272.301	304.12
272.762	222.2
273.223	285.4
273.684	261.99
274.144	315.83
274.605	301.78
275.066	299.44
275.527	259.65
275.987	173.05
276.448	229.23
276.908	306.46
277.369	257.31
277.829	271.36
278.289	264.33
278.75	287.74
279.21	257.31
279.67	306.46
280.13	285.4
280.59	311.14
281.05	210.5
281.51	259.65
281.97	243.27
282.43	292.42
282.89	362.64
283.35	250.29
283.809	266.67
284.269	252.63
284.729	297.1
285.188	346.25
285.648	261.99
286.107	315.83
286.567	229.23
287.026	233.91
287.485	290.08
287.944	238.59
288.404	285.4
288.863	320.51
289.322	294.76
289.781	219.86
290.24	292.42
290.699	259.65
291.158	254.97
291.616	301.78
292.075	339.23
292.534	334.55
292.992	308.8
293.451	343.91
293.91	269.02
294.368	325.19
294.827	290.08
295.285	238.59
295.743	318.17
296.202	243.27
296.66	247.95
297.118	327.53
297.576	287.74
298.034	252.63
298.492	313.49
298.95	283.06
299.408	327.53
299.866	327.53
300.324	318.17
300.781	339.23
301.239	269.02
301.697	280.72
302.154	247.95
302.612	332.21
303.069	264.33
303.527	276.04
303.984	215.18
304.441	306.46
304.899	269.02
305.356	348.59
305.813	287.74
306.27	374.34
306.727	299.44
307.184	318.17
307.641	297.1
308.098	294.76
308.555	294.76
309.012	294.76
309.468	327.53
309.925	285.4
310.382	254.97
310.838	311.14
311.295	287.74
311.751	299.44
312.208	306.46
312.664	283.06
313.12	367.32
313.577	215.18
314.033	266.67
314.489	276.04
314.945	264.33
315.401	320.51
315.857	336.89
316.313	250.29
316.769	329.87
317.225	278.38
317.681	306.46
318.136	276.04
318.592	304.12
319.048	311.14
319.503	276.04
319.959	299.44
320.414	259.65
320.869	283.06
321.325	283.06
321.78	264.33
322.235	369.66
322.691	360.3
323.146	217.52
323.601	269.02
324.056	269.02
324.511	353.27
324.966	320.51
325.421	297.1
325.875	304.12
326.33	313.49
326.785	308.8
327.24	287.74
327.694	252.63
328.149	184.76
328.603	292.42
329.058	210.5
329.512	280.72
329.966	341.57
330.421	257.31
330.875	269.02
331.329	264.33
331.783	304.12
332.237	315.83
332.691	278.38
333.145	290.08
333.599	301.78
334.053	283.06
334.507	294.76
334.96	276.04
335.414	280.72
335.868	320.51
336.321	315.83
336.775	325.19
337.228	245.61
337.682	304.12
338.135	306.46
338.588	313.49
339.042	304.12
339.495	269.02
339.948	278.38
340.401	346.25
340.854	259.65
341.307	334.55
341.76	299.44
342.213	243.27
342.666	285.4
343.119	257.31
343.571	350.93
344.024	276.04
344.477	313.49
344.929	259.65
345.382	311.14
345.834	315.83
346.287	311.14
346.739	287.74
347.191	299.44
347.644	292.42
348.096	346.25
348.548	315.83
349	290.08
349.452	336.89
349.904	254.97
350.356	322.85
350.808	355.62
351.26	261.99
351.711	402.43
352.163	325.19
352.615	320.51
353.066	276.04
353.518	304.12
353.969	318.17
354.421	261.99
354.872	264.33
355.324	381.36
355.775	311.14
356.226	294.76
356.677	360.3
357.128	343.91
357.579	290.08
358.03	231.57
358.481	315.83
358.932	301.78
359.383	271.36
359.834	285.4
360.285	257.31
360.735	308.8
361.186	329.87
361.637	341.57
362.087	306.46
362.538	283.06
362.988	341.57
363.438	339.23
363.889	273.7
364.339	294.76
364.789	297.1
365.239	334.55
365.689	357.96
366.139	325.19
366.589	292.42
367.039	276.04
367.489	276.04
367.939	348.59
368.389	280.72
368.839	283.06
369.288	269.02
369.738	367.32
370.187	297.1
370.637	299.44
371.086	334.55
371.536	318.17
371.985	287.74
372.434	308.8
372.884	308.8
373.333	313.49
373.782	327.53
374.231	290.08
374.68	304.12
375.129	332.21
375.578	269.02
376.027	290.08
376.475	247.95
376.924	343.91
377.373	320.51
377.822	346.25
378.27	332.21
378.719	259.65
379.167	285.4
379.616	348.59
380.064	322.85
380.512	353.27
380.961	276.04
381.409	287.74
381.857	306.46
382.305	325.19
382.753	280.72
383.201	320.51
383.649	308.8
384.097	290.08
384.545	318.17
384.992	304.12
385.44	315.83
385.888	388.38
386.335	336.89
386.783	336.89
387.231	292.42
387.678	276.04
388.125	339.23
388.573	341.57
389.02	294.76
389.467	250.29
389.914	273.7
390.362	283.06
390.809	269.02
391.256	329.87
391.703	355.62
392.15	236.25
392.596	278.38
393.043	285.4
393.49	315.83
393.937	299.44
394.383	367.32
394.83	322.85
395.276	315.83
395.723	313.49
396.169	219.86
396.616	334.55
397.062	297.1
397.508	322.85
397.954	283.06
398.401	334.55
398.847	252.63
399.293	304.12
399.739	306.46
400.185	306.46
400.631	252.63
401.076	280.72
401.522	264.33
401.968	341.57
402.414	294.76
402.859	322.85
403.305	322.85
403.75	325.19
404.196	306.46
404.641	301.78
405.086	372
405.532	259.65
405.977	233.91
406.422	290.08
406.867	329.87
407.312	308.8
407.757	313.49
408.202	280.72
408.647	304.12
409.092	325.19
409.537	299.44
409.982	381.36
410.426	360.3
410.871	315.83
411.316	322.85
411.76	294.76
412.205	322.85
412.649	297.1
413.093	374.34
413.538	329.87
413.982	264.33
414.426	269.02
414.87	299.44
415.314	355.62
415.758	283.06
416.202	315.83
416.646	304.12
417.09	308.8
417.534	229.23
417.978	329.87
418.421	304.12
418.865	236.25
419.309	308.8
419.752	273.7
420.196	292.42
420.639	297.1
421.083	273.7
421.526	299.44
421.969	339.23
422.412	273.7
422.856	294.76
423.299	315.83
423.742	276.04
424.185	278.38
424.628	292.42
425.071	339.23
425.513	379.02
425.956	287.74
426.399	332.21
426.842	245.61
427.284	292.42
427.727	287.74
428.169	379.02
428.612	306.46
429.054	320.51
429.497	287.74
429.939	346.25
430.381	297.1
430.823	336.89
431.265	329.87
431.707	294.76
432.149	252.63
432.591	313.49
433.033	294.76
433.475	306.46
433.917	273.7
434.359	322.85
434.8	278.38
435.242	273.7
435.684	294.76
436.125	278.38
436.567	353.27
437.008	304.12
437.449	236.25
437.891	381.36
438.332	341.57
438.773	313.49
439.214	320.51
439.656	278.38
440.097	266.67
440.538	297.1
440.978	311.14
441.419	292.42
441.86	224.55
442.301	287.74
442.742	346.25
443.182	343.91
443.623	362.64
444.063	308.8
444.504	327.53
444.944	318.17
445.385	318.17
445.825	290.08
446.265	322.85
446.706	243.27
447.146	238.59
447.586	308.8
448.026	346.25
448.466	278.38
448.906	341.57
449.346	283.06
449.786	280.72
450.225	304.12
450.665	285.4
451.105	334.55
451.544	325.19
451.984	294.76
452.424	283.06
452.863	306.46
453.302	308.8
453.742	308.8
454.181	315.83
454.62	325.19
455.059	290.08
455.499	290.08
455.938	294.76
456.377	364.98
456.816	360.3
457.254	294.76
457.693	280.72
458.132	329.87
458.571	238.59
459.01	320.51
459.448	287.74
459.887	336.89
460.325	353.27
460.764	306.46
461.202	367.32
461.641	346.25
462.079	332.21
462.517	364.98
462.955	350.93
463.393	320.51
463.832	355.62
464.27	297.1
464.708	308.8
465.145	315.83
465.583	339.23
466.021	290.08
466.459	313.49
466.897	243.27
467.334	308.8
467.772	306.46
468.209	271.36
468.647	329.87
469.084	285.4
469.522	257.31
469.959	313.49
470.396	308.8
470.833	283.06
471.271	353.27
471.708	311.14
472.145	357.96
472.582	238.59
473.019	306.46
473.456	336.89
473.892	311.14
474.329	311.14
474.766	334.55
475.202	322.85
475.639	355.62
476.076	357.96
476.512	329.87
476.949	299.44
477.385	311.14
477.821	280.72
478.258	254.97
478.694	254.97
479.13	341.57
479.566	372
480.002	360.3
480.438	325.19
480.874	292.42
481.31	292.42
481.746	308.8
482.181	311.14
482.617	294.76
483.053	329.87
483.488	343.91
483.924	313.49
484.36	315.83
484.795	287.74
485.23	311.14
485.666	294.76
486.101	325.19
486.536	308.8
486.971	290.08
487.407	254.97
487.842	283.06
488.277	318.17
488.712	304.12
489.146	313.49
489.581	269.02
490.016	320.51
490.451	332.21
490.885	315.83
491.32	334.55
491.755	374.34
492.189	287.74
492.624	320.51
493.058	285.4
493.492	355.62
493.927	238.59
494.361	261.99
494.795	306.46
495.229	329.87
495.663	290.08
496.097	339.23
496.531	266.67
496.965	360.3
497.399	236.25
497.833	318.17
498.266	269.02
498.7	297.1
499.134	287.74
499.567	287.74
500.001	299.44
500.434	327.53
500.868	341.57
501.301	238.59
501.734	308.8
502.168	369.66
502.601	332.21
503.034	315.83
503.467	287.74
503.9	369.66
504.333	334.55
504.766	250.29
505.199	318.17
505.632	313.49
506.064	297.1
506.497	257.31
506.93	261.99
507.362	294.76
507.795	329.87
508.227	294.76
508.66	306.46
509.092	233.91
509.524	297.1
509.956	315.83
510.389	292.42
510.821	332.21
511.253	318.17
511.685	271.36
512.117	290.08
512.549	306.46
512.981	273.7
513.412	383.7
513.844	252.63
514.276	252.63
514.707	304.12
515.139	245.61
515.571	327.53
516.002	294.76
516.433	341.57
516.865	320.51
517.296	250.29
517.727	266.67
518.159	320.51
518.59	357.96
519.021	292.42
519.452	336.89
519.883	339.23
520.314	311.14
520.744	372
521.175	357.96
521.606	304.12
522.037	297.1
522.467	329.87
522.898	308.8
523.328	315.83
523.759	320.51
524.189	313.49
524.62	273.7
525.05	280.72
525.48	308.8
525.91	334.55
526.341	273.7
526.771	264.33
527.201	290.08
527.631	290.08
528.061	360.3
528.49	372
528.92	329.87
529.35	271.36
529.78	364.98
530.209	287.74
530.639	336.89
531.068	315.83
531.498	308.8
531.927	243.27
532.357	294.76
532.786	299.44
533.215	261.99
533.644	285.4
534.074	313.49
534.503	273.7
534.932	266.67
535.361	313.49
535.79	301.78
536.218	254.97
536.647	297.1
537.076	348.59
537.505	343.91
537.933	297.1
538.362	254.97
538.79	332.21
539.219	297.1
539.647	350.93
540.076	318.17
540.504	269.02
540.932	306.46
541.36	318.17
541.788	339.23
542.217	271.36
542.645	336.89
543.073	271.36
543.5	350.93
543.928	245.61
544.356	299.44
544.784	355.62
545.211	318.17
545.639	287.74
546.067	273.7
546.494	299.44
546.922	304.12
547.349	364.98
547.776	290.08
548.204	283.06
548.631	308.8
549.058	325.19
549.485	229.23
549.912	308.8
550.339	320.51
550.766	290.08
551.193	294.76
551.62	343.91
552.047	327.53
552.474	292.42
552.9	219.86
553.327	301.78
553.754	308.8
554.18	304.12
554.607	264.33
555.033	372
555.459	264.33
555.886	336.89
556.312	311.14
556.738	292.42
557.164	290.08
557.59	362.64
558.016	290.08
558.442	259.65
558.868	362.64
559.294	308.8
559.72	369.66
560.145	304.12
560.571	332.21
560.997	285.4
561.422	280.72
561.848	334.55
562.273	329.87
562.699	339.23
563.124	264.33
563.549	308.8
563.974	336.89
564.4	362.64
564.825	343.91
565.25	339.23
565.675	360.3
566.1	327.53
566.525	299.44
566.95	341.57
567.374	329.87
567.799	315.83
568.224	308.8
568.648	355.62
569.073	311.14
569.497	264.33
569.922	322.85
570.346	346.25
570.771	294.76
571.195	264.33
571.619	240.93
572.043	301.78
572.467	285.4
572.891	320.51
573.315	376.68
573.739	276.04
574.163	240.93
574.587	301.78
575.011	329.87
575.435	269.02
575.858	301.78
576.282	336.89
576.705	339.23
577.129	325.19
577.552	294.76
577.976	301.78
578.399	219.86
578.822	311.14
579.245	276.04
579.669	283.06
580.092	315.83
580.515	315.83
580.938	334.55
581.361	287.74
581.784	306.46
582.206	322.85
582.629	261.99
583.052	261.99
583.474	322.85
583.897	327.53
584.32	325.19
584.742	327.53
585.165	308.8
585.587	301.78
586.009	313.49
586.431	332.21
586.854	313.49
587.276	280.72
587.698	273.7
588.12	409.45
588.542	278.38
588.964	334.55
589.386	285.4
589.807	245.61
590.229	257.31
590.651	280.72
591.073	299.44
591.494	329.87
591.916	315.83
592.337	287.74
592.759	261.99
593.18	308.8
593.601	287.74
594.022	332.21
594.444	308.8
594.865	332.21
595.286	285.4
595.707	322.85
596.128	297.1
596.549	294.76
596.97	306.46
597.39	311.14
597.811	297.1
598.232	350.93
598.652	311.14
599.073	350.93
599.494	254.97
599.914	350.93
600.334	264.33
600.755	278.38
601.175	250.29
601.595	287.74
602.015	339.23
602.436	287.74
602.856	421.15
603.276	304.12
603.696	271.36
604.115	283.06
604.535	308.8
604.955	294.76
605.375	283.06
605.794	374.34
606.214	264.33
606.634	388.38
607.053	320.51
607.473	283.06
607.892	280.72
608.311	292.42
608.731	297.1
609.15	287.74
609.569	353.27
609.988	341.57
610.407	357.96
610.826	313.49
611.245	322.85
611.664	271.36
612.083	325.19
612.501	231.57
612.92	297.1
613.339	320.51
613.757	322.85
614.176	285.4
614.594	402.43
615.013	308.8
615.431	287.74
615.85	325.19
616.268	301.78
616.686	364.98
617.104	304.12
617.522	393.06
617.94	322.85
618.358	287.74
618.776	350.93
619.194	236.25
619.612	341.57
620.03	283.06
620.447	243.27
620.865	273.7
621.282	301.78
621.7	301.78
622.117	325.19
622.535	266.67
622.952	329.87
623.369	329.87
623.787	292.42
624.204	294.76
624.621	348.59
625.038	297.1
625.455	320.51
625.872	297.1
626.289	254.97
626.706	339.23
627.123	294.76
627.539	348.59
627.956	313.49
628.373	297.1
628.789	283.06
629.206	372
629.622	273.7
630.038	287.74
630.455	308.8
630.871	292.42
631.287	276.04
631.703	297.1
632.12	318.17
632.536	285.4
632.952	278.38
633.368	269.02
633.783	327.53
634.199	294.76
634.615	269.02
635.031	313.49
635.446	257.31
635.862	308.8
636.277	348.59
636.693	261.99
637.108	306.46
637.524	264.33
637.939	271.36
638.354	301.78
638.77	266.67
639.185	257.31
639.6	315.83
640.015	318.17
640.43	367.32
640.845	278.38
641.259	273.7
641.674	299.44
642.089	290.08
642.504	269.02
642.918	247.95
643.333	217.52
643.747	383.7
644.162	247.95
644.576	252.63
644.991	259.65
645.405	334.55
645.819	276.04
646.233	306.46
646.647	346.25
647.061	318.17
647.475	350.93
647.889	343.91
648.303	285.4
648.717	332.21
649.131	276.04
649.545	306.46
649.958	290.08
650.372	283.06
650.785	264.33
651.199	334.55
651.612	294.76
652.026	341.57
652.439	301.78
652.852	297.1
653.266	308.8
653.679	292.42
654.092	297.1
654.505	339.23
654.918	322.85
655.331	374.34
655.744	297.1
656.156	276.04
656.569	320.51
656.982	325.19
657.394	313.49
657.807	374.34
658.22	264.33
658.632	311.14
659.044	322.85
659.457	278.38
659.869	266.67
660.281	306.46
660.693	278.38
661.106	259.65
661.518	285.4
661.93	264.33
662.342	276.04
662.754	336.89
663.165	346.25
663.577	283.06
663.989	278.38
664.401	269.02
664.812	276.04
665.224	290.08
665.635	283.06
666.047	346.25
666.458	336.89
666.869	208.16
667.281	294.76
667.692	259.65
668.103	266.67
668.514	276.04
668.925	334.55
669.336	357.96
669.747	271.36
670.158	301.78
670.569	329.87
670.979	285.4
671.39	386.04
671.801	313.49
672.211	329.87
672.622	297.1
673.032	353.27
673.443	315.83
673.853	306.46
674.263	297.1
674.674	238.59
675.084	266.67
675.494	327.53
675.904	233.91
676.314	322.85
676.724	278.38
677.134	250.29
677.544	346.25
677.953	374.34
678.363	325.19
678.773	397.74
679.182	294.76
679.592	299.44
680.001	304.12
680.411	290.08
680.82	353.27
681.23	269.02
681.639	304.12
682.048	357.96
682.457	360.3
682.866	336.89
683.275	290.08
683.684	264.33
684.093	301.78
684.502	315.83
684.911	332.21
685.32	364.98
685.728	250.29
686.137	259.65
686.546	294.76
686.954	306.46
687.363	318.17
687.771	322.85
688.179	276.04
688.588	343.91
688.996	318.17
689.404	313.49
689.812	362.64
690.22	273.7
690.628	332.21
691.036	313.49
691.444	301.78
691.852	313.49
692.26	376.68
692.667	306.46
693.075	311.14
693.483	306.46
693.89	325.19
694.298	320.51
694.705	290.08
695.112	273.7
695.52	285.4
695.927	261.99
696.334	315.83
696.741	290.08
697.148	245.61
697.555	315.83
697.962	247.95
698.369	346.25
698.776	327.53
699.183	339.23
699.59	308.8
699.996	226.89
700.403	308.8
700.81	280.72
701.216	334.55
701.623	341.57
702.029	297.1
702.435	276.04
702.842	318.17
703.248	364.98
703.654	372
704.06	313.49
704.466	259.65
704.872	318.17
705.278	285.4
705.684	304.12
706.09	245.61
706.496	308.8
706.901	322.85
707.307	320.51
707.712	269.02
708.118	325.19
708.523	243.27
708.929	329.87
709.334	301.78
709.74	280.72
710.145	360.3
710.55	276.04
710.955	315.83
711.36	301.78
711.765	313.49
712.17	343.91
712.575	339.23
712.98	819.04
713.385	325.19
713.789	315.83
714.194	280.72
714.599	329.87
715.003	245.61
715.408	257.31
715.812	243.27
716.217	336.89
716.621	315.83
717.025	311.14
717.429	254.97
717.833	294.76
718.238	276.04
718.642	261.99
719.046	325.19
719.449	372
719.853	353.27
720.257	325.19
720.661	290.08
721.065	280.72
721.468	308.8
721.872	318.17
722.275	336.89
722.679	294.76
723.082	313.49
723.485	313.49
723.889	276.04
724.292	266.67
724.695	357.96
725.098	301.78
725.501	264.33
725.904	329.87
726.307	348.59
726.71	292.42
727.113	372
727.516	292.42
727.918	311.14
728.321	273.7
728.724	315.83
729.126	252.63
729.529	287.74
729.931	343.91
730.333	287.74
730.736	271.36
731.138	280.72
731.54	313.49
731.942	350.93
732.344	294.76
732.746	252.63
733.148	346.25
733.55	334.55
733.952	343.91
734.354	287.74
734.756	261.99
735.157	233.91
735.559	261.99
735.96	266.67
736.362	252.63
736.763	261.99
737.165	304.12
737.566	350.93
737.967	301.78
738.368	388.38
738.77	318.17
739.171	259.65
739.572	334.55
739.973	306.46
740.374	264.33
740.774	219.86
741.175	304.12
741.576	294.76
741.977	332.21
742.377	301.78
742.778	269.02
743.178	297.1
743.579	334.55
743.979	297.1
744.379	287.74
744.78	388.38
745.18	308.8
745.58	308.8
745.98	271.36
746.38	322.85
746.78	329.87
747.18	252.63
747.58	313.49
747.98	322.85
748.38	395.4
748.779	240.93
749.179	229.23
749.578	348.59
749.978	254.97
750.377	362.64
750.777	280.72
751.176	334.55
751.575	264.33
751.975	311.14
752.374	332.21
752.773	346.25
753.172	308.8
753.571	245.61
753.97	269.02
754.369	306.46
754.768	304.12
755.166	332.21
755.565	339.23
755.964	261.99
756.362	290.08
756.761	259.65
757.159	292.42
757.558	320.51
757.956	364.98
758.354	308.8
758.753	266.67
759.151	264.33
759.549	254.97
759.947	276.04
760.345	322.85
760.743	273.7
761.141	283.06
761.539	311.14
761.936	264.33
762.334	297.1
762.732	287.74
763.129	334.55
763.527	250.29
763.924	264.33
764.322	238.59
764.719	294.76
765.117	276.04
765.514	313.49
765.911	180.07
766.308	301.78
