Data from Al_FLMS009871__791__15-21-48-017.txt Node

Date: Fri Mar 08 15:21:48 CST 2024
User: pe5414po
Spectrometer: FLMS00987
Trigger mode: 0
Integration Time (sec): 1.000000E-1
Scans to average: 1
Electric dark correction enabled: true
Nonlinearity correction enabled: false
Boxcar width: 0
XAxis mode: Wavelengths
Number of Pixels in Spectrum: 2048
>>>>>Begin Spectral Data<<<<<
188.938	-90.84
189.409	-90.84
189.879	-90.84
190.349	-93.18
190.819	-97.86
191.29	-100.2
191.76	-97.86
192.23	-107.23
192.7	-83.82
193.17	-109.57
193.64	-48.71
194.109	-62.76
194.579	-1.9
195.049	47.25
195.519	30.87
195.988	80.02
196.458	21.5
196.927	150.23
197.397	61.29
197.866	87.04
198.336	133.85
198.805	143.21
199.274	103.42
199.744	129.17
200.213	185.34
200.682	218.11
201.151	255.56
201.62	267.26
202.089	248.54
202.558	215.77
203.027	227.47
203.495	278.96
203.964	264.92
204.433	293.01
204.902	239.17
205.37	288.32
205.839	271.94
206.307	330.45
206.776	293.01
207.244	358.54
207.712	318.75
208.181	318.75
208.649	330.45
209.117	325.77
209.585	255.56
210.053	276.62
210.521	295.35
210.989	293.01
211.457	229.81
211.925	264.92
212.393	316.41
212.861	302.37
213.328	297.69
213.796	330.45
214.264	264.92
214.731	253.22
215.199	218.11
215.666	314.07
216.133	311.73
216.601	325.77
217.068	276.62
217.535	227.47
218.003	302.37
218.47	293.01
218.937	309.39
219.404	278.96
219.871	283.64
220.338	222.79
220.805	208.75
221.271	225.13
221.738	262.58
222.205	325.77
222.671	220.45
223.138	260.24
223.605	257.9
224.071	314.07
224.538	234.49
225.004	260.24
225.47	281.3
225.937	241.51
226.403	246.2
226.869	276.62
227.335	271.94
227.801	281.3
228.267	276.62
228.733	260.24
229.199	283.64
229.665	229.81
230.131	234.49
230.597	222.79
231.062	276.62
231.528	330.45
231.994	297.69
232.459	323.43
232.925	257.9
233.39	307.05
233.856	246.2
234.321	328.11
234.786	278.96
235.252	274.28
235.717	304.71
236.182	222.79
236.647	295.35
237.112	257.9
237.577	241.51
238.042	255.56
238.507	271.94
238.972	307.05
239.436	255.56
239.901	253.22
240.366	269.6
240.83	314.07
241.295	300.03
241.76	339.82
242.224	271.94
242.688	328.11
243.153	297.69
243.617	290.67
244.081	260.24
244.545	276.62
245.01	253.22
245.474	271.94
245.938	267.26
246.402	309.39
246.866	278.96
247.33	253.22
247.793	281.3
248.257	316.41
248.721	267.26
249.185	225.13
249.648	253.22
250.112	300.03
250.575	253.22
251.039	288.32
251.502	253.22
251.965	332.79
252.429	285.98
252.892	318.75
253.355	295.35
253.818	300.03
254.281	297.69
254.744	264.92
255.207	281.3
255.67	278.96
256.133	215.77
256.596	346.84
257.059	316.41
257.522	314.07
257.984	281.3
258.447	337.48
258.909	276.62
259.372	168.96
259.834	297.69
260.297	285.98
260.759	290.67
261.221	325.77
261.684	290.67
262.146	267.26
262.608	264.92
263.07	300.03
263.532	328.11
263.994	295.35
264.456	400.67
264.918	316.41
265.38	300.03
265.842	262.58
266.303	283.64
266.765	300.03
267.227	262.58
267.688	257.9
268.15	300.03
268.611	241.51
269.072	262.58
269.534	309.39
269.995	335.14
270.456	309.39
270.918	262.58
271.379	318.75
271.84	285.98
272.301	248.54
272.762	267.26
273.223	309.39
273.684	211.09
274.144	222.79
274.605	325.77
275.066	297.69
275.527	285.98
275.987	241.51
276.448	248.54
276.908	262.58
277.369	328.11
277.829	335.14
278.289	309.39
278.75	353.86
279.21	295.35
279.67	337.48
280.13	328.11
280.59	300.03
281.05	318.75
281.51	353.86
281.97	285.98
282.43	295.35
282.89	276.62
283.35	267.26
283.809	234.49
284.269	264.92
284.729	307.05
285.188	264.92
285.648	302.37
286.107	328.11
286.567	367.9
287.026	304.71
287.485	316.41
287.944	311.73
288.404	346.84
288.863	363.22
289.322	283.64
289.781	328.11
290.24	363.22
290.699	332.79
291.158	290.67
291.616	288.32
292.075	323.43
292.534	304.71
292.992	302.37
293.451	281.3
293.91	257.9
294.368	372.58
294.827	274.28
295.285	293.01
295.743	281.3
296.202	325.77
296.66	328.11
297.118	325.77
297.576	307.05
298.034	253.22
298.492	248.54
298.95	356.2
299.408	281.3
299.866	309.39
300.324	262.58
300.781	269.6
301.239	328.11
301.697	318.75
302.154	318.75
302.612	304.71
303.069	248.54
303.527	267.26
303.984	318.75
304.441	295.35
304.899	330.45
305.356	288.32
305.813	316.41
306.27	276.62
306.727	283.64
307.184	335.14
307.641	300.03
308.098	318.75
308.555	293.01
309.012	325.77
309.468	318.75
309.925	351.52
310.382	309.39
310.838	297.69
311.295	337.48
311.751	281.3
312.208	325.77
312.664	295.35
313.12	360.88
313.577	304.71
314.033	267.26
314.489	337.48
314.945	363.22
315.401	325.77
315.857	339.82
316.313	307.05
316.769	323.43
317.225	309.39
317.681	332.79
318.136	283.64
318.592	332.79
319.048	344.5
319.503	337.48
319.959	363.22
320.414	260.24
320.869	325.77
321.325	351.52
321.78	281.3
322.235	281.3
322.691	314.07
323.146	323.43
323.601	264.92
324.056	309.39
324.511	239.17
324.966	311.73
325.421	264.92
325.875	255.56
326.33	243.85
326.785	330.45
327.24	311.73
327.694	330.45
328.149	325.77
328.603	257.9
329.058	302.37
329.512	293.01
329.966	330.45
330.421	281.3
330.875	307.05
331.329	330.45
331.783	241.51
332.237	297.69
332.691	290.67
333.145	239.17
333.599	283.64
334.053	257.9
334.507	337.48
334.96	346.84
335.414	349.18
335.868	297.69
336.321	386.63
336.775	300.03
337.228	262.58
337.682	283.64
338.135	276.62
338.588	335.14
339.042	300.03
339.495	314.07
339.948	278.96
340.401	339.82
340.854	370.24
341.307	300.03
341.76	307.05
342.213	365.56
342.666	283.64
343.119	349.18
343.571	304.71
344.024	295.35
344.477	276.62
344.929	236.83
345.382	269.6
345.834	316.41
346.287	274.28
346.739	264.92
347.191	316.41
347.644	328.11
348.096	370.24
348.548	250.88
349	302.37
349.452	328.11
349.904	253.22
350.356	330.45
350.808	356.2
351.26	344.5
351.711	351.52
352.163	295.35
352.615	264.92
353.066	248.54
353.518	267.26
353.969	353.86
354.421	307.05
354.872	335.14
355.324	302.37
355.775	293.01
356.226	328.11
356.677	351.52
357.128	290.67
357.579	349.18
358.03	278.96
358.481	328.11
358.932	349.18
359.383	276.62
359.834	353.86
360.285	337.48
360.735	271.94
361.186	278.96
361.637	307.05
362.087	314.07
362.538	276.62
362.988	384.29
363.438	318.75
363.889	304.71
364.339	339.82
364.789	330.45
365.239	314.07
365.689	370.24
366.139	372.58
366.589	316.41
367.039	311.73
367.489	339.82
367.939	339.82
368.389	318.75
368.839	225.13
369.288	321.09
369.738	316.41
370.187	264.92
370.637	370.24
371.086	290.67
371.536	363.22
371.985	239.17
372.434	255.56
372.884	353.86
373.333	323.43
373.782	318.75
374.231	283.64
374.68	293.01
375.129	337.48
375.578	335.14
376.027	267.26
376.475	321.09
376.924	316.41
377.373	342.16
377.822	351.52
378.27	293.01
378.719	349.18
379.167	290.67
379.616	241.51
380.064	330.45
380.512	372.58
380.961	325.77
381.409	267.26
381.857	356.2
382.305	293.01
382.753	346.84
383.201	271.94
383.649	339.82
384.097	257.9
384.545	307.05
384.992	309.39
385.44	304.71
385.888	288.32
386.335	330.45
386.783	328.11
387.231	271.94
387.678	260.24
388.125	351.52
388.573	353.86
389.02	360.88
389.467	332.79
389.914	346.84
390.362	335.14
390.809	328.11
391.256	335.14
391.703	307.05
392.15	323.43
392.596	360.88
393.043	309.39
393.49	290.67
393.937	342.16
394.383	335.14
394.83	321.09
395.276	328.11
395.723	374.92
396.169	302.37
396.616	351.52
397.062	325.77
397.508	285.98
397.954	295.35
398.401	307.05
398.847	349.18
399.293	281.3
399.739	353.86
400.185	358.54
400.631	342.16
401.076	381.95
401.522	337.48
401.968	314.07
402.414	330.45
402.859	278.96
403.305	285.98
403.75	309.39
404.196	325.77
404.641	255.56
405.086	332.79
405.532	335.14
405.977	262.58
406.422	323.43
406.867	297.69
407.312	278.96
407.757	309.39
408.202	300.03
408.647	278.96
409.092	351.52
409.537	346.84
409.982	356.2
410.426	332.79
410.871	384.29
411.316	293.01
411.76	262.58
412.205	267.26
412.649	269.6
413.093	300.03
413.538	330.45
413.982	328.11
414.426	288.32
414.87	370.24
415.314	337.48
415.758	330.45
416.202	337.48
416.646	346.84
417.09	363.22
417.534	314.07
417.978	335.14
418.421	309.39
418.865	285.98
419.309	300.03
419.752	316.41
420.196	281.3
420.639	328.11
421.083	339.82
421.526	342.16
421.969	314.07
422.412	257.9
422.856	337.48
423.299	344.5
423.742	325.77
424.185	372.58
424.628	316.41
425.071	300.03
425.513	360.88
425.956	295.35
426.399	346.84
426.842	304.71
427.284	323.43
427.727	260.24
428.169	344.5
428.612	356.2
429.054	325.77
429.497	381.95
429.939	295.35
430.381	384.29
430.823	304.71
431.265	332.79
431.707	323.43
432.149	344.5
432.591	285.98
433.033	293.01
433.475	330.45
433.917	307.05
434.359	337.48
434.8	269.6
435.242	358.54
435.684	330.45
436.125	271.94
436.567	271.94
437.008	346.84
437.449	325.77
437.891	311.73
438.332	295.35
438.773	356.2
439.214	290.67
439.656	370.24
440.097	307.05
440.538	349.18
440.978	281.3
441.419	332.79
441.86	386.63
442.301	346.84
442.742	269.6
443.182	342.16
443.623	302.37
444.063	302.37
444.504	360.88
444.944	342.16
445.385	321.09
445.825	316.41
446.265	339.82
446.706	358.54
447.146	307.05
447.586	283.64
448.026	229.81
448.466	372.58
448.906	339.82
449.346	215.77
449.786	325.77
450.225	358.54
450.665	332.79
451.105	283.64
451.544	328.11
451.984	346.84
452.424	321.09
452.863	353.86
453.302	293.01
453.742	304.71
454.181	300.03
454.62	288.32
455.059	346.84
455.499	377.27
455.938	335.14
456.377	346.84
456.816	300.03
457.254	356.2
457.693	288.32
458.132	365.56
458.571	356.2
459.01	351.52
459.448	328.11
459.887	374.92
460.325	342.16
460.764	304.71
461.202	293.01
461.641	332.79
462.079	318.75
462.517	325.77
462.955	311.73
463.393	363.22
463.832	381.95
464.27	379.61
464.708	351.52
465.145	311.73
465.583	318.75
466.021	356.2
466.459	311.73
466.897	278.96
467.334	278.96
467.772	281.3
468.209	215.77
468.647	283.64
469.084	328.11
469.522	281.3
469.959	290.67
470.396	323.43
470.833	330.45
471.271	300.03
471.708	342.16
472.145	304.71
472.582	335.14
473.019	297.69
473.456	337.48
473.892	353.86
474.329	302.37
474.766	295.35
475.202	388.97
475.639	360.88
476.076	309.39
476.512	363.22
476.949	335.14
477.385	349.18
477.821	335.14
478.258	314.07
478.694	318.75
479.13	290.67
479.566	339.82
480.002	323.43
480.438	367.9
480.874	337.48
481.31	356.2
481.746	260.24
482.181	250.88
482.617	293.01
483.053	351.52
483.488	337.48
483.924	304.71
484.36	285.98
484.795	321.09
485.23	297.69
485.666	379.61
486.101	367.9
486.536	274.28
486.971	349.18
487.407	346.84
487.842	349.18
488.277	293.01
488.712	307.05
489.146	297.69
489.581	360.88
490.016	395.99
490.451	321.09
490.885	248.54
491.32	351.52
491.755	325.77
492.189	283.64
492.624	339.82
493.058	344.5
493.492	344.5
493.927	365.56
494.361	330.45
494.795	339.82
495.229	309.39
495.663	337.48
496.097	304.71
496.531	344.5
496.965	302.37
497.399	365.56
497.833	337.48
498.266	381.95
498.7	323.43
499.134	400.67
499.567	304.71
500.001	323.43
500.434	356.2
500.868	297.69
501.301	285.98
501.734	316.41
502.168	344.5
502.601	300.03
503.034	332.79
503.467	311.73
503.9	332.79
504.333	360.88
504.766	328.11
505.199	367.9
505.632	316.41
506.064	297.69
506.497	395.99
506.93	332.79
507.362	297.69
507.795	342.16
508.227	304.71
508.66	353.86
509.092	349.18
509.524	318.75
509.956	353.86
510.389	302.37
510.821	393.65
511.253	260.24
511.685	309.39
512.117	276.62
512.549	349.18
512.981	342.16
513.412	370.24
513.844	318.75
514.276	330.45
514.707	363.22
515.139	311.73
515.571	232.15
516.002	318.75
516.433	274.28
516.865	318.75
517.296	307.05
517.727	300.03
518.159	346.84
518.59	363.22
519.021	323.43
519.452	328.11
519.883	328.11
520.314	346.84
520.744	318.75
521.175	330.45
521.606	314.07
522.037	323.43
522.467	304.71
522.898	337.48
523.328	349.18
523.759	372.58
524.189	302.37
524.62	339.82
525.05	332.79
525.48	316.41
525.91	356.2
526.341	297.69
526.771	307.05
527.201	302.37
527.631	309.39
528.061	337.48
528.49	314.07
528.92	300.03
529.35	363.22
529.78	304.71
530.209	318.75
530.639	246.2
531.068	351.52
531.498	323.43
531.927	363.22
532.357	304.71
532.786	316.41
533.215	330.45
533.644	358.54
534.074	365.56
534.503	283.64
534.932	332.79
535.361	264.92
535.79	349.18
536.218	318.75
536.647	349.18
537.076	316.41
537.505	363.22
537.933	335.14
538.362	309.39
538.79	344.5
539.219	346.84
539.647	300.03
540.076	323.43
540.504	374.92
540.932	276.62
541.36	370.24
541.788	365.56
542.217	293.01
542.645	276.62
543.073	297.69
543.5	297.69
543.928	300.03
544.356	381.95
544.784	330.45
545.211	309.39
545.639	360.88
546.067	290.67
546.494	398.33
546.922	316.41
547.349	295.35
547.776	297.69
548.204	318.75
548.631	269.6
549.058	309.39
549.485	274.28
549.912	309.39
550.339	257.9
550.766	318.75
551.193	243.85
551.62	353.86
552.047	290.67
552.474	335.14
552.9	323.43
553.327	276.62
553.754	365.56
554.18	248.54
554.607	271.94
555.033	283.64
555.459	330.45
555.886	332.79
556.312	377.27
556.738	342.16
557.164	264.92
557.59	288.32
558.016	321.09
558.442	335.14
558.868	293.01
559.294	372.58
559.72	229.81
560.145	330.45
560.571	318.75
560.997	302.37
561.422	346.84
561.848	307.05
562.273	311.73
562.699	257.9
563.124	344.5
563.549	318.75
563.974	360.88
564.4	367.9
564.825	391.31
565.25	342.16
565.675	365.56
566.1	344.5
566.525	316.41
566.95	407.69
567.374	335.14
567.799	332.79
568.224	332.79
568.648	257.9
569.073	302.37
569.497	365.56
569.922	307.05
570.346	353.86
570.771	311.73
571.195	344.5
571.619	318.75
572.043	295.35
572.467	281.3
572.891	377.27
573.315	328.11
573.739	304.71
574.163	288.32
574.587	281.3
575.011	283.64
575.435	346.84
575.858	367.9
576.282	304.71
576.705	300.03
577.129	321.09
577.552	281.3
577.976	293.01
578.399	381.95
578.822	285.98
579.245	293.01
579.669	314.07
580.092	321.09
580.515	281.3
580.938	372.58
581.361	316.41
581.784	344.5
582.206	339.82
582.629	323.43
583.052	323.43
583.474	332.79
583.897	309.39
584.32	316.41
584.742	288.32
585.165	330.45
585.587	241.51
586.009	346.84
586.431	309.39
586.854	304.71
587.276	358.54
587.698	295.35
588.12	342.16
588.542	356.2
588.964	367.9
589.386	363.22
589.807	339.82
590.229	274.28
590.651	332.79
591.073	278.96
591.494	342.16
591.916	358.54
592.337	311.73
592.759	428.76
593.18	267.26
593.601	264.92
594.022	311.73
594.444	358.54
594.865	318.75
595.286	316.41
595.707	367.9
596.128	339.82
596.549	330.45
596.97	342.16
597.39	328.11
597.811	311.73
598.232	307.05
598.652	321.09
599.073	293.01
599.494	365.56
599.914	274.28
600.334	388.97
600.755	316.41
601.175	344.5
601.595	370.24
602.015	321.09
602.436	288.32
602.856	412.37
603.276	304.71
603.696	325.77
604.115	339.82
604.535	314.07
604.955	328.11
605.375	283.64
605.794	332.79
606.214	307.05
606.634	358.54
607.053	271.94
607.473	302.37
607.892	358.54
608.311	300.03
608.731	278.96
609.15	309.39
609.569	381.95
609.988	297.69
610.407	351.52
610.826	365.56
611.245	304.71
611.664	346.84
612.083	220.45
612.501	260.24
612.92	337.48
613.339	349.18
613.757	346.84
614.176	297.69
614.594	290.67
615.013	328.11
615.431	316.41
615.85	309.39
616.268	370.24
616.686	285.98
617.104	337.48
617.522	300.03
617.94	360.88
618.358	311.73
618.776	353.86
619.194	318.75
619.612	323.43
620.03	335.14
620.447	321.09
620.865	332.79
621.282	304.71
621.7	302.37
622.117	337.48
622.535	344.5
622.952	335.14
623.369	316.41
623.787	321.09
624.204	328.11
624.621	290.67
625.038	281.3
625.455	417.05
625.872	339.82
626.289	328.11
626.706	304.71
627.123	346.84
627.539	330.45
627.956	344.5
628.373	314.07
628.789	400.67
629.206	337.48
629.622	302.37
630.038	403.01
630.455	358.54
630.871	290.67
631.287	342.16
631.703	274.28
632.12	257.9
632.536	335.14
632.952	379.61
633.368	288.32
633.783	297.69
634.199	293.01
634.615	276.62
635.031	302.37
635.446	281.3
635.862	328.11
636.277	330.45
636.693	358.54
637.108	349.18
637.524	351.52
637.939	332.79
638.354	316.41
638.77	288.32
639.185	288.32
639.6	405.35
640.015	386.63
640.43	370.24
640.845	262.58
641.259	276.62
641.674	321.09
642.089	381.95
642.504	311.73
642.918	262.58
643.333	335.14
643.747	349.18
644.162	257.9
644.576	255.56
644.991	351.52
645.405	281.3
645.819	302.37
646.233	302.37
646.647	288.32
647.061	391.31
647.475	314.07
647.889	367.9
648.303	293.01
648.717	276.62
649.131	295.35
649.545	302.37
649.958	321.09
650.372	344.5
650.785	278.96
651.199	316.41
651.612	297.69
652.026	293.01
652.439	365.56
652.852	281.3
653.266	332.79
653.679	323.43
654.092	335.14
654.505	267.26
654.918	281.3
655.331	316.41
655.744	325.77
656.156	304.71
656.569	344.5
656.982	267.26
657.394	285.98
657.807	271.94
658.22	278.96
658.632	365.56
659.044	353.86
659.457	349.18
659.869	342.16
660.281	276.62
660.693	309.39
661.106	304.71
661.518	335.14
661.93	269.6
662.342	325.77
662.754	332.79
663.165	344.5
663.577	309.39
663.989	342.16
664.401	365.56
664.812	339.82
665.224	351.52
665.635	318.75
666.047	339.82
666.458	318.75
666.869	372.58
667.281	321.09
667.692	304.71
668.103	297.69
668.514	323.43
668.925	360.88
669.336	358.54
669.747	302.37
670.158	346.84
670.569	311.73
670.979	363.22
671.39	330.45
671.801	330.45
672.211	421.74
672.622	307.05
673.032	300.03
673.443	269.6
673.853	330.45
674.263	318.75
674.674	365.56
675.084	318.75
675.494	379.61
675.904	325.77
676.314	356.2
676.724	323.43
677.134	346.84
677.544	353.86
677.953	281.3
678.363	332.79
678.773	400.67
679.182	370.24
679.592	337.48
680.001	332.79
680.411	321.09
680.82	337.48
681.23	307.05
681.639	332.79
682.048	349.18
682.457	297.69
682.866	351.52
683.275	337.48
683.684	344.5
684.093	311.73
684.502	351.52
684.911	325.77
685.32	365.56
685.728	281.3
686.137	335.14
686.546	353.86
686.954	267.26
687.363	332.79
687.771	346.84
688.179	351.52
688.588	407.69
688.996	311.73
689.404	288.32
689.812	300.03
690.22	377.27
690.628	316.41
691.036	311.73
691.444	300.03
691.852	337.48
692.26	330.45
692.667	300.03
693.075	344.5
693.483	314.07
693.89	356.2
694.298	395.99
694.705	314.07
695.112	309.39
695.52	288.32
695.927	323.43
696.334	283.64
696.741	288.32
697.148	356.2
697.555	356.2
697.962	358.54
698.369	339.82
698.776	323.43
699.183	318.75
699.59	271.94
699.996	349.18
700.403	302.37
700.81	297.69
701.216	328.11
701.623	300.03
702.029	391.31
702.435	325.77
702.842	356.2
703.248	342.16
703.654	271.94
704.06	234.49
704.466	332.79
704.872	393.65
705.278	293.01
705.684	393.65
706.09	276.62
706.496	302.37
706.901	323.43
707.307	358.54
707.712	323.43
708.118	283.64
708.523	302.37
708.929	307.05
709.334	367.9
709.74	260.24
710.145	349.18
710.55	293.01
710.955	318.75
711.36	363.22
711.765	337.48
712.17	302.37
712.575	307.05
712.98	805.58
713.385	300.03
713.789	262.58
714.194	330.45
714.599	295.35
715.003	332.79
715.408	309.39
715.812	323.43
716.217	307.05
716.621	372.58
717.025	353.86
717.429	300.03
717.833	367.9
718.238	384.29
718.642	304.71
719.046	370.24
719.449	309.39
719.853	307.05
720.257	248.54
720.661	293.01
721.065	302.37
721.468	337.48
721.872	253.22
722.275	321.09
722.679	353.86
723.082	302.37
723.485	351.52
723.889	323.43
724.292	321.09
724.695	318.75
725.098	302.37
725.501	307.05
725.904	264.92
726.307	325.77
726.71	370.24
727.113	307.05
727.516	332.79
727.918	316.41
728.321	346.84
728.724	330.45
729.126	300.03
729.529	293.01
729.931	295.35
730.333	370.24
730.736	321.09
731.138	300.03
731.54	353.86
731.942	330.45
732.344	344.5
732.746	349.18
733.148	346.84
733.55	323.43
733.952	335.14
734.354	295.35
734.756	358.54
735.157	295.35
735.559	293.01
735.96	295.35
736.362	311.73
736.763	311.73
737.165	297.69
737.566	353.86
737.967	381.95
738.368	377.27
738.77	353.86
739.171	323.43
739.572	318.75
739.973	379.61
740.374	395.99
740.774	300.03
741.175	288.32
741.576	351.52
741.977	349.18
742.377	330.45
742.778	314.07
743.178	285.98
743.579	363.22
743.979	321.09
744.379	335.14
744.78	316.41
745.18	316.41
745.58	328.11
745.98	395.99
746.38	332.79
746.78	342.16
747.18	360.88
747.58	328.11
747.98	311.73
748.38	330.45
748.779	367.9
749.179	316.41
749.578	356.2
749.978	293.01
750.377	363.22
750.777	274.28
751.176	285.98
751.575	300.03
751.975	363.22
752.374	332.79
752.773	325.77
753.172	330.45
753.571	309.39
753.97	304.71
754.369	325.77
754.768	304.71
755.166	302.37
755.565	323.43
755.964	307.05
756.362	323.43
756.761	316.41
757.159	363.22
757.558	311.73
757.956	360.88
758.354	283.64
758.753	309.39
759.151	374.92
759.549	293.01
759.947	297.69
760.345	288.32
760.743	323.43
761.141	300.03
761.539	353.86
761.936	285.98
762.334	388.97
762.732	311.73
763.129	314.07
763.527	342.16
763.924	325.77
764.322	283.64
