Data from Al_FLMS009871__783__15-21-47-214.txt Node

Date: Fri Mar 08 15:21:47 CST 2024
User: pe5414po
Spectrometer: FLMS00987
Trigger mode: 0
Integration Time (sec): 1.000000E-1
Scans to average: 1
Electric dark correction enabled: true
Nonlinearity correction enabled: false
Boxcar width: 0
XAxis mode: Wavelengths
Number of Pixels in Spectrum: 2048
>>>>>Begin Spectral Data<<<<<
188.938	-38.03
189.409	-38.03
189.879	-38.03
190.349	-112.93
190.819	-131.66
191.29	-192.51
191.76	-108.25
192.23	-119.95
192.7	-66.12
193.17	-38.03
193.64	-31.01
194.109	25.16
194.579	-28.67
195.049	-5.27
195.519	69.63
195.988	-21.65
196.458	1.76
196.927	116.44
197.397	100.06
197.866	142.19
198.336	156.23
198.805	130.48
199.274	165.59
199.744	174.96
200.213	167.93
200.682	259.21
201.151	191.34
201.62	259.21
202.089	273.26
202.558	219.43
203.027	235.81
203.495	189
203.964	301.34
204.433	280.28
204.902	193.68
205.37	294.32
205.839	266.24
206.307	280.28
206.776	233.47
207.244	287.3
207.712	306.03
208.181	362.2
208.649	294.32
209.117	317.73
209.585	329.43
210.053	287.3
210.521	203.04
210.989	259.21
211.457	238.15
211.925	233.47
212.393	273.26
212.861	277.94
213.328	282.62
213.796	306.03
214.264	299
214.731	275.6
215.199	282.62
215.666	270.92
216.133	263.9
216.601	289.64
217.068	273.26
217.535	256.87
218.003	289.64
218.47	308.37
218.937	341.13
219.404	242.83
219.871	282.62
220.338	275.6
220.805	252.19
221.271	263.9
221.738	266.24
222.205	299
222.671	301.34
223.138	228.79
223.605	303.68
224.071	273.26
224.538	261.55
225.004	224.11
225.47	291.98
225.937	268.58
226.403	233.47
226.869	303.68
227.335	200.7
227.801	299
228.267	212.4
228.733	284.96
229.199	249.85
229.665	287.3
230.131	266.24
230.597	249.85
231.062	315.39
231.528	249.85
231.994	296.66
232.459	277.94
232.925	324.75
233.39	343.47
233.856	217.08
234.321	277.94
234.786	291.98
235.252	254.53
235.717	221.77
236.182	280.28
236.647	268.58
237.112	252.19
237.577	275.6
238.042	268.58
238.507	303.68
238.972	306.03
239.436	299
239.901	268.58
240.366	240.49
240.83	259.21
241.295	212.4
241.76	341.13
242.224	249.85
242.688	249.85
243.153	287.3
243.617	259.21
244.081	273.26
244.545	240.49
245.01	226.45
245.474	259.21
245.938	203.04
246.402	275.6
246.866	282.62
247.33	242.83
247.793	263.9
248.257	306.03
248.721	273.26
249.185	284.96
249.648	261.55
250.112	219.43
250.575	287.3
251.039	299
251.502	231.13
251.965	294.32
252.429	287.3
252.892	306.03
253.355	294.32
253.818	287.3
254.281	291.98
254.744	324.75
255.207	301.34
255.67	273.26
256.133	324.75
256.596	299
257.059	254.53
257.522	252.19
257.984	261.55
258.447	273.26
258.909	210.06
259.372	261.55
259.834	233.47
260.297	317.73
260.759	275.6
261.221	249.85
261.684	303.68
262.146	284.96
262.608	299
263.07	343.47
263.532	287.3
263.994	362.2
264.456	320.07
264.918	284.96
265.38	254.53
265.842	231.13
266.303	277.94
266.765	294.32
267.227	287.3
267.688	299
268.15	277.94
268.611	249.85
269.072	357.52
269.534	287.3
269.995	322.41
270.456	282.62
270.918	301.34
271.379	289.64
271.84	301.34
272.301	296.66
272.762	355.18
273.223	247.51
273.684	350.5
274.144	261.55
274.605	235.81
275.066	313.05
275.527	291.98
275.987	291.98
276.448	313.05
276.908	270.92
277.369	287.3
277.829	270.92
278.289	256.87
278.75	324.75
279.21	322.41
279.67	277.94
280.13	247.51
280.59	277.94
281.05	301.34
281.51	273.26
281.97	324.75
282.43	376.24
282.89	287.3
283.35	289.64
283.809	303.68
284.269	296.66
284.729	336.45
285.188	277.94
285.648	275.6
286.107	296.66
286.567	259.21
287.026	313.05
287.485	282.62
287.944	282.62
288.404	310.71
288.863	277.94
289.322	282.62
289.781	303.68
290.24	341.13
290.699	256.87
291.158	320.07
291.616	308.37
292.075	390.28
292.534	306.03
292.992	301.34
293.451	327.09
293.91	336.45
294.368	343.47
294.827	315.39
295.285	284.96
295.743	284.96
296.202	289.64
296.66	315.39
297.118	240.49
297.576	291.98
298.034	245.17
298.492	280.28
298.95	301.34
299.408	315.39
299.866	373.9
300.324	294.32
300.781	261.55
301.239	336.45
301.697	254.53
302.154	303.68
302.612	301.34
303.069	303.68
303.527	280.28
303.984	270.92
304.441	291.98
304.899	299
305.356	357.52
305.813	303.68
306.27	336.45
306.727	228.79
307.184	331.77
307.641	313.05
308.098	282.62
308.555	355.18
309.012	277.94
309.468	320.07
309.925	259.21
310.382	270.92
310.838	289.64
311.295	362.2
311.751	270.92
312.208	291.98
312.664	294.32
313.12	261.55
313.577	310.71
314.033	266.24
314.489	233.47
314.945	287.3
315.401	284.96
315.857	355.18
316.313	249.85
316.769	364.54
317.225	324.75
317.681	291.98
318.136	327.09
318.592	320.07
319.048	284.96
319.503	296.66
319.959	336.45
320.414	373.9
320.869	341.13
321.325	287.3
321.78	362.2
322.235	341.13
322.691	350.5
323.146	249.85
323.601	324.75
324.056	352.84
324.511	352.84
324.966	301.34
325.421	343.47
325.875	306.03
326.33	315.39
326.785	263.9
327.24	327.09
327.694	291.98
328.149	277.94
328.603	329.43
329.058	308.37
329.512	252.19
329.966	341.13
330.421	320.07
330.875	219.43
331.329	299
331.783	308.37
332.237	306.03
332.691	359.86
333.145	306.03
333.599	303.68
334.053	294.32
334.507	287.3
334.96	291.98
335.414	362.2
335.868	287.3
336.321	301.34
336.775	282.62
337.228	261.55
337.682	329.43
338.135	338.79
338.588	313.05
339.042	359.86
339.495	345.81
339.948	280.28
340.401	200.7
340.854	254.53
341.307	310.71
341.76	331.77
342.213	341.13
342.666	254.53
343.119	327.09
343.571	313.05
344.024	324.75
344.477	315.39
344.929	364.54
345.382	322.41
345.834	296.66
346.287	287.3
346.739	320.07
347.191	336.45
347.644	334.11
348.096	324.75
348.548	301.34
349	336.45
349.452	294.32
349.904	357.52
350.356	371.56
350.808	322.41
351.26	331.77
351.711	240.49
352.163	280.28
352.615	306.03
353.066	357.52
353.518	324.75
353.969	329.43
354.421	299
354.872	320.07
355.324	284.96
355.775	371.56
356.226	270.92
356.677	261.55
357.128	336.45
357.579	296.66
358.03	329.43
358.481	359.86
358.932	252.19
359.383	359.86
359.834	277.94
360.285	345.81
360.735	306.03
361.186	317.73
361.637	343.47
362.087	254.53
362.538	294.32
362.988	320.07
363.438	280.28
363.889	385.6
364.339	369.22
364.789	291.98
365.239	336.45
365.689	373.9
366.139	266.24
366.589	357.52
367.039	289.64
367.489	317.73
367.939	331.77
368.389	301.34
368.839	336.45
369.288	289.64
369.738	284.96
370.187	334.11
370.637	294.32
371.086	355.18
371.536	308.37
371.985	320.07
372.434	348.15
372.884	310.71
373.333	266.24
373.782	280.28
374.231	401.99
374.68	256.87
375.129	331.77
375.578	338.79
376.027	317.73
376.475	350.5
376.924	268.58
377.373	263.9
377.822	355.18
378.27	266.24
378.719	324.75
379.167	282.62
379.616	308.37
380.064	224.11
380.512	338.79
380.961	310.71
381.409	280.28
381.857	299
382.305	284.96
382.753	331.77
383.201	355.18
383.649	387.94
384.097	284.96
384.545	277.94
384.992	301.34
385.44	322.41
385.888	394.97
386.335	306.03
386.783	366.88
387.231	284.96
387.678	385.6
388.125	359.86
388.573	273.26
389.02	303.68
389.467	320.07
389.914	289.64
390.362	380.92
390.809	322.41
391.256	296.66
391.703	284.96
392.15	383.26
392.596	348.15
393.043	259.21
393.49	296.66
393.937	352.84
394.383	280.28
394.83	327.09
395.276	334.11
395.723	291.98
396.169	320.07
396.616	308.37
397.062	280.28
397.508	291.98
397.954	327.09
398.401	270.92
398.847	327.09
399.293	280.28
399.739	303.68
400.185	313.05
400.631	308.37
401.076	308.37
401.522	275.6
401.968	273.26
402.414	301.34
402.859	341.13
403.305	289.64
403.75	320.07
404.196	373.9
404.641	345.81
405.086	315.39
405.532	341.13
405.977	303.68
406.422	308.37
406.867	350.5
407.312	352.84
407.757	277.94
408.202	380.92
408.647	331.77
409.092	315.39
409.537	320.07
409.982	291.98
410.426	334.11
410.871	385.6
411.316	352.84
411.76	303.68
412.205	350.5
412.649	287.3
413.093	359.86
413.538	306.03
413.982	301.34
414.426	334.11
414.87	310.71
415.314	357.52
415.758	320.07
416.202	364.54
416.646	268.58
417.09	303.68
417.534	355.18
417.978	350.5
418.421	322.41
418.865	362.2
419.309	291.98
419.752	345.81
420.196	371.56
420.639	324.75
421.083	329.43
421.526	303.68
421.969	373.9
422.412	277.94
422.856	277.94
423.299	331.77
423.742	329.43
424.185	341.13
424.628	291.98
425.071	324.75
425.513	348.15
425.956	322.41
426.399	357.52
426.842	327.09
427.284	380.92
427.727	313.05
428.169	306.03
428.612	364.54
429.054	280.28
429.497	348.15
429.939	371.56
430.381	273.26
430.823	331.77
431.265	331.77
431.707	317.73
432.149	338.79
432.591	275.6
433.033	301.34
433.475	329.43
433.917	313.05
434.359	308.37
434.8	338.79
435.242	308.37
435.684	327.09
436.125	273.26
436.567	322.41
437.008	397.31
437.449	317.73
437.891	336.45
438.332	270.92
438.773	320.07
439.214	291.98
439.656	345.81
440.097	294.32
440.538	327.09
440.978	313.05
441.419	313.05
441.86	289.64
442.301	324.75
442.742	275.6
443.182	268.58
443.623	399.65
444.063	313.05
444.504	306.03
444.944	301.34
445.385	334.11
445.825	306.03
446.265	338.79
446.706	348.15
447.146	313.05
447.586	245.17
448.026	263.9
448.466	294.32
448.906	294.32
449.346	306.03
449.786	327.09
450.225	322.41
450.665	376.24
451.105	371.56
451.544	334.11
451.984	275.6
452.424	287.3
452.863	317.73
453.302	352.84
453.742	324.75
454.181	362.2
454.62	348.15
455.059	350.5
455.499	324.75
455.938	324.75
456.377	291.98
456.816	313.05
457.254	334.11
457.693	249.85
458.132	315.39
458.571	364.54
459.01	338.79
459.448	338.79
459.887	296.66
460.325	404.33
460.764	336.45
461.202	284.96
461.641	299
462.079	362.2
462.517	373.9
462.955	341.13
463.393	277.94
463.832	317.73
464.27	301.34
464.708	322.41
465.145	324.75
465.583	320.07
466.021	327.09
466.459	359.86
466.897	296.66
467.334	282.62
467.772	350.5
468.209	299
468.647	301.34
469.084	357.52
469.522	373.9
469.959	315.39
470.396	313.05
470.833	256.87
471.271	387.94
471.708	317.73
472.145	357.52
472.582	329.43
473.019	306.03
473.456	352.84
473.892	327.09
474.329	313.05
474.766	355.18
475.202	287.3
475.639	357.52
476.076	322.41
476.512	310.71
476.949	359.86
477.385	315.39
477.821	308.37
478.258	324.75
478.694	355.18
479.13	315.39
479.566	329.43
480.002	345.81
480.438	348.15
480.874	303.68
481.31	357.52
481.746	317.73
482.181	317.73
482.617	336.45
483.053	320.07
483.488	303.68
483.924	359.86
484.36	270.92
484.795	336.45
485.23	327.09
485.666	320.07
486.101	329.43
486.536	299
486.971	275.6
487.407	369.22
487.842	303.68
488.277	355.18
488.712	308.37
489.146	329.43
489.581	306.03
490.016	301.34
490.451	252.19
490.885	322.41
491.32	284.96
491.755	329.43
492.189	350.5
492.624	331.77
493.058	357.52
493.492	348.15
493.927	322.41
494.361	310.71
494.795	366.88
495.229	256.87
495.663	294.32
496.097	324.75
496.531	252.19
496.965	308.37
497.399	282.62
497.833	282.62
498.266	291.98
498.7	299
499.134	289.64
499.567	369.22
500.001	313.05
500.434	331.77
500.868	317.73
501.301	313.05
501.734	352.84
502.168	399.65
502.601	306.03
503.034	373.9
503.467	371.56
503.9	343.47
504.333	306.03
504.766	371.56
505.199	280.28
505.632	273.26
506.064	301.34
506.497	301.34
506.93	320.07
507.362	322.41
507.795	331.77
508.227	406.67
508.66	322.41
509.092	308.37
509.524	329.43
509.956	301.34
510.389	320.07
510.821	315.39
511.253	341.13
511.685	373.9
512.117	284.96
512.549	299
512.981	380.92
513.412	306.03
513.844	299
514.276	343.47
514.707	355.18
515.139	273.26
515.571	263.9
516.002	350.5
516.433	334.11
516.865	383.26
517.296	270.92
517.727	308.37
518.159	277.94
518.59	273.26
519.021	289.64
519.452	289.64
519.883	331.77
520.314	357.52
520.744	299
521.175	313.05
521.606	331.77
522.037	291.98
522.467	383.26
522.898	359.86
523.328	324.75
523.759	287.3
524.189	270.92
524.62	294.32
525.05	310.71
525.48	338.79
525.91	366.88
526.341	266.24
526.771	413.69
527.201	308.37
527.631	373.9
528.061	219.43
528.49	296.66
528.92	299
529.35	364.54
529.78	313.05
530.209	324.75
530.639	343.47
531.068	336.45
531.498	359.86
531.927	310.71
532.357	268.58
532.786	329.43
533.215	345.81
533.644	376.24
534.074	331.77
534.503	263.9
534.932	275.6
535.361	308.37
535.79	280.28
536.218	296.66
536.647	369.22
537.076	413.69
537.505	242.83
537.933	299
538.362	324.75
538.79	273.26
539.219	256.87
539.647	308.37
540.076	317.73
540.504	366.88
540.932	303.68
541.36	329.43
541.788	299
542.217	317.73
542.645	313.05
543.073	310.71
543.5	345.81
543.928	303.68
544.356	345.81
544.784	376.24
545.211	303.68
545.639	331.77
546.067	310.71
546.494	378.58
546.922	308.37
547.349	310.71
547.776	320.07
548.204	341.13
548.631	338.79
549.058	336.45
549.485	397.31
549.912	373.9
550.339	282.62
550.766	313.05
551.193	313.05
551.62	310.71
552.047	308.37
552.474	350.5
552.9	324.75
553.327	334.11
553.754	275.6
554.18	294.32
554.607	343.47
555.033	348.15
555.459	324.75
555.886	390.28
556.312	329.43
556.738	306.03
557.164	317.73
557.59	338.79
558.016	352.84
558.442	275.6
558.868	343.47
559.294	350.5
559.72	303.68
560.145	343.47
560.571	320.07
560.997	287.3
561.422	310.71
561.848	343.47
562.273	291.98
562.699	327.09
563.124	352.84
563.549	303.68
563.974	334.11
564.4	327.09
564.825	359.86
565.25	334.11
565.675	315.39
566.1	287.3
566.525	299
566.95	334.11
567.374	334.11
567.799	282.62
568.224	291.98
568.648	303.68
569.073	352.84
569.497	334.11
569.922	327.09
570.346	350.5
570.771	301.34
571.195	291.98
571.619	338.79
572.043	322.41
572.467	306.03
572.891	308.37
573.315	364.54
573.739	383.26
574.163	334.11
574.587	296.66
575.011	289.64
575.435	341.13
575.858	289.64
576.282	343.47
576.705	287.3
577.129	378.58
577.552	329.43
577.976	303.68
578.399	291.98
578.822	320.07
579.245	254.53
579.669	331.77
580.092	291.98
580.515	294.32
580.938	299
581.361	327.09
581.784	329.43
582.206	369.22
582.629	338.79
583.052	308.37
583.474	383.26
583.897	289.64
584.32	306.03
584.742	303.68
585.165	270.92
585.587	299
586.009	341.13
586.431	338.79
586.854	310.71
587.276	341.13
587.698	270.92
588.12	362.2
588.542	345.81
588.964	280.28
589.386	287.3
589.807	289.64
590.229	357.52
590.651	313.05
591.073	299
591.494	320.07
591.916	294.32
592.337	331.77
592.759	291.98
593.18	247.51
593.601	336.45
594.022	357.52
594.444	324.75
594.865	327.09
595.286	277.94
595.707	378.58
596.128	322.41
596.549	306.03
596.97	294.32
597.39	301.34
597.811	291.98
598.232	315.39
598.652	315.39
599.073	324.75
599.494	303.68
599.914	275.6
600.334	324.75
600.755	268.58
601.175	315.39
601.595	301.34
602.015	306.03
602.436	324.75
602.856	376.24
603.276	390.28
603.696	294.32
604.115	315.39
604.535	357.52
604.955	331.77
605.375	310.71
605.794	334.11
606.214	324.75
606.634	355.18
607.053	320.07
607.473	303.68
607.892	348.15
608.311	301.34
608.731	331.77
609.15	341.13
609.569	315.39
609.988	331.77
610.407	313.05
610.826	291.98
611.245	315.39
611.664	343.47
612.083	371.56
612.501	287.3
612.92	303.68
613.339	385.6
613.757	376.24
614.176	343.47
614.594	310.71
615.013	338.79
615.431	275.6
615.85	313.05
616.268	301.34
616.686	322.41
617.104	256.87
617.522	362.2
617.94	343.47
618.358	327.09
618.776	291.98
619.194	324.75
619.612	315.39
620.03	263.9
620.447	331.77
620.865	359.86
621.282	366.88
621.7	324.75
622.117	284.96
622.535	357.52
622.952	310.71
623.369	313.05
623.787	409.01
624.204	306.03
624.621	331.77
625.038	317.73
625.455	343.47
625.872	352.84
626.289	306.03
626.706	273.26
627.123	313.05
627.539	338.79
627.956	329.43
628.373	315.39
628.789	270.92
629.206	306.03
629.622	313.05
630.038	350.5
630.455	315.39
630.871	331.77
631.287	399.65
631.703	334.11
632.12	310.71
632.536	315.39
632.952	366.88
633.368	301.34
633.783	287.3
634.199	280.28
634.615	315.39
635.031	350.5
635.446	289.64
635.862	245.17
636.277	322.41
636.693	301.34
637.108	277.94
637.524	294.32
637.939	378.58
638.354	301.34
638.77	313.05
639.185	282.62
639.6	259.21
640.015	343.47
640.43	341.13
640.845	315.39
641.259	280.28
641.674	296.66
642.089	338.79
642.504	277.94
642.918	315.39
643.333	416.03
643.747	291.98
644.162	341.13
644.576	334.11
644.991	357.52
645.405	287.3
645.819	275.6
646.233	385.6
646.647	362.2
647.061	242.83
647.475	282.62
647.889	409.01
648.303	336.45
648.717	263.9
649.131	359.86
649.545	355.18
649.958	343.47
650.372	317.73
650.785	284.96
651.199	320.07
651.612	280.28
652.026	334.11
652.439	308.37
652.852	291.98
653.266	284.96
653.679	341.13
654.092	334.11
654.505	256.87
654.918	359.86
655.331	334.11
655.744	343.47
656.156	348.15
656.569	287.3
656.982	343.47
657.394	343.47
657.807	343.47
658.22	331.77
658.632	390.28
659.044	254.53
659.457	404.33
659.869	338.79
660.281	348.15
660.693	362.2
661.106	294.32
661.518	350.5
661.93	350.5
662.342	341.13
662.754	348.15
663.165	357.52
663.577	334.11
663.989	343.47
664.401	324.75
664.812	266.24
665.224	317.73
665.635	352.84
666.047	315.39
666.458	291.98
666.869	352.84
667.281	341.13
667.692	380.92
668.103	245.17
668.514	317.73
668.925	320.07
669.336	352.84
669.747	291.98
670.158	327.09
670.569	345.81
670.979	359.86
671.39	324.75
671.801	327.09
672.211	299
672.622	331.77
673.032	291.98
673.443	235.81
673.853	331.77
674.263	308.37
674.674	324.75
675.084	266.24
675.494	331.77
675.904	362.2
676.314	331.77
676.724	376.24
677.134	301.34
677.544	366.88
677.953	310.71
678.363	357.52
678.773	406.67
679.182	313.05
679.592	355.18
680.001	289.64
680.411	252.19
680.82	240.49
681.23	291.98
681.639	275.6
682.048	284.96
682.457	341.13
682.866	371.56
683.275	275.6
683.684	329.43
684.093	343.47
684.502	385.6
684.911	343.47
685.32	287.3
685.728	317.73
686.137	320.07
686.546	411.35
686.954	277.94
687.363	352.84
687.771	317.73
688.179	280.28
688.588	284.96
688.996	254.53
689.404	329.43
689.812	270.92
690.22	256.87
690.628	357.52
691.036	369.22
691.444	308.37
691.852	331.77
692.26	334.11
692.667	317.73
693.075	371.56
693.483	327.09
693.89	338.79
694.298	306.03
694.705	341.13
695.112	366.88
695.52	280.28
695.927	327.09
696.334	329.43
696.741	343.47
697.148	336.45
697.555	331.77
697.962	313.05
698.369	378.58
698.776	366.88
699.183	336.45
699.59	306.03
699.996	357.52
700.403	376.24
700.81	327.09
701.216	322.41
701.623	306.03
702.029	313.05
702.435	299
702.842	331.77
703.248	249.85
703.654	282.62
704.06	277.94
704.466	336.45
704.872	301.34
705.278	315.39
705.684	317.73
706.09	277.94
706.496	345.81
706.901	341.13
707.307	263.9
707.712	355.18
708.118	301.34
708.523	313.05
708.929	352.84
709.334	331.77
709.74	364.54
710.145	327.09
710.55	338.79
710.955	329.43
711.36	273.26
711.765	341.13
712.17	284.96
712.575	294.32
712.98	762.43
713.385	355.18
713.789	277.94
714.194	343.47
714.599	306.03
715.003	235.81
715.408	280.28
715.812	291.98
716.217	338.79
716.621	287.3
717.025	308.37
717.429	308.37
717.833	327.09
718.238	289.64
718.642	320.07
719.046	345.81
719.449	299
719.853	256.87
720.257	266.24
720.661	373.9
721.065	364.54
721.468	317.73
721.872	362.2
722.275	291.98
722.679	294.32
723.082	247.51
723.485	299
723.889	329.43
724.292	355.18
724.695	338.79
725.098	380.92
725.501	280.28
725.904	284.96
726.307	294.32
726.71	261.55
727.113	334.11
727.516	313.05
727.918	324.75
728.321	352.84
728.724	355.18
729.126	357.52
729.529	287.3
729.931	301.34
730.333	282.62
730.736	308.37
731.138	256.87
731.54	282.62
731.942	331.77
732.344	331.77
732.746	345.81
733.148	310.71
733.55	341.13
733.952	291.98
734.354	296.66
734.756	364.54
735.157	313.05
735.559	240.49
735.96	369.22
736.362	352.84
736.763	336.45
737.165	296.66
737.566	376.24
737.967	282.62
738.368	277.94
738.77	294.32
739.171	352.84
739.572	289.64
739.973	355.18
740.374	277.94
740.774	329.43
741.175	231.13
741.576	313.05
741.977	317.73
742.377	287.3
742.778	331.77
743.178	291.98
743.579	291.98
743.979	317.73
744.379	296.66
744.78	310.71
745.18	294.32
745.58	280.28
745.98	284.96
746.38	310.71
746.78	341.13
747.18	343.47
747.58	355.18
747.98	310.71
748.38	336.45
748.779	301.34
749.179	362.2
749.578	331.77
749.978	336.45
750.377	359.86
750.777	313.05
751.176	287.3
751.575	334.11
751.975	256.87
752.374	338.79
752.773	310.71
753.172	320.07
753.571	315.39
753.97	357.52
754.369	345.81
754.768	355.18
755.166	327.09
755.565	338.79
755.964	294.32
756.362	294.32
756.761	327.09
757.159	336.45
757.558	322.41
757.956	263.9
758.354	329.43
758.753	341.13
759.151	275.6
759.549	324.75
759.947	289.64
760.345	303.68
760.743	343.47
761.141	291.98
761.539	338.79
761.936	364.54
762.334	282.62
762.732	306.03
763.129	350.5
763.527	261.55
763.924	294.32
764.322	341.13
764.719	273.26
765.117	329.43
765.514	294.32
765.911	310.71
766.308	277.94
766.705	284.96
767.102	256.87
