Data from Al_FLMS009871__140__11-57-11-781.txt Node

Date: Fri Mar 08 11:57:11 CST 2024
User: pe5414po
Spectrometer: FLMS00987
Trigger mode: 0
Integration Time (sec): 1.000000E-1
Scans to average: 1
Electric dark correction enabled: true
Nonlinearity correction enabled: false
Boxcar width: 0
XAxis mode: Wavelengths
Number of Pixels in Spectrum: 2048
>>>>>Begin Spectral Data<<<<<
188.938	-75.34
189.409	-75.34
189.879	-75.34
190.349	-61.29
190.819	-129.17
191.29	-159.6
191.76	-82.36
192.23	-115.13
192.7	-16.82
193.17	-80.02
193.64	-19.16
194.109	-61.29
194.579	-16.82
195.049	-5.12
195.519	53.39
195.988	79.14
196.458	29.99
196.927	4.24
197.397	118.93
197.866	95.52
198.336	175.1
198.805	135.31
199.274	203.19
199.744	235.96
200.213	210.21
200.682	273.4
201.151	282.77
201.62	245.32
202.089	280.43
202.558	310.85
203.027	313.19
203.495	261.7
203.964	308.51
204.433	261.7
204.902	233.61
205.37	235.96
205.839	303.83
206.307	280.43
206.776	289.79
207.244	303.83
207.712	350.64
208.181	287.45
208.649	228.93
209.117	322.56
209.585	301.49
210.053	320.21
210.521	268.72
210.989	413.84
211.457	287.45
211.925	289.79
212.393	247.66
212.861	324.9
213.328	252.34
213.796	259.36
214.264	331.92
214.731	338.94
215.199	334.26
215.666	247.66
216.133	301.49
216.601	306.17
217.068	322.56
217.535	343.62
218.003	292.13
218.47	280.43
218.937	231.27
219.404	268.72
219.871	329.58
220.338	224.25
220.805	247.66
221.271	268.72
221.738	217.23
222.205	289.79
222.671	299.15
223.138	268.72
223.605	306.17
224.071	257.02
224.538	219.57
225.004	275.74
225.47	268.72
225.937	250
226.403	259.36
226.869	343.62
227.335	259.36
227.801	273.4
228.267	301.49
228.733	301.49
229.199	250
229.665	320.21
230.131	294.47
230.597	280.43
231.062	360
231.528	217.23
231.994	303.83
232.459	292.13
232.925	233.61
233.39	264.04
233.856	289.79
234.321	226.59
234.786	303.83
235.252	331.92
235.717	257.02
236.182	275.74
236.647	294.47
237.112	296.81
237.577	315.53
238.042	310.85
238.507	292.13
238.972	273.4
239.436	264.04
239.901	278.08
240.366	336.6
240.83	299.15
241.295	289.79
241.76	280.43
242.224	245.32
242.688	289.79
243.153	275.74
243.617	327.24
244.081	294.47
244.545	294.47
245.01	271.06
245.474	254.68
245.938	308.51
246.402	231.27
246.866	315.53
247.33	303.83
247.793	285.11
248.257	242.98
248.721	226.59
249.185	264.04
249.648	315.53
250.112	282.77
250.575	285.11
251.039	285.11
251.502	261.7
251.965	278.08
252.429	303.83
252.892	306.17
253.355	310.85
253.818	313.19
254.281	282.77
254.744	287.45
255.207	231.27
255.67	252.34
256.133	273.4
256.596	355.32
257.059	226.59
257.522	245.32
257.984	257.02
258.447	364.68
258.909	233.61
259.372	271.06
259.834	271.06
260.297	306.17
260.759	308.51
261.221	322.56
261.684	331.92
262.146	266.38
262.608	343.62
263.07	261.7
263.532	329.58
263.994	371.71
264.456	329.58
264.918	273.4
265.38	266.38
265.842	266.38
266.303	367.03
266.765	336.6
267.227	303.83
267.688	324.9
268.15	264.04
268.611	322.56
269.072	238.3
269.534	273.4
269.995	296.81
270.456	327.24
270.918	278.08
271.379	273.4
271.84	266.38
272.301	301.49
272.762	331.92
273.223	273.4
273.684	317.87
274.144	362.34
274.605	294.47
275.066	324.9
275.527	303.83
275.987	327.24
276.448	250
276.908	301.49
277.369	287.45
277.829	338.94
278.289	247.66
278.75	343.62
279.21	257.02
279.67	315.53
280.13	313.19
280.59	320.21
281.05	310.85
281.51	329.58
281.97	292.13
282.43	292.13
282.89	299.15
283.35	289.79
283.809	313.19
284.269	341.28
284.729	355.32
285.188	345.96
285.648	322.56
286.107	273.4
286.567	334.26
287.026	242.98
287.485	289.79
287.944	395.11
288.404	327.24
288.863	343.62
289.322	289.79
289.781	331.92
290.24	360
290.699	289.79
291.158	301.49
291.616	261.7
292.075	306.17
292.534	306.17
292.992	275.74
293.451	275.74
293.91	299.15
294.368	235.96
294.827	296.81
295.285	301.49
295.743	268.72
296.202	257.02
296.66	289.79
297.118	338.94
297.576	303.83
298.034	310.85
298.492	306.17
298.95	233.61
299.408	257.02
299.866	301.49
300.324	313.19
300.781	362.34
301.239	289.79
301.697	348.3
302.154	308.51
302.612	273.4
303.069	310.85
303.527	257.02
303.984	317.87
304.441	345.96
304.899	285.11
305.356	285.11
305.813	282.77
306.27	341.28
306.727	294.47
307.184	357.66
307.641	287.45
308.098	331.92
308.555	310.85
309.012	338.94
309.468	364.68
309.925	282.77
310.382	264.04
310.838	266.38
311.295	322.56
311.751	327.24
312.208	364.68
312.664	350.64
313.12	352.98
313.577	254.68
314.033	341.28
314.489	360
314.945	343.62
315.401	282.77
315.857	378.73
316.313	306.17
316.769	390.43
317.225	296.81
317.681	294.47
318.136	324.9
318.592	334.26
319.048	348.3
319.503	254.68
319.959	315.53
320.414	306.17
320.869	301.49
321.325	374.05
321.78	313.19
322.235	338.94
322.691	296.81
323.146	299.15
323.601	341.28
324.056	362.34
324.511	388.09
324.966	404.47
325.421	364.68
325.875	324.9
326.33	306.17
326.785	367.03
327.24	369.37
327.694	322.56
328.149	371.71
328.603	268.72
329.058	327.24
329.512	338.94
329.966	324.9
330.421	338.94
330.875	399.79
331.329	364.68
331.783	331.92
332.237	343.62
332.691	355.32
333.145	310.85
333.599	308.51
334.053	315.53
334.507	292.13
334.96	355.32
335.414	299.15
335.868	350.64
336.321	320.21
336.775	247.66
337.228	275.74
337.682	285.11
338.135	301.49
338.588	360
339.042	320.21
339.495	348.3
339.948	306.17
340.401	360
340.854	348.3
341.307	374.05
341.76	327.24
342.213	352.98
342.666	362.34
343.119	299.15
343.571	327.24
344.024	317.87
344.477	296.81
344.929	381.07
345.382	336.6
345.834	299.15
346.287	275.74
346.739	320.21
347.191	306.17
347.644	317.87
348.096	271.06
348.548	306.17
349	289.79
349.452	324.9
349.904	266.38
350.356	327.24
350.808	334.26
351.26	345.96
351.711	348.3
352.163	264.04
352.615	308.51
353.066	371.71
353.518	327.24
353.969	289.79
354.421	261.7
354.872	261.7
355.324	287.45
355.775	374.05
356.226	360
356.677	341.28
357.128	327.24
357.579	320.21
358.03	303.83
358.481	371.71
358.932	250
359.383	336.6
359.834	238.3
360.285	268.72
360.735	306.17
361.186	301.49
361.637	303.83
362.087	310.85
362.538	315.53
362.988	357.66
363.438	303.83
363.889	315.53
364.339	345.96
364.789	362.34
365.239	299.15
365.689	334.26
366.139	338.94
366.589	378.73
367.039	334.26
367.489	374.05
367.939	268.72
368.389	345.96
368.839	301.49
369.288	292.13
369.738	303.83
370.187	334.26
370.637	261.7
371.086	308.51
371.536	285.11
371.985	338.94
372.434	282.77
372.884	317.87
373.333	327.24
373.782	371.71
374.231	331.92
374.68	369.37
375.129	355.32
375.578	364.68
376.027	320.21
376.475	320.21
376.924	334.26
377.373	378.73
377.822	350.64
378.27	308.51
378.719	294.47
379.167	376.39
379.616	329.58
380.064	367.03
380.512	313.19
380.961	310.85
381.409	303.83
381.857	285.11
382.305	322.56
382.753	348.3
383.201	331.92
383.649	338.94
384.097	338.94
384.545	264.04
384.992	327.24
385.44	357.66
385.888	308.51
386.335	360
386.783	355.32
387.231	374.05
387.678	317.87
388.125	345.96
388.573	362.34
389.02	345.96
389.467	360
389.914	364.68
390.362	336.6
390.809	324.9
391.256	364.68
391.703	362.34
392.15	308.51
392.596	317.87
393.043	287.45
393.49	317.87
393.937	343.62
394.383	280.43
394.83	331.92
395.276	296.81
395.723	303.83
396.169	329.58
396.616	313.19
397.062	343.62
397.508	376.39
397.954	334.26
398.401	280.43
398.847	334.26
399.293	404.47
399.739	280.43
400.185	371.71
400.631	331.92
401.076	259.36
401.522	327.24
401.968	299.15
402.414	455.97
402.859	390.43
403.305	343.62
403.75	420.86
404.196	327.24
404.641	385.75
405.086	343.62
405.532	301.49
405.977	308.51
406.422	331.92
406.867	369.37
407.312	343.62
407.757	378.73
408.202	308.51
408.647	338.94
409.092	348.3
409.537	362.34
409.982	371.71
410.426	336.6
410.871	336.6
411.316	308.51
411.76	338.94
412.205	315.53
412.649	364.68
413.093	280.43
413.538	308.51
413.982	327.24
414.426	404.47
414.87	364.68
415.314	331.92
415.758	331.92
416.202	322.56
416.646	308.51
417.09	364.68
417.534	352.98
417.978	329.58
418.421	273.4
418.865	336.6
419.309	336.6
419.752	273.4
420.196	322.56
420.639	355.32
421.083	308.51
421.526	294.47
421.969	374.05
422.412	409.15
422.856	350.64
423.299	392.77
423.742	343.62
424.185	369.37
424.628	399.79
425.071	320.21
425.513	317.87
425.956	320.21
426.399	376.39
426.842	367.03
427.284	341.28
427.727	369.37
428.169	322.56
428.612	402.13
429.054	397.45
429.497	352.98
429.939	310.85
430.381	418.52
430.823	360
431.265	409.15
431.707	399.79
432.149	420.86
432.591	390.43
433.033	409.15
433.475	381.07
433.917	427.88
434.359	374.05
434.8	460.65
435.242	516.82
435.684	516.82
436.125	484.05
436.567	425.54
437.008	430.22
437.449	439.58
437.891	467.67
438.332	432.56
438.773	437.24
439.214	462.99
439.656	434.9
440.097	462.99
440.538	462.99
440.978	479.37
441.419	474.69
441.86	432.56
442.301	446.6
442.742	484.05
443.182	430.22
443.623	437.24
444.063	495.75
444.504	432.56
444.944	563.63
445.385	462.99
445.825	526.18
446.265	458.31
446.706	491.07
447.146	495.75
447.586	441.92
448.026	462.99
448.466	561.29
448.906	488.73
449.346	505.12
449.786	565.97
450.225	465.33
450.665	439.58
451.105	491.07
451.544	533.2
451.984	498.1
452.424	446.6
452.863	434.9
453.302	465.33
453.742	495.75
454.181	462.99
454.62	404.47
455.059	404.47
455.499	474.69
455.938	453.63
456.377	455.97
456.816	462.99
457.254	444.26
457.693	446.6
458.132	381.07
458.571	427.88
459.01	404.47
459.448	432.56
459.887	395.11
460.325	418.52
460.764	484.05
461.202	327.24
461.641	462.99
462.079	453.63
462.517	395.11
462.955	460.65
463.393	392.77
463.832	437.24
464.27	385.75
464.708	406.81
465.145	406.81
465.583	430.22
466.021	367.03
466.459	406.81
466.897	399.79
467.334	390.43
467.772	341.28
468.209	388.09
468.647	395.11
469.084	357.66
469.522	385.75
469.959	357.66
470.396	367.03
470.833	388.09
471.271	416.18
471.708	350.64
472.145	341.28
472.582	411.5
473.019	367.03
473.456	404.47
473.892	437.24
474.329	413.84
474.766	388.09
475.202	378.73
475.639	383.41
476.076	399.79
476.512	392.77
476.949	395.11
477.385	399.79
477.821	434.9
478.258	338.94
478.694	355.32
479.13	374.05
479.566	390.43
480.002	371.71
480.438	327.24
480.874	411.5
481.31	345.96
481.746	324.9
482.181	348.3
482.617	364.68
483.053	336.6
483.488	392.77
483.924	427.88
484.36	374.05
484.795	350.64
485.23	406.81
485.666	406.81
486.101	470.01
486.536	434.9
486.971	446.6
487.407	432.56
487.842	427.88
488.277	439.58
488.712	470.01
489.146	441.92
489.581	439.58
490.016	390.43
490.451	392.77
490.885	364.68
491.32	439.58
491.755	453.63
492.189	455.97
492.624	355.32
493.058	425.54
493.492	458.31
493.927	446.6
494.361	376.39
494.795	360
495.229	385.75
495.663	402.13
496.097	409.15
496.531	472.35
496.965	399.79
497.399	406.81
497.833	439.58
498.266	352.98
498.7	385.75
499.134	427.88
499.567	385.75
500.001	369.37
500.434	371.71
500.868	420.86
501.301	395.11
501.734	392.77
502.168	390.43
502.601	390.43
503.034	402.13
503.467	402.13
503.9	392.77
504.333	413.84
504.766	423.2
505.199	453.63
505.632	397.45
506.064	439.58
506.497	392.77
506.93	444.26
507.362	451.28
507.795	399.79
508.227	420.86
508.66	355.32
509.092	338.94
509.524	430.22
509.956	381.07
510.389	369.37
510.821	420.86
511.253	336.6
511.685	336.6
512.117	404.47
512.549	390.43
512.981	430.22
513.412	402.13
513.844	378.73
514.276	416.18
514.707	404.47
515.139	383.41
515.571	388.09
516.002	413.84
516.433	465.33
516.865	453.63
517.296	402.13
517.727	404.47
518.159	360
518.59	441.92
519.021	455.97
519.452	364.68
519.883	420.86
520.314	418.52
520.744	402.13
521.175	526.18
521.606	500.44
522.037	420.86
522.467	334.26
522.898	425.54
523.328	444.26
523.759	460.65
524.189	425.54
524.62	404.47
525.05	409.15
525.48	390.43
525.91	477.03
526.341	427.88
526.771	462.99
527.201	413.84
527.631	437.24
528.061	388.09
528.49	470.01
528.92	376.39
529.35	425.54
529.78	409.15
530.209	409.15
530.639	453.63
531.068	434.9
531.498	437.24
531.927	404.47
532.357	446.6
532.786	451.28
533.215	423.2
533.644	343.62
534.074	420.86
534.503	423.2
534.932	388.09
535.361	425.54
535.79	437.24
536.218	406.81
536.647	500.44
537.076	418.52
537.505	418.52
537.933	455.97
538.362	535.54
538.79	465.33
539.219	488.73
539.647	451.28
540.076	512.14
540.504	519.16
540.932	577.67
541.36	692.36
541.788	734.49
542.217	713.42
542.645	708.74
543.073	746.19
543.5	800.02
543.928	708.74
544.356	725.13
544.784	722.79
545.211	750.87
545.639	764.92
546.067	727.47
546.494	615.12
546.922	594.06
547.349	584.7
547.776	526.18
548.204	549.59
548.631	498.1
549.058	521.5
549.485	465.33
549.912	486.39
550.339	516.82
550.766	505.12
551.193	512.14
551.62	516.82
552.047	458.31
552.474	462.99
552.9	467.67
553.327	427.88
553.754	360
554.18	402.13
554.607	488.73
555.033	416.18
555.459	451.28
555.886	413.84
556.312	444.26
556.738	472.35
557.164	423.2
557.59	360
558.016	430.22
558.442	451.28
558.868	418.52
559.294	462.99
559.72	423.2
560.145	392.77
560.571	458.31
560.997	427.88
561.422	418.52
561.848	397.45
562.273	397.45
562.699	345.96
563.124	381.07
563.549	409.15
563.974	432.56
564.4	399.79
564.825	397.45
565.25	427.88
565.675	446.6
566.1	458.31
566.525	390.43
566.95	437.24
567.374	441.92
567.799	390.43
568.224	416.18
568.648	404.47
569.073	399.79
569.497	430.22
569.922	423.2
570.346	413.84
570.771	345.96
571.195	413.84
571.619	434.9
572.043	392.77
572.467	397.45
572.891	425.54
573.315	378.73
573.739	418.52
574.163	425.54
574.587	441.92
575.011	427.88
575.435	385.75
575.858	399.79
576.282	390.43
576.705	444.26
577.129	484.05
577.552	397.45
577.976	474.69
578.399	427.88
578.822	470.01
579.245	465.33
579.669	460.65
580.092	409.15
580.515	409.15
580.938	477.03
581.361	446.6
581.784	448.94
582.206	502.78
582.629	404.47
583.052	444.26
583.474	446.6
583.897	345.96
584.32	437.24
584.742	392.77
585.165	470.01
585.587	512.14
586.009	495.75
586.431	512.14
586.854	481.71
587.276	491.07
587.698	484.05
588.12	477.03
588.542	390.43
588.964	460.65
589.386	479.37
589.807	352.98
590.229	416.18
590.651	381.07
591.073	458.31
591.494	439.58
591.916	404.47
592.337	432.56
592.759	465.33
593.18	453.63
593.601	350.64
594.022	458.31
594.444	406.81
594.865	446.6
595.286	418.52
595.707	441.92
596.128	369.37
596.549	432.56
596.97	427.88
597.39	376.39
597.811	434.9
598.232	404.47
598.652	434.9
599.073	409.15
599.494	448.94
599.914	432.56
600.334	364.68
600.755	376.39
601.175	385.75
601.595	416.18
602.015	477.03
602.436	364.68
602.856	551.93
603.276	402.13
603.696	418.52
604.115	444.26
604.535	392.77
604.955	402.13
605.375	416.18
605.794	348.3
606.214	367.03
606.634	392.77
607.053	430.22
607.473	385.75
607.892	355.32
608.311	444.26
608.731	500.44
609.15	495.75
609.569	533.2
609.988	659.59
610.407	783.64
610.826	872.58
611.245	856.2
611.664	818.75
612.083	769.6
612.501	708.74
612.92	654.91
613.339	647.89
613.757	558.95
614.176	551.93
614.594	558.95
615.013	491.07
615.431	481.71
615.85	441.92
616.268	406.81
616.686	409.15
617.104	399.79
617.522	376.39
617.94	383.41
618.358	427.88
618.776	376.39
619.194	446.6
619.612	402.13
620.03	434.9
620.447	409.15
620.865	481.71
621.282	381.07
621.7	378.73
622.117	395.11
622.535	390.43
622.952	362.34
623.369	418.52
623.787	385.75
624.204	360
624.621	376.39
625.038	479.37
625.455	399.79
625.872	444.26
626.289	348.3
626.706	364.68
627.123	317.87
627.539	399.79
627.956	352.98
628.373	392.77
628.789	392.77
629.206	439.58
629.622	381.07
630.038	451.28
630.455	416.18
630.871	406.81
631.287	439.58
631.703	362.34
632.12	378.73
632.536	385.75
632.952	329.58
633.368	331.92
633.783	385.75
634.199	362.34
634.615	360
635.031	383.41
635.446	324.9
635.862	345.96
636.277	385.75
636.693	376.39
637.108	327.24
637.524	390.43
637.939	308.51
638.354	364.68
638.77	374.05
639.185	360
639.6	367.03
640.015	369.37
640.43	322.56
640.845	322.56
641.259	427.88
641.674	444.26
642.089	348.3
642.504	399.79
642.918	315.53
643.333	310.85
643.747	334.26
644.162	434.9
644.576	381.07
644.991	310.85
645.405	285.11
645.819	376.39
646.233	343.62
646.647	348.3
647.061	322.56
647.475	306.17
647.889	345.96
648.303	264.04
648.717	303.83
649.131	338.94
649.545	343.62
649.958	345.96
650.372	369.37
650.785	343.62
651.199	355.32
651.612	315.53
652.026	406.81
652.439	334.26
652.852	418.52
653.266	313.19
653.679	338.94
654.092	376.39
654.505	352.98
654.918	348.3
655.331	367.03
655.744	345.96
656.156	327.24
656.569	287.45
656.982	406.81
657.394	327.24
657.807	378.73
658.22	350.64
658.632	348.3
659.044	320.21
659.457	336.6
659.869	306.17
660.281	381.07
660.693	294.47
661.106	341.28
661.518	327.24
661.93	399.79
662.342	315.53
662.754	367.03
663.165	310.85
663.577	341.28
663.989	296.81
664.401	343.62
664.812	383.41
665.224	350.64
665.635	338.94
666.047	348.3
666.458	352.98
666.869	322.56
667.281	324.9
667.692	360
668.103	280.43
668.514	329.58
668.925	320.21
669.336	301.49
669.747	329.58
670.158	341.28
670.569	336.6
670.979	397.45
671.39	275.74
671.801	341.28
672.211	338.94
672.622	350.64
673.032	338.94
673.443	367.03
673.853	357.66
674.263	341.28
674.674	310.85
675.084	360
675.494	303.83
675.904	374.05
676.314	395.11
676.724	331.92
677.134	292.13
677.544	395.11
677.953	374.05
678.363	378.73
678.773	390.43
679.182	364.68
679.592	331.92
680.001	411.5
680.411	334.26
680.82	320.21
681.23	345.96
681.639	315.53
682.048	327.24
682.457	362.34
682.866	299.15
683.275	289.79
683.684	324.9
684.093	308.51
684.502	362.34
684.911	331.92
685.32	289.79
685.728	278.08
686.137	341.28
686.546	390.43
686.954	348.3
687.363	299.15
687.771	348.3
688.179	371.71
688.588	278.08
688.996	327.24
689.404	299.15
689.812	308.51
690.22	250
690.628	334.26
691.036	313.19
691.444	336.6
691.852	402.13
692.26	324.9
692.667	371.71
693.075	334.26
693.483	308.51
693.89	388.09
694.298	287.45
694.705	315.53
695.112	324.9
695.52	289.79
695.927	320.21
696.334	310.85
696.741	273.4
697.148	320.21
697.555	364.68
697.962	294.47
698.369	317.87
698.776	364.68
699.183	299.15
699.59	289.79
699.996	338.94
700.403	289.79
700.81	336.6
701.216	369.37
701.623	345.96
702.029	402.13
702.435	411.5
702.842	360
703.248	306.17
703.654	317.87
704.06	369.37
704.466	355.32
704.872	320.21
705.278	320.21
705.684	331.92
706.09	362.34
706.496	388.09
706.901	299.15
707.307	285.11
707.712	381.07
708.118	338.94
708.523	399.79
708.929	360
709.334	343.62
709.74	352.98
710.145	364.68
710.55	296.81
710.955	268.72
711.36	301.49
711.765	329.58
712.17	336.6
712.575	362.34
712.98	924.07
713.385	392.77
713.789	331.92
714.194	374.05
714.599	310.85
715.003	310.85
715.408	355.32
715.812	292.13
716.217	331.92
716.621	360
717.025	369.37
717.429	331.92
717.833	388.09
718.238	357.66
718.642	390.43
719.046	338.94
719.449	268.72
719.853	259.36
720.257	266.38
720.661	310.85
721.065	317.87
721.468	320.21
721.872	329.58
722.275	306.17
722.679	294.47
723.082	345.96
723.485	322.56
723.889	355.32
724.292	362.34
724.695	324.9
725.098	345.96
725.501	348.3
725.904	355.32
726.307	287.45
726.71	334.26
727.113	317.87
727.516	303.83
727.918	383.41
728.321	310.85
728.724	268.72
729.126	364.68
729.529	338.94
729.931	308.51
730.333	336.6
730.736	324.9
731.138	261.7
731.54	271.06
731.942	341.28
732.344	388.09
732.746	292.13
733.148	308.51
733.55	369.37
733.952	287.45
734.354	292.13
734.756	336.6
735.157	345.96
735.559	404.47
735.96	362.34
736.362	397.45
736.763	355.32
737.165	341.28
737.566	322.56
737.967	334.26
738.368	390.43
738.77	242.98
739.171	334.26
739.572	320.21
739.973	343.62
740.374	381.07
740.774	397.45
741.175	348.3
741.576	294.47
741.977	301.49
742.377	362.34
742.778	310.85
743.178	313.19
743.579	320.21
743.979	374.05
744.379	390.43
744.78	317.87
745.18	367.03
745.58	360
745.98	322.56
746.38	315.53
746.78	289.79
747.18	360
747.58	310.85
747.98	390.43
748.38	385.75
748.779	280.43
749.179	371.71
749.578	299.15
749.978	367.03
750.377	360
750.777	336.6
751.176	310.85
751.575	345.96
751.975	271.06
752.374	320.21
752.773	313.19
753.172	369.37
753.571	322.56
753.97	303.83
754.369	341.28
754.768	301.49
755.166	282.77
755.565	395.11
755.964	324.9
756.362	310.85
756.761	280.43
757.159	345.96
757.558	341.28
757.956	381.07
758.354	313.19
758.753	322.56
759.151	388.09
759.549	352.98
759.947	343.62
760.345	310.85
760.743	334.26
761.141	324.9
761.539	367.03
761.936	282.77
762.334	345.96
762.732	390.43
763.129	334.26
763.527	308.51
763.924	392.77
764.322	355.32
764.719	310.85
765.117	306.17
765.514	331.92
765.911	289.79
766.308	308.51
766.705	327.24
767.102	376.39
