Data from Al_FLMS009871__496__14-36-46-430.txt Node

Date: Fri Mar 08 14:36:46 CST 2024
User: pe5414po
Spectrometer: FLMS00987
Trigger mode: 0
Integration Time (sec): 1.000000E-1
Scans to average: 1
Electric dark correction enabled: true
Nonlinearity correction enabled: false
Boxcar width: 0
XAxis mode: Wavelengths
Number of Pixels in Spectrum: 2048
>>>>>Begin Spectral Data<<<<<
188.938	-69.63
189.409	-69.63
189.879	-69.63
190.349	-116.44
190.819	-116.44
191.29	-78.99
191.76	-76.65
192.23	-57.93
192.7	-46.23
193.17	-74.31
193.64	-18.14
194.109	-43.89
194.579	-43.89
195.049	21.65
195.519	26.33
195.988	49.74
196.458	80.16
196.927	19.31
197.397	80.16
197.866	35.69
198.336	126.97
198.805	197.19
199.274	171.44
199.744	159.74
200.213	185.49
200.682	276.77
201.151	222.94
201.62	206.55
202.089	251.02
202.558	279.11
203.027	244
203.495	218.25
203.964	311.88
204.433	288.47
204.902	316.56
205.37	325.92
205.839	234.64
206.307	286.13
206.776	265.07
207.244	330.6
207.712	321.24
208.181	269.75
208.649	244
209.117	253.36
209.585	300.17
210.053	337.62
210.521	302.51
210.989	349.32
211.457	302.51
211.925	293.15
212.393	316.56
212.861	314.22
213.328	351.67
213.796	328.26
214.264	281.45
214.731	274.43
215.199	262.73
215.666	281.45
216.133	236.98
216.601	307.2
217.068	346.98
217.535	260.38
218.003	339.96
218.47	300.17
218.937	251.02
219.404	279.11
219.871	283.79
220.338	304.85
220.805	269.75
221.271	297.83
221.738	288.47
222.205	286.13
222.671	290.81
223.138	274.43
223.605	274.43
224.071	246.34
224.538	272.09
225.004	236.98
225.47	220.6
225.937	248.68
226.403	248.68
226.869	265.07
227.335	323.58
227.801	281.45
228.267	281.45
228.733	258.04
229.199	286.13
229.665	328.26
230.131	232.3
230.597	222.94
231.062	267.41
231.528	318.9
231.994	307.2
232.459	269.75
232.925	227.62
233.39	281.45
233.856	293.15
234.321	251.02
234.786	288.47
235.252	286.13
235.717	265.07
236.182	346.98
236.647	274.43
237.112	293.15
237.577	286.13
238.042	318.9
238.507	232.3
238.972	192.51
239.436	300.17
239.901	258.04
240.366	279.11
240.83	288.47
241.295	300.17
241.76	302.51
242.224	239.32
242.688	288.47
243.153	204.21
243.617	283.79
244.081	328.26
244.545	281.45
245.01	246.34
245.474	283.79
245.938	215.91
246.402	236.98
246.866	283.79
247.33	295.49
247.793	318.9
248.257	279.11
248.721	290.81
249.185	332.94
249.648	220.6
250.112	288.47
250.575	260.38
251.039	218.25
251.502	253.36
251.965	337.62
252.429	222.94
252.892	368.05
253.355	309.54
253.818	330.6
254.281	302.51
254.744	274.43
255.207	332.94
255.67	251.02
256.133	295.49
256.596	295.49
257.059	286.13
257.522	328.26
257.984	316.56
258.447	290.81
258.909	328.26
259.372	356.35
259.834	297.83
260.297	274.43
260.759	307.2
261.221	236.98
261.684	330.6
262.146	302.51
262.608	328.26
263.07	279.11
263.532	276.77
263.994	337.62
264.456	351.67
264.918	260.38
265.38	311.88
265.842	272.09
266.303	283.79
266.765	248.68
267.227	232.3
267.688	318.9
268.15	232.3
268.611	290.81
269.072	332.94
269.534	236.98
269.995	265.07
270.456	316.56
270.918	330.6
271.379	272.09
271.84	276.77
272.301	328.26
272.762	316.56
273.223	290.81
273.684	349.32
274.144	323.58
274.605	307.2
275.066	354.01
275.527	307.2
275.987	262.73
276.448	309.54
276.908	358.69
277.369	414.86
277.829	279.11
278.289	297.83
278.75	311.88
279.21	309.54
279.67	244
280.13	316.56
280.59	344.64
281.05	323.58
281.51	316.56
281.97	297.83
282.43	288.47
282.89	283.79
283.35	318.9
283.809	269.75
284.269	279.11
284.729	293.15
285.188	300.17
285.648	297.83
286.107	330.6
286.567	283.79
287.026	318.9
287.485	241.66
287.944	265.07
288.404	253.36
288.863	286.13
289.322	349.32
289.781	321.24
290.24	272.09
290.699	358.69
291.158	281.45
291.616	267.41
292.075	286.13
292.534	269.75
292.992	281.45
293.451	321.24
293.91	304.85
294.368	328.26
294.827	335.28
295.285	339.96
295.743	342.3
296.202	248.68
296.66	269.75
297.118	246.34
297.576	328.26
298.034	314.22
298.492	332.94
298.95	307.2
299.408	304.85
299.866	307.2
300.324	328.26
300.781	351.67
301.239	325.92
301.697	346.98
302.154	274.43
302.612	321.24
303.069	337.62
303.527	311.88
303.984	372.73
304.441	332.94
304.899	318.9
305.356	293.15
305.813	244
306.27	307.2
306.727	328.26
307.184	321.24
307.641	309.54
308.098	260.38
308.555	293.15
309.012	274.43
309.468	304.85
309.925	344.64
310.382	321.24
310.838	304.85
311.295	342.3
311.751	267.41
312.208	199.53
312.664	309.54
313.12	370.39
313.577	361.03
314.033	328.26
314.489	346.98
314.945	335.28
315.401	318.9
315.857	290.81
316.313	330.6
316.769	325.92
317.225	307.2
317.681	358.69
318.136	311.88
318.592	361.03
319.048	354.01
319.503	316.56
319.959	281.45
320.414	276.77
320.869	332.94
321.325	307.2
321.78	321.24
322.235	368.05
322.691	290.81
323.146	248.68
323.601	302.51
324.056	370.39
324.511	346.98
324.966	279.11
325.421	332.94
325.875	361.03
326.33	337.62
326.785	302.51
327.24	311.88
327.694	286.13
328.149	309.54
328.603	279.11
329.058	346.98
329.512	290.81
329.966	290.81
330.421	279.11
330.875	325.92
331.329	321.24
331.783	321.24
332.237	274.43
332.691	302.51
333.145	302.51
333.599	314.22
334.053	290.81
334.507	346.98
334.96	346.98
335.414	295.49
335.868	328.26
336.321	330.6
336.775	339.96
337.228	339.96
337.682	375.07
338.135	307.2
338.588	300.17
339.042	300.17
339.495	417.2
339.948	283.79
340.401	293.15
340.854	349.32
341.307	297.83
341.76	365.71
342.213	272.09
342.666	286.13
343.119	323.58
343.571	368.05
344.024	372.73
344.477	344.64
344.929	365.71
345.382	384.43
345.834	314.22
346.287	279.11
346.739	311.88
347.191	316.56
347.644	269.75
348.096	318.9
348.548	335.28
349	258.04
349.452	335.28
349.904	354.01
350.356	354.01
350.808	255.7
351.26	318.9
351.711	279.11
352.163	279.11
352.615	325.92
353.066	300.17
353.518	372.73
353.969	363.37
354.421	344.64
354.872	335.28
355.324	274.43
355.775	316.56
356.226	349.32
356.677	354.01
357.128	354.01
357.579	276.77
358.03	354.01
358.481	370.39
358.932	288.47
359.383	293.15
359.834	332.94
360.285	372.73
360.735	375.07
361.186	293.15
361.637	370.39
362.087	300.17
362.538	330.6
362.988	293.15
363.438	276.77
363.889	304.85
364.339	339.96
364.789	323.58
365.239	328.26
365.689	389.11
366.139	318.9
366.589	318.9
367.039	286.13
367.489	339.96
367.939	389.11
368.389	372.73
368.839	335.28
369.288	300.17
369.738	351.67
370.187	407.84
370.637	316.56
371.086	311.88
371.536	260.38
371.985	267.41
372.434	239.32
372.884	255.7
373.333	328.26
373.782	349.32
374.231	361.03
374.68	342.3
375.129	272.09
375.578	274.43
376.027	309.54
376.475	332.94
376.924	332.94
377.373	325.92
377.822	309.54
378.27	363.37
378.719	290.81
379.167	356.35
379.616	316.56
380.064	288.47
380.512	330.6
380.961	274.43
381.409	400.82
381.857	316.56
382.305	321.24
382.753	328.26
383.201	309.54
383.649	358.69
384.097	330.6
384.545	328.26
384.992	325.92
385.44	330.6
385.888	300.17
386.335	262.73
386.783	274.43
387.231	311.88
387.678	272.09
388.125	363.37
388.573	321.24
389.02	361.03
389.467	332.94
389.914	283.79
390.362	335.28
390.809	365.71
391.256	332.94
391.703	346.98
392.15	295.49
392.596	321.24
393.043	349.32
393.49	295.49
393.937	297.83
394.383	314.22
394.83	375.07
395.276	351.67
395.723	267.41
396.169	321.24
396.616	314.22
397.062	325.92
397.508	304.85
397.954	290.81
398.401	342.3
398.847	337.62
399.293	335.28
399.739	276.77
400.185	354.01
400.631	328.26
401.076	283.79
401.522	358.69
401.968	309.54
402.414	293.15
402.859	232.3
403.305	379.75
403.75	346.98
404.196	321.24
404.641	309.54
405.086	354.01
405.532	361.03
405.977	372.73
406.422	267.41
406.867	335.28
407.312	311.88
407.757	318.9
408.202	354.01
408.647	309.54
409.092	293.15
409.537	258.04
409.982	302.51
410.426	339.96
410.871	265.07
411.316	356.35
411.76	304.85
412.205	314.22
412.649	309.54
413.093	309.54
413.538	335.28
413.982	328.26
414.426	309.54
414.87	227.62
415.314	339.96
415.758	358.69
416.202	354.01
416.646	279.11
417.09	337.62
417.534	346.98
417.978	323.58
418.421	269.75
418.865	269.75
419.309	325.92
419.752	354.01
420.196	370.39
420.639	311.88
421.083	354.01
421.526	339.96
421.969	330.6
422.412	286.13
422.856	262.73
423.299	344.64
423.742	389.11
424.185	304.85
424.628	393.8
425.071	335.28
425.513	307.2
425.956	290.81
426.399	309.54
426.842	316.56
427.284	302.51
427.727	297.83
428.169	358.69
428.612	330.6
429.054	316.56
429.497	407.84
429.939	316.56
430.381	300.17
430.823	267.41
431.265	302.51
431.707	342.3
432.149	269.75
432.591	335.28
433.033	337.62
433.475	332.94
433.917	309.54
434.359	339.96
434.8	335.28
435.242	307.2
435.684	342.3
436.125	311.88
436.567	304.85
437.008	354.01
437.449	349.32
437.891	309.54
438.332	314.22
438.773	351.67
439.214	302.51
439.656	290.81
440.097	311.88
440.538	314.22
440.978	309.54
441.419	328.26
441.86	363.37
442.301	346.98
442.742	300.17
443.182	307.2
443.623	293.15
444.063	335.28
444.504	297.83
444.944	302.51
445.385	368.05
445.825	318.9
446.265	344.64
446.706	335.28
447.146	361.03
447.586	328.26
448.026	354.01
448.466	255.7
448.906	307.2
449.346	346.98
449.786	293.15
450.225	358.69
450.665	342.3
451.105	372.73
451.544	335.28
451.984	332.94
452.424	332.94
452.863	332.94
453.302	288.47
453.742	321.24
454.181	332.94
454.62	351.67
455.059	356.35
455.499	330.6
455.938	375.07
456.377	290.81
456.816	281.45
457.254	321.24
457.693	295.49
458.132	368.05
458.571	311.88
459.01	377.41
459.448	314.22
459.887	318.9
460.325	375.07
460.764	318.9
461.202	309.54
461.641	267.41
462.079	363.37
462.517	363.37
462.955	325.92
463.393	255.7
463.832	295.49
464.27	307.2
464.708	297.83
465.145	321.24
465.583	309.54
466.021	351.67
466.459	307.2
466.897	363.37
467.334	356.35
467.772	372.73
468.209	379.75
468.647	349.32
469.084	274.43
469.522	372.73
469.959	307.2
470.396	318.9
470.833	342.3
471.271	262.73
471.708	330.6
472.145	283.79
472.582	297.83
473.019	318.9
473.456	354.01
473.892	323.58
474.329	328.26
474.766	321.24
475.202	311.88
475.639	325.92
476.076	281.45
476.512	283.79
476.949	346.98
477.385	323.58
477.821	344.64
478.258	316.56
478.694	365.71
479.13	307.2
479.566	337.62
480.002	307.2
480.438	297.83
480.874	396.14
481.31	260.38
481.746	321.24
482.181	330.6
482.617	297.83
483.053	384.43
483.488	372.73
483.924	267.41
484.36	318.9
484.795	358.69
485.23	405.5
485.666	316.56
486.101	361.03
486.536	377.41
486.971	346.98
487.407	337.62
487.842	293.15
488.277	318.9
488.712	314.22
489.146	339.96
489.581	358.69
490.016	361.03
490.451	288.47
490.885	351.67
491.32	300.17
491.755	314.22
492.189	332.94
492.624	325.92
493.058	309.54
493.492	344.64
493.927	332.94
494.361	262.73
494.795	349.32
495.229	339.96
495.663	386.77
496.097	304.85
496.531	311.88
496.965	300.17
497.399	379.75
497.833	342.3
498.266	300.17
498.7	295.49
499.134	325.92
499.567	314.22
500.001	290.81
500.434	330.6
500.868	375.07
501.301	363.37
501.734	248.68
502.168	321.24
502.601	281.45
503.034	269.75
503.467	344.64
503.9	314.22
504.333	346.98
504.766	339.96
505.199	325.92
505.632	349.32
506.064	304.85
506.497	335.28
506.93	370.39
507.362	302.51
507.795	323.58
508.227	332.94
508.66	363.37
509.092	300.17
509.524	337.62
509.956	262.73
510.389	309.54
510.821	377.41
511.253	368.05
511.685	335.28
512.117	339.96
512.549	307.2
512.981	300.17
513.412	318.9
513.844	339.96
514.276	262.73
514.707	354.01
515.139	307.2
515.571	265.07
516.002	314.22
516.433	302.51
516.865	386.77
517.296	297.83
517.727	332.94
518.159	328.26
518.59	440.61
519.021	328.26
519.452	255.7
519.883	370.39
520.314	316.56
520.744	307.2
521.175	265.07
521.606	351.67
522.037	412.52
522.467	311.88
522.898	297.83
523.328	253.36
523.759	361.03
524.189	311.88
524.62	300.17
525.05	279.11
525.48	307.2
525.91	346.98
526.341	286.13
526.771	335.28
527.201	321.24
527.631	354.01
528.061	302.51
528.49	328.26
528.92	372.73
529.35	328.26
529.78	293.15
530.209	337.62
530.639	274.43
531.068	344.64
531.498	330.6
531.927	398.48
532.357	260.38
532.786	314.22
533.215	283.79
533.644	328.26
534.074	370.39
534.503	335.28
534.932	337.62
535.361	295.49
535.79	260.38
536.218	314.22
536.647	279.11
537.076	325.92
537.505	281.45
537.933	251.02
538.362	332.94
538.79	316.56
539.219	297.83
539.647	330.6
540.076	288.47
540.504	318.9
540.932	335.28
541.36	358.69
541.788	342.3
542.217	302.51
542.645	302.51
543.073	321.24
543.5	323.58
543.928	346.98
544.356	323.58
544.784	295.49
545.211	286.13
545.639	253.36
546.067	241.66
546.494	361.03
546.922	300.17
547.349	295.49
547.776	325.92
548.204	358.69
548.631	314.22
549.058	321.24
549.485	351.67
549.912	368.05
550.339	318.9
550.766	328.26
551.193	337.62
551.62	290.81
552.047	332.94
552.474	349.32
552.9	349.32
553.327	382.09
553.754	405.5
554.18	342.3
554.607	328.26
555.033	346.98
555.459	288.47
555.886	323.58
556.312	351.67
556.738	325.92
557.164	382.09
557.59	372.73
558.016	314.22
558.442	403.16
558.868	368.05
559.294	368.05
559.72	344.64
560.145	431.24
560.571	288.47
560.997	248.68
561.422	253.36
561.848	288.47
562.273	307.2
562.699	307.2
563.124	314.22
563.549	330.6
563.974	330.6
564.4	354.01
564.825	335.28
565.25	262.73
565.675	337.62
566.1	304.85
566.525	269.75
566.95	344.64
567.374	344.64
567.799	293.15
568.224	337.62
568.648	265.07
569.073	265.07
569.497	344.64
569.922	365.71
570.346	316.56
570.771	286.13
571.195	361.03
571.619	344.64
572.043	321.24
572.467	297.83
572.891	309.54
573.315	403.16
573.739	344.64
574.163	309.54
574.587	335.28
575.011	302.51
575.435	325.92
575.858	283.79
576.282	339.96
576.705	297.83
577.129	346.98
577.552	255.7
577.976	300.17
578.399	286.13
578.822	368.05
579.245	288.47
579.669	281.45
580.092	297.83
580.515	346.98
580.938	323.58
581.361	283.79
581.784	325.92
582.206	293.15
582.629	316.56
583.052	342.3
583.474	314.22
583.897	302.51
584.32	328.26
584.742	339.96
585.165	318.9
585.587	304.85
586.009	332.94
586.431	307.2
586.854	286.13
587.276	349.32
587.698	290.81
588.12	286.13
588.542	349.32
588.964	337.62
589.386	281.45
589.807	293.15
590.229	300.17
590.651	346.98
591.073	339.96
591.494	311.88
591.916	356.35
592.337	316.56
592.759	339.96
593.18	375.07
593.601	328.26
594.022	321.24
594.444	316.56
594.865	328.26
595.286	255.7
595.707	274.43
596.128	342.3
596.549	311.88
596.97	368.05
597.39	379.75
597.811	295.49
598.232	351.67
598.652	290.81
599.073	351.67
599.494	342.3
599.914	276.77
600.334	276.77
600.755	307.2
601.175	332.94
601.595	253.36
602.015	332.94
602.436	239.32
602.856	433.58
603.276	361.03
603.696	274.43
604.115	342.3
604.535	314.22
604.955	346.98
605.375	290.81
605.794	361.03
606.214	286.13
606.634	351.67
607.053	330.6
607.473	302.51
607.892	346.98
608.311	323.58
608.731	276.77
609.15	300.17
609.569	342.3
609.988	382.09
610.407	314.22
610.826	412.52
611.245	354.01
611.664	323.58
612.083	288.47
612.501	332.94
612.92	302.51
613.339	358.69
613.757	361.03
614.176	372.73
614.594	346.98
615.013	323.58
615.431	328.26
615.85	356.35
616.268	358.69
616.686	321.24
617.104	328.26
617.522	283.79
617.94	265.07
618.358	295.49
618.776	342.3
619.194	325.92
619.612	346.98
620.03	337.62
620.447	248.68
620.865	361.03
621.282	330.6
621.7	363.37
622.117	349.32
622.535	290.81
622.952	304.85
623.369	328.26
623.787	335.28
624.204	267.41
624.621	293.15
625.038	304.85
625.455	311.88
625.872	251.02
626.289	276.77
626.706	332.94
627.123	342.3
627.539	365.71
627.956	339.96
628.373	375.07
628.789	309.54
629.206	365.71
629.622	297.83
630.038	356.35
630.455	316.56
630.871	363.37
631.287	283.79
631.703	316.56
632.12	279.11
632.536	363.37
632.952	311.88
633.368	351.67
633.783	354.01
634.199	344.64
634.615	321.24
635.031	290.81
635.446	239.32
635.862	358.69
636.277	344.64
636.693	375.07
637.108	302.51
637.524	318.9
637.939	361.03
638.354	344.64
638.77	358.69
639.185	379.75
639.6	274.43
640.015	304.85
640.43	335.28
640.845	323.58
641.259	351.67
641.674	328.26
642.089	253.36
642.504	335.28
642.918	332.94
643.333	290.81
643.747	274.43
644.162	339.96
644.576	354.01
644.991	286.13
645.405	339.96
645.819	337.62
646.233	304.85
646.647	358.69
647.061	328.26
647.475	328.26
647.889	354.01
648.303	342.3
648.717	337.62
649.131	330.6
649.545	344.64
649.958	302.51
650.372	304.85
650.785	283.79
651.199	318.9
651.612	297.83
652.026	300.17
652.439	332.94
652.852	281.45
653.266	274.43
653.679	321.24
654.092	302.51
654.505	304.85
654.918	311.88
655.331	361.03
655.744	361.03
656.156	361.03
656.569	384.43
656.982	318.9
657.394	290.81
657.807	248.68
658.22	300.17
658.632	307.2
659.044	382.09
659.457	255.7
659.869	309.54
660.281	344.64
660.693	354.01
661.106	335.28
661.518	318.9
661.93	339.96
662.342	335.28
662.754	349.32
663.165	307.2
663.577	339.96
663.989	351.67
664.401	302.51
664.812	314.22
665.224	311.88
665.635	309.54
666.047	337.62
666.458	272.09
666.869	337.62
667.281	276.77
667.692	377.41
668.103	325.92
668.514	297.83
668.925	293.15
669.336	295.49
669.747	356.35
670.158	339.96
670.569	386.77
670.979	346.98
671.39	286.13
671.801	316.56
672.211	328.26
672.622	281.45
673.032	321.24
673.443	318.9
673.853	283.79
674.263	349.32
674.674	297.83
675.084	337.62
675.494	335.28
675.904	295.49
676.314	328.26
676.724	344.64
677.134	265.07
677.544	344.64
677.953	304.85
678.363	325.92
678.773	377.41
679.182	276.77
679.592	339.96
680.001	342.3
680.411	302.51
680.82	309.54
681.23	258.04
681.639	281.45
682.048	328.26
682.457	332.94
682.866	335.28
683.275	286.13
683.684	302.51
684.093	316.56
684.502	337.62
684.911	354.01
685.32	314.22
685.728	286.13
686.137	293.15
686.546	349.32
686.954	344.64
687.363	375.07
687.771	281.45
688.179	370.39
688.588	346.98
688.996	321.24
689.404	302.51
689.812	354.01
690.22	248.68
690.628	325.92
691.036	342.3
691.444	332.94
691.852	293.15
692.26	356.35
692.667	293.15
693.075	286.13
693.483	412.52
693.89	272.09
694.298	288.47
694.705	356.35
695.112	300.17
695.52	311.88
695.927	344.64
696.334	316.56
696.741	307.2
697.148	363.37
697.555	332.94
697.962	344.64
698.369	339.96
698.776	358.69
699.183	358.69
699.59	318.9
699.996	344.64
700.403	314.22
700.81	346.98
701.216	262.73
701.623	293.15
702.029	330.6
702.435	351.67
702.842	372.73
703.248	316.56
703.654	267.41
704.06	286.13
704.466	337.62
704.872	330.6
705.278	339.96
705.684	337.62
706.09	286.13
706.496	307.2
706.901	342.3
707.307	309.54
707.712	358.69
708.118	356.35
708.523	391.45
708.929	337.62
709.334	283.79
709.74	314.22
710.145	293.15
710.55	330.6
710.955	382.09
711.36	328.26
711.765	328.26
712.17	328.26
712.575	314.22
712.98	943.82
713.385	321.24
713.789	293.15
714.194	293.15
714.599	295.49
715.003	302.51
715.408	309.54
715.812	337.62
716.217	337.62
716.621	365.71
717.025	309.54
717.429	274.43
717.833	288.47
718.238	260.38
718.642	344.64
719.046	335.28
719.449	314.22
719.853	354.01
720.257	297.83
720.661	335.28
721.065	330.6
721.468	290.81
721.872	293.15
722.275	316.56
722.679	302.51
723.082	272.09
723.485	349.32
723.889	286.13
724.292	335.28
724.695	337.62
725.098	344.64
725.501	314.22
725.904	295.49
726.307	335.28
726.71	302.51
727.113	321.24
727.516	318.9
727.918	332.94
728.321	335.28
728.724	342.3
729.126	379.75
729.529	335.28
729.931	384.43
730.333	311.88
730.736	328.26
731.138	346.98
731.54	316.56
731.942	251.02
732.344	337.62
732.746	311.88
733.148	330.6
733.55	241.66
733.952	335.28
734.354	382.09
734.756	328.26
735.157	342.3
735.559	368.05
735.96	311.88
736.362	302.51
736.763	311.88
737.165	365.71
737.566	328.26
737.967	361.03
738.368	361.03
738.77	281.45
739.171	321.24
739.572	255.7
739.973	332.94
740.374	375.07
740.774	302.51
741.175	295.49
741.576	290.81
741.977	328.26
742.377	339.96
742.778	365.71
743.178	300.17
743.579	349.32
743.979	335.28
744.379	337.62
744.78	288.47
745.18	293.15
745.58	286.13
745.98	382.09
746.38	325.92
746.78	283.79
747.18	337.62
747.58	211.23
747.98	311.88
748.38	349.32
748.779	318.9
749.179	335.28
749.578	295.49
749.978	295.49
750.377	295.49
750.777	307.2
751.176	293.15
751.575	286.13
751.975	332.94
752.374	248.68
752.773	302.51
753.172	258.04
753.571	328.26
753.97	309.54
754.369	346.98
754.768	276.77
755.166	309.54
755.565	311.88
755.964	208.89
756.362	335.28
756.761	342.3
757.159	232.3
757.558	337.62
757.956	328.26
758.354	311.88
758.753	300.17
759.151	279.11
759.549	354.01
759.947	236.98
760.345	323.58
760.743	316.56
761.141	377.41
761.539	321.24
761.936	304.85
762.334	346.98
762.732	288.47
763.129	328.26
763.527	300.17
763.924	323.58
764.322	363.37
764.719	396.14
765.117	339.96
765.514	321.24
