Data from Al_FLMS009871__480__14-36-44-830.txt Node

Date: Fri Mar 08 14:36:44 CST 2024
User: pe5414po
Spectrometer: FLMS00987
Trigger mode: 0
Integration Time (sec): 1.000000E-1
Scans to average: 1
Electric dark correction enabled: true
Nonlinearity correction enabled: false
Boxcar width: 0
XAxis mode: Wavelengths
Number of Pixels in Spectrum: 2048
>>>>>Begin Spectral Data<<<<<
188.938	-43.45
189.409	-43.45
189.879	-43.45
190.349	-36.42
190.819	-52.81
191.29	-106.64
191.76	-87.92
192.23	-38.77
192.7	-24.72
193.17	-92.6
193.64	-55.15
194.109	-78.55
194.579	-52.81
195.049	52.52
195.519	-20.04
195.988	17.41
196.458	43.15
196.927	71.24
197.397	113.37
197.866	148.48
198.336	111.03
198.805	178.9
199.274	211.67
199.744	181.25
200.213	162.52
200.682	195.29
201.151	237.42
201.62	244.44
202.089	206.99
202.558	300.61
203.027	228.06
203.495	281.89
203.964	293.59
204.433	284.23
204.902	279.55
205.37	235.08
205.839	270.19
206.307	253.8
206.776	314.66
207.244	288.91
207.712	340.4
208.181	298.27
208.649	326.36
209.117	305.29
209.585	307.63
210.053	356.79
210.521	270.19
210.989	251.46
211.457	277.21
211.925	260.82
212.393	340.4
212.861	307.63
213.328	242.1
213.796	324.02
214.264	242.1
214.731	295.93
215.199	274.87
215.666	335.72
216.133	309.97
216.601	237.42
217.068	235.08
217.535	286.57
218.003	307.63
218.47	270.19
218.937	324.02
219.404	302.95
219.871	230.4
220.338	228.06
220.805	232.74
221.271	314.66
221.738	263.16
222.205	277.21
222.671	206.99
223.138	251.46
223.605	230.4
224.071	256.14
224.538	295.93
225.004	288.91
225.47	237.42
225.937	277.21
226.403	216.35
226.869	286.57
227.335	284.23
227.801	328.7
228.267	309.97
228.733	284.23
229.199	239.76
229.665	263.16
230.131	242.1
230.597	284.23
231.062	244.44
231.528	286.57
231.994	279.55
232.459	279.55
232.925	281.89
233.39	284.23
233.856	258.48
234.321	270.19
234.786	326.36
235.252	195.29
235.717	258.48
236.182	277.21
236.647	209.33
237.112	209.33
237.577	237.42
238.042	267.85
238.507	169.54
238.972	267.85
239.436	263.16
239.901	305.29
240.366	281.89
240.83	246.78
241.295	277.21
241.76	260.82
242.224	291.25
242.688	274.87
243.153	253.8
243.617	291.25
244.081	251.46
244.545	293.59
245.01	309.97
245.474	260.82
245.938	242.1
246.402	260.82
246.866	272.53
247.33	312.32
247.793	265.5
248.257	237.42
248.721	270.19
249.185	256.14
249.648	253.8
250.112	366.15
250.575	263.16
251.039	298.27
251.502	277.21
251.965	237.42
252.429	270.19
252.892	321.68
253.355	265.5
253.818	305.29
254.281	281.89
254.744	326.36
255.207	267.85
255.67	286.57
256.133	291.25
256.596	265.5
257.059	302.95
257.522	244.44
257.984	244.44
258.447	298.27
258.909	235.08
259.372	267.85
259.834	317
260.297	293.59
260.759	260.82
261.221	321.68
261.684	272.53
262.146	298.27
262.608	267.85
263.07	349.76
263.532	314.66
263.994	345.08
264.456	317
264.918	244.44
265.38	314.66
265.842	309.97
266.303	312.32
266.765	237.42
267.227	331.04
267.688	286.57
268.15	279.55
268.611	328.7
269.072	295.93
269.534	291.25
269.995	221.03
270.456	345.08
270.918	279.55
271.379	328.7
271.84	279.55
272.301	211.67
272.762	274.87
273.223	260.82
273.684	260.82
274.144	279.55
274.605	244.44
275.066	263.16
275.527	354.44
275.987	321.68
276.448	242.1
276.908	331.04
277.369	307.63
277.829	284.23
278.289	253.8
278.75	270.19
279.21	314.66
279.67	284.23
280.13	281.89
280.59	317
281.05	256.14
281.51	319.34
281.97	324.02
282.43	317
282.89	326.36
283.35	239.76
283.809	279.55
284.269	291.25
284.729	218.69
285.188	293.59
285.648	305.29
286.107	345.08
286.567	331.04
287.026	263.16
287.485	253.8
287.944	300.61
288.404	317
288.863	267.85
289.322	312.32
289.781	288.91
290.24	256.14
290.699	307.63
291.158	267.85
291.616	305.29
292.075	335.72
292.534	375.51
292.992	293.59
293.451	342.74
293.91	267.85
294.368	321.68
294.827	293.59
295.285	281.89
295.743	328.7
296.202	235.08
296.66	333.38
297.118	309.97
297.576	312.32
298.034	279.55
298.492	293.59
298.95	291.25
299.408	288.91
299.866	249.12
300.324	368.49
300.781	309.97
301.239	251.46
301.697	293.59
302.154	305.29
302.612	328.7
303.069	312.32
303.527	317
303.984	356.79
304.441	314.66
304.899	340.4
305.356	281.89
305.813	298.27
306.27	288.91
306.727	300.61
307.184	295.93
307.641	298.27
308.098	288.91
308.555	270.19
309.012	279.55
309.468	314.66
309.925	331.04
310.382	279.55
310.838	228.06
311.295	307.63
311.751	361.47
312.208	300.61
312.664	274.87
313.12	314.66
313.577	335.72
314.033	305.29
314.489	312.32
314.945	291.25
315.401	286.57
315.857	345.08
316.313	291.25
316.769	305.29
317.225	307.63
317.681	267.85
318.136	265.5
318.592	326.36
319.048	230.4
319.503	242.1
319.959	300.61
320.414	277.21
320.869	331.04
321.325	281.89
321.78	317
322.235	326.36
322.691	338.06
323.146	314.66
323.601	302.95
324.056	377.85
324.511	340.4
324.966	246.78
325.421	286.57
325.875	281.89
326.33	333.38
326.785	258.48
327.24	352.1
327.694	319.34
328.149	331.04
328.603	342.74
329.058	361.47
329.512	253.8
329.966	340.4
330.421	324.02
330.875	309.97
331.329	277.21
331.783	251.46
332.237	319.34
332.691	258.48
333.145	345.08
333.599	309.97
334.053	307.63
334.507	302.95
334.96	267.85
335.414	312.32
335.868	326.36
336.321	331.04
336.775	352.1
337.228	347.42
337.682	272.53
338.135	302.95
338.588	211.67
339.042	384.87
339.495	288.91
339.948	312.32
340.401	258.48
340.854	314.66
341.307	312.32
341.76	270.19
342.213	324.02
342.666	389.55
343.119	398.92
343.571	333.38
344.024	288.91
344.477	253.8
344.929	319.34
345.382	253.8
345.834	300.61
346.287	293.59
346.739	284.23
347.191	312.32
347.644	298.27
348.096	368.49
348.548	253.8
349	352.1
349.452	328.7
349.904	293.59
350.356	291.25
350.808	270.19
351.26	314.66
351.711	307.63
352.163	258.48
352.615	265.5
353.066	373.17
353.518	333.38
353.969	335.72
354.421	309.97
354.872	309.97
355.324	340.4
355.775	277.21
356.226	373.17
356.677	307.63
357.128	335.72
357.579	206.99
358.03	305.29
358.481	242.1
358.932	288.91
359.383	354.44
359.834	317
360.285	253.8
360.735	293.59
361.186	321.68
361.637	312.32
362.087	288.91
362.538	284.23
362.988	352.1
363.438	230.4
363.889	309.97
364.339	302.95
364.789	319.34
365.239	347.42
365.689	281.89
366.139	302.95
366.589	291.25
367.039	260.82
367.489	312.32
367.939	326.36
368.389	314.66
368.839	256.14
369.288	288.91
369.738	324.02
370.187	302.95
370.637	309.97
371.086	281.89
371.536	307.63
371.985	235.08
372.434	352.1
372.884	321.68
373.333	242.1
373.782	298.27
374.231	312.32
374.68	300.61
375.129	286.57
375.578	298.27
376.027	317
376.475	314.66
376.924	331.04
377.373	305.29
377.822	331.04
378.27	335.72
378.719	324.02
379.167	333.38
379.616	277.21
380.064	333.38
380.512	321.68
380.961	356.79
381.409	253.8
381.857	333.38
382.305	309.97
382.753	338.06
383.201	256.14
383.649	298.27
384.097	314.66
384.545	340.4
384.992	298.27
385.44	309.97
385.888	321.68
386.335	370.83
386.783	347.42
387.231	270.19
387.678	312.32
388.125	263.16
388.573	277.21
389.02	246.78
389.467	317
389.914	305.29
390.362	246.78
390.809	347.42
391.256	263.16
391.703	302.95
392.15	258.48
392.596	295.93
393.043	331.04
393.49	284.23
393.937	309.97
394.383	314.66
394.83	324.02
395.276	338.06
395.723	286.57
396.169	288.91
396.616	333.38
397.062	291.25
397.508	331.04
397.954	286.57
398.401	317
398.847	305.29
399.293	349.76
399.739	333.38
400.185	342.74
400.631	293.59
401.076	328.7
401.522	342.74
401.968	272.53
402.414	309.97
402.859	277.21
403.305	293.59
403.75	309.97
404.196	284.23
404.641	359.13
405.086	361.47
405.532	277.21
405.977	326.36
406.422	309.97
406.867	300.61
407.312	300.61
407.757	333.38
408.202	340.4
408.647	312.32
409.092	302.95
409.537	354.44
409.982	305.29
410.426	277.21
410.871	281.89
411.316	314.66
411.76	288.91
412.205	277.21
412.649	295.93
413.093	354.44
413.538	277.21
413.982	302.95
414.426	277.21
414.87	263.16
415.314	340.4
415.758	356.79
416.202	347.42
416.646	319.34
417.09	293.59
417.534	281.89
417.978	279.55
418.421	363.81
418.865	349.76
419.309	347.42
419.752	256.14
420.196	246.78
420.639	284.23
421.083	324.02
421.526	345.08
421.969	328.7
422.412	324.02
422.856	305.29
423.299	333.38
423.742	331.04
424.185	382.53
424.628	309.97
425.071	352.1
425.513	263.16
425.956	314.66
426.399	307.63
426.842	363.81
427.284	295.93
427.727	321.68
428.169	263.16
428.612	288.91
429.054	321.68
429.497	263.16
429.939	305.29
430.381	288.91
430.823	377.85
431.265	272.53
431.707	279.55
432.149	342.74
432.591	345.08
433.033	347.42
433.475	349.76
433.917	354.44
434.359	309.97
434.8	312.32
435.242	387.21
435.684	328.7
436.125	326.36
436.567	284.23
437.008	333.38
437.449	309.97
437.891	256.14
438.332	298.27
438.773	305.29
439.214	295.93
439.656	298.27
440.097	253.8
440.538	298.27
440.978	338.06
441.419	295.93
441.86	284.23
442.301	265.5
442.742	302.95
443.182	321.68
443.623	324.02
444.063	352.1
444.504	277.21
444.944	309.97
445.385	295.93
445.825	291.25
446.265	333.38
446.706	412.96
447.146	274.87
447.586	342.74
448.026	335.72
448.466	300.61
448.906	340.4
449.346	324.02
449.786	319.34
450.225	260.82
450.665	359.13
451.105	300.61
451.544	338.06
451.984	288.91
452.424	312.32
452.863	305.29
453.302	284.23
453.742	265.5
454.181	246.78
454.62	272.53
455.059	314.66
455.499	328.7
455.938	347.42
456.377	300.61
456.816	242.1
457.254	314.66
457.693	321.68
458.132	317
458.571	349.76
459.01	317
459.448	295.93
459.887	263.16
460.325	349.76
460.764	342.74
461.202	293.59
461.641	356.79
462.079	270.19
462.517	328.7
462.955	375.51
463.393	277.21
463.832	284.23
464.27	335.72
464.708	331.04
465.145	317
465.583	324.02
466.021	347.42
466.459	377.85
466.897	375.51
467.334	298.27
467.772	352.1
468.209	359.13
468.647	356.79
469.084	279.55
469.522	270.19
469.959	366.15
470.396	277.21
470.833	279.55
471.271	382.53
471.708	317
472.145	317
472.582	258.48
473.019	382.53
473.456	288.91
473.892	331.04
474.329	387.21
474.766	328.7
475.202	279.55
475.639	373.17
476.076	394.23
476.512	244.44
476.949	359.13
477.385	312.32
477.821	317
478.258	312.32
478.694	326.36
479.13	291.25
479.566	314.66
480.002	363.81
480.438	324.02
480.874	312.32
481.31	345.08
481.746	286.57
482.181	260.82
482.617	305.29
483.053	380.19
483.488	331.04
483.924	319.34
484.36	312.32
484.795	384.87
485.23	412.96
485.666	417.64
486.101	312.32
486.536	375.51
486.971	298.27
487.407	293.59
487.842	352.1
488.277	309.97
488.712	368.49
489.146	368.49
489.581	286.57
490.016	319.34
490.451	340.4
490.885	361.47
491.32	305.29
491.755	319.34
492.189	391.89
492.624	342.74
493.058	366.15
493.492	281.89
493.927	359.13
494.361	354.44
494.795	352.1
495.229	349.76
495.663	335.72
496.097	286.57
496.531	345.08
496.965	352.1
497.399	300.61
497.833	293.59
498.266	324.02
498.7	331.04
499.134	403.6
499.567	345.08
500.001	370.83
500.434	333.38
500.868	328.7
501.301	335.72
501.734	260.82
502.168	305.29
502.601	352.1
503.034	284.23
503.467	274.87
503.9	340.4
504.333	300.61
504.766	286.57
505.199	277.21
505.632	305.29
506.064	300.61
506.497	298.27
506.93	300.61
507.362	366.15
507.795	361.47
508.227	317
508.66	307.63
509.092	298.27
509.524	340.4
509.956	300.61
510.389	312.32
510.821	317
511.253	354.44
511.685	291.25
512.117	391.89
512.549	328.7
512.981	293.59
513.412	284.23
513.844	345.08
514.276	321.68
514.707	340.4
515.139	328.7
515.571	291.25
516.002	354.44
516.433	338.06
516.865	352.1
517.296	298.27
517.727	321.68
518.159	302.95
518.59	232.74
519.021	291.25
519.452	293.59
519.883	384.87
520.314	300.61
520.744	284.23
521.175	345.08
521.606	324.02
522.037	331.04
522.467	317
522.898	291.25
523.328	331.04
523.759	305.29
524.189	314.66
524.62	312.32
525.05	363.81
525.48	272.53
525.91	314.66
526.341	291.25
526.771	221.03
527.201	307.63
527.631	302.95
528.061	352.1
528.49	345.08
528.92	324.02
529.35	293.59
529.78	249.12
530.209	324.02
530.639	321.68
531.068	291.25
531.498	314.66
531.927	324.02
532.357	356.79
532.786	286.57
533.215	326.36
533.644	319.34
534.074	305.29
534.503	251.46
534.932	300.61
535.361	312.32
535.79	293.59
536.218	356.79
536.647	335.72
537.076	363.81
537.505	286.57
537.933	314.66
538.362	331.04
538.79	331.04
539.219	307.63
539.647	267.85
540.076	342.74
540.504	319.34
540.932	333.38
541.36	302.95
541.788	314.66
542.217	342.74
542.645	307.63
543.073	361.47
543.5	314.66
543.928	286.57
544.356	324.02
544.784	312.32
545.211	328.7
545.639	305.29
546.067	347.42
546.494	291.25
546.922	347.42
547.349	326.36
547.776	272.53
548.204	349.76
548.631	298.27
549.058	293.59
549.485	274.87
549.912	274.87
550.339	286.57
550.766	265.5
551.193	384.87
551.62	286.57
552.047	347.42
552.474	333.38
552.9	258.48
553.327	326.36
553.754	295.93
554.18	293.59
554.607	347.42
555.033	295.93
555.459	326.36
555.886	324.02
556.312	319.34
556.738	331.04
557.164	380.19
557.59	354.44
558.016	314.66
558.442	288.91
558.868	221.03
559.294	281.89
559.72	302.95
560.145	324.02
560.571	382.53
560.997	295.93
561.422	307.63
561.848	319.34
562.273	295.93
562.699	256.14
563.124	352.1
563.549	331.04
563.974	321.68
564.4	370.83
564.825	328.7
565.25	356.79
565.675	366.15
566.1	338.06
566.525	333.38
566.95	331.04
567.374	246.78
567.799	279.55
568.224	288.91
568.648	300.61
569.073	300.61
569.497	267.85
569.922	293.59
570.346	256.14
570.771	307.63
571.195	246.78
571.619	324.02
572.043	338.06
572.467	319.34
572.891	331.04
573.315	333.38
573.739	286.57
574.163	345.08
574.587	363.81
575.011	291.25
575.435	324.02
575.858	263.16
576.282	335.72
576.705	382.53
577.129	298.27
577.552	272.53
577.976	354.44
578.399	340.4
578.822	326.36
579.245	270.19
579.669	251.46
580.092	363.81
580.515	249.12
580.938	265.5
581.361	321.68
581.784	279.55
582.206	302.95
582.629	281.89
583.052	328.7
583.474	291.25
583.897	279.55
584.32	216.35
584.742	298.27
585.165	302.95
585.587	368.49
586.009	326.36
586.431	312.32
586.854	331.04
587.276	352.1
587.698	300.61
588.12	377.85
588.542	295.93
588.964	384.87
589.386	258.48
589.807	298.27
590.229	300.61
590.651	309.97
591.073	307.63
591.494	333.38
591.916	345.08
592.337	312.32
592.759	307.63
593.18	349.76
593.601	342.74
594.022	312.32
594.444	319.34
594.865	335.72
595.286	295.93
595.707	295.93
596.128	314.66
596.549	307.63
596.97	298.27
597.39	342.74
597.811	314.66
598.232	370.83
598.652	302.95
599.073	317
599.494	249.12
599.914	319.34
600.334	408.28
600.755	328.7
601.175	274.87
601.595	263.16
602.015	354.44
602.436	338.06
602.856	424.66
603.276	319.34
603.696	317
604.115	345.08
604.535	321.68
604.955	319.34
605.375	345.08
605.794	363.81
606.214	317
606.634	277.21
607.053	326.36
607.473	363.81
607.892	246.78
608.311	307.63
608.731	305.29
609.15	298.27
609.569	298.27
609.988	281.89
610.407	317
610.826	328.7
611.245	284.23
611.664	279.55
612.083	270.19
612.501	237.42
612.92	284.23
613.339	338.06
613.757	345.08
614.176	340.4
614.594	324.02
615.013	338.06
615.431	293.59
615.85	298.27
616.268	305.29
616.686	333.38
617.104	302.95
617.522	333.38
617.94	335.72
618.358	281.89
618.776	267.85
619.194	291.25
619.612	314.66
620.03	256.14
620.447	270.19
620.865	295.93
621.282	377.85
621.7	258.48
622.117	347.42
622.535	340.4
622.952	253.8
623.369	342.74
623.787	338.06
624.204	349.76
624.621	314.66
625.038	288.91
625.455	263.16
625.872	368.49
626.289	300.61
626.706	286.57
627.123	288.91
627.539	326.36
627.956	370.83
628.373	377.85
628.789	319.34
629.206	293.59
629.622	237.42
630.038	333.38
630.455	333.38
630.871	345.08
631.287	309.97
631.703	380.19
632.12	338.06
632.536	309.97
632.952	317
633.368	242.1
633.783	342.74
634.199	284.23
634.615	373.17
635.031	265.5
635.446	349.76
635.862	281.89
636.277	263.16
636.693	331.04
637.108	314.66
637.524	309.97
637.939	293.59
638.354	293.59
638.77	333.38
639.185	319.34
639.6	302.95
640.015	272.53
640.43	281.89
640.845	342.74
641.259	340.4
641.674	314.66
642.089	373.17
642.504	302.95
642.918	338.06
643.333	309.97
643.747	277.21
644.162	312.32
644.576	295.93
644.991	349.76
645.405	382.53
645.819	314.66
646.233	356.79
646.647	314.66
647.061	324.02
647.475	312.32
647.889	319.34
648.303	307.63
648.717	286.57
649.131	309.97
649.545	277.21
649.958	331.04
650.372	317
650.785	366.15
651.199	251.46
651.612	342.74
652.026	319.34
652.439	340.4
652.852	368.49
653.266	279.55
653.679	272.53
654.092	349.76
654.505	300.61
654.918	333.38
655.331	345.08
655.744	335.72
656.156	352.1
656.569	307.63
656.982	300.61
657.394	298.27
657.807	368.49
658.22	324.02
658.632	326.36
659.044	377.85
659.457	349.76
659.869	309.97
660.281	347.42
660.693	354.44
661.106	286.57
661.518	300.61
661.93	312.32
662.342	321.68
662.754	298.27
663.165	361.47
663.577	331.04
663.989	328.7
664.401	309.97
664.812	284.23
665.224	342.74
665.635	314.66
666.047	424.66
666.458	363.81
666.869	300.61
667.281	328.7
667.692	305.29
668.103	361.47
668.514	331.04
668.925	284.23
669.336	345.08
669.747	281.89
670.158	356.79
670.569	314.66
670.979	291.25
671.39	256.14
671.801	284.23
672.211	359.13
672.622	286.57
673.032	340.4
673.443	300.61
673.853	286.57
674.263	309.97
674.674	394.23
675.084	277.21
675.494	298.27
675.904	309.97
676.314	307.63
676.724	326.36
677.134	319.34
677.544	335.72
677.953	274.87
678.363	307.63
678.773	298.27
679.182	270.19
679.592	298.27
680.001	333.38
680.411	317
680.82	274.87
681.23	326.36
681.639	331.04
682.048	267.85
682.457	260.82
682.866	305.29
683.275	288.91
683.684	249.12
684.093	305.29
684.502	405.94
684.911	305.29
685.32	326.36
685.728	286.57
686.137	258.48
686.546	324.02
686.954	272.53
687.363	209.33
687.771	352.1
688.179	272.53
688.588	324.02
688.996	317
689.404	267.85
689.812	338.06
690.22	270.19
690.628	272.53
691.036	331.04
691.444	324.02
691.852	321.68
692.26	373.17
692.667	354.44
693.075	286.57
693.483	347.42
693.89	324.02
694.298	363.81
694.705	274.87
695.112	333.38
695.52	298.27
695.927	366.15
696.334	340.4
696.741	286.57
697.148	286.57
697.555	284.23
697.962	326.36
698.369	366.15
698.776	366.15
699.183	295.93
699.59	272.53
699.996	354.44
700.403	326.36
700.81	326.36
701.216	356.79
701.623	317
702.029	293.59
702.435	293.59
702.842	317
703.248	242.1
703.654	298.27
704.06	333.38
704.466	333.38
704.872	317
705.278	274.87
705.684	391.89
706.09	319.34
706.496	305.29
706.901	317
707.307	309.97
707.712	307.63
708.118	317
708.523	314.66
708.929	302.95
709.334	288.91
709.74	321.68
710.145	265.5
710.55	305.29
710.955	319.34
711.36	363.81
711.765	314.66
712.17	328.7
712.575	291.25
712.98	897.45
713.385	382.53
713.789	295.93
714.194	274.87
714.599	270.19
715.003	387.21
715.408	349.76
715.812	333.38
716.217	295.93
716.621	326.36
717.025	305.29
717.429	338.06
717.833	375.51
718.238	333.38
718.642	302.95
719.046	324.02
719.449	242.1
719.853	317
720.257	319.34
720.661	277.21
721.065	342.74
721.468	312.32
721.872	298.27
722.275	302.95
722.679	263.16
723.082	281.89
723.485	258.48
723.889	293.59
724.292	295.93
724.695	307.63
725.098	349.76
725.501	281.89
725.904	352.1
726.307	309.97
726.71	331.04
727.113	333.38
727.516	279.55
727.918	338.06
728.321	251.46
728.724	309.97
729.126	366.15
729.529	317
729.931	345.08
730.333	270.19
730.736	317
731.138	312.32
731.54	288.91
731.942	340.4
732.344	349.76
732.746	307.63
733.148	338.06
733.55	326.36
733.952	324.02
734.354	319.34
734.756	298.27
735.157	326.36
735.559	307.63
735.96	305.29
736.362	349.76
736.763	326.36
737.165	279.55
737.566	387.21
737.967	342.74
738.368	324.02
738.77	312.32
739.171	321.68
739.572	258.48
739.973	319.34
740.374	342.74
740.774	300.61
741.175	333.38
741.576	333.38
741.977	335.72
742.377	244.44
742.778	298.27
743.178	352.1
743.579	258.48
743.979	345.08
744.379	265.5
744.78	363.81
745.18	309.97
745.58	286.57
745.98	307.63
746.38	370.83
746.78	326.36
747.18	354.44
747.58	361.47
747.98	293.59
748.38	295.93
748.779	288.91
749.179	321.68
749.578	319.34
749.978	319.34
750.377	370.83
750.777	340.4
751.176	281.89
751.575	345.08
751.975	298.27
752.374	328.7
752.773	324.02
753.172	359.13
753.571	317
753.97	274.87
754.369	312.32
754.768	389.55
755.166	263.16
755.565	288.91
755.964	380.19
756.362	333.38
756.761	319.34
757.159	326.36
757.558	279.55
757.956	305.29
758.354	328.7
758.753	331.04
759.151	265.5
759.549	270.19
759.947	333.38
760.345	307.63
760.743	338.06
761.141	314.66
761.539	345.08
761.936	366.15
762.334	237.42
762.732	321.68
763.129	324.02
763.527	279.55
763.924	354.44
764.322	281.89
764.719	324.02
765.117	300.61
765.514	284.23
765.911	317
766.308	354.44
766.705	356.79
767.102	368.49
767.499	272.53
