Data from Al_FLMS009871__488__14-36-45-630.txt Node

Date: Fri Mar 08 14:36:45 CST 2024
User: pe5414po
Spectrometer: FLMS00987
Trigger mode: 0
Integration Time (sec): 1.000000E-1
Scans to average: 1
Electric dark correction enabled: true
Nonlinearity correction enabled: false
Boxcar width: 0
XAxis mode: Wavelengths
Number of Pixels in Spectrum: 2048
>>>>>Begin Spectral Data<<<<<
188.938	-23.11
189.409	-23.11
189.879	-23.11
190.349	-107.37
190.819	-53.54
191.29	-123.76
191.76	-93.33
192.23	-48.86
192.7	-86.31
193.17	-25.45
193.64	-69.92
194.109	-18.43
194.579	-27.79
195.049	-23.11
195.519	30.72
195.988	54.12
196.458	19.02
196.927	79.87
197.397	96.25
197.866	124.34
198.336	112.64
198.805	178.17
199.274	152.43
199.744	166.47
200.213	166.47
200.682	234.35
201.151	276.48
201.62	236.69
202.089	257.75
202.558	295.2
203.027	290.52
203.495	236.69
203.964	320.95
204.433	288.18
204.902	274.14
205.37	318.61
205.839	283.5
206.307	334.99
206.776	276.48
207.244	232.01
207.712	351.37
208.181	302.22
208.649	323.29
209.117	255.41
209.585	356.05
210.053	260.09
210.521	194.56
210.989	246.05
211.457	320.95
211.925	304.56
212.393	304.56
212.861	281.16
213.328	320.95
213.796	344.35
214.264	344.35
214.731	306.9
215.199	299.88
215.666	264.77
216.133	239.03
216.601	229.67
217.068	248.39
217.535	276.48
218.003	255.41
218.47	269.45
218.937	255.41
219.404	297.54
219.871	283.5
220.338	283.5
220.805	304.56
221.271	236.69
221.738	285.84
222.205	302.22
222.671	203.92
223.138	274.14
223.605	250.73
224.071	292.86
224.538	232.01
225.004	257.75
225.47	278.82
225.937	257.75
226.403	255.41
226.869	248.39
227.335	203.92
227.801	299.88
228.267	306.9
228.733	292.86
229.199	269.45
229.665	239.03
230.131	257.75
230.597	281.16
231.062	311.58
231.528	271.79
231.994	260.09
232.459	288.18
232.925	267.11
233.39	316.26
233.856	248.39
234.321	323.29
234.786	313.92
235.252	302.22
235.717	304.56
236.182	274.14
236.647	241.37
237.112	292.86
237.577	311.58
238.042	236.69
238.507	274.14
238.972	267.11
239.436	288.18
239.901	255.41
240.366	250.73
240.83	325.63
241.295	269.45
241.76	304.56
242.224	306.9
242.688	304.56
243.153	285.84
243.617	290.52
244.081	274.14
244.545	281.16
245.01	330.31
245.474	316.26
245.938	281.16
246.402	297.54
246.866	257.75
247.33	316.26
247.793	234.35
248.257	304.56
248.721	253.07
249.185	316.26
249.648	285.84
250.112	290.52
250.575	264.77
251.039	318.61
251.502	257.75
251.965	292.86
252.429	243.71
252.892	283.5
253.355	299.88
253.818	241.37
254.281	353.71
254.744	267.11
255.207	292.86
255.67	304.56
256.133	290.52
256.596	248.39
257.059	330.31
257.522	316.26
257.984	297.54
258.447	299.88
258.909	306.9
259.372	185.19
259.834	337.33
260.297	262.43
260.759	323.29
261.221	304.56
261.684	304.56
262.146	299.88
262.608	262.43
263.07	278.82
263.532	255.41
263.994	306.9
264.456	360.74
264.918	360.74
265.38	313.92
265.842	255.41
266.303	267.11
266.765	297.54
267.227	278.82
267.688	250.73
268.15	302.22
268.611	264.77
269.072	271.79
269.534	309.24
269.995	384.14
270.456	334.99
270.918	274.14
271.379	276.48
271.84	276.48
272.301	304.56
272.762	332.65
273.223	283.5
273.684	320.95
274.144	278.82
274.605	292.86
275.066	334.99
275.527	320.95
275.987	241.37
276.448	309.24
276.908	358.39
277.369	295.2
277.829	264.77
278.289	304.56
278.75	313.92
279.21	353.71
279.67	255.41
280.13	264.77
280.59	344.35
281.05	320.95
281.51	295.2
281.97	264.77
282.43	325.63
282.89	290.52
283.35	241.37
283.809	353.71
284.269	302.22
284.729	271.79
285.188	239.03
285.648	276.48
286.107	304.56
286.567	278.82
287.026	337.33
287.485	283.5
287.944	283.5
288.404	297.54
288.863	290.52
289.322	276.48
289.781	334.99
290.24	334.99
290.699	253.07
291.158	309.24
291.616	334.99
292.075	342.01
292.534	295.2
292.992	313.92
293.451	332.65
293.91	365.42
294.368	320.95
294.827	334.99
295.285	283.5
295.743	344.35
296.202	295.2
296.66	264.77
297.118	276.48
297.576	325.63
298.034	342.01
298.492	316.26
298.95	302.22
299.408	316.26
299.866	290.52
300.324	306.9
300.781	267.11
301.239	344.35
301.697	327.97
302.154	267.11
302.612	313.92
303.069	283.5
303.527	290.52
303.984	285.84
304.441	363.08
304.899	302.22
305.356	330.31
305.813	285.84
306.27	208.6
306.727	299.88
307.184	274.14
307.641	320.95
308.098	297.54
308.555	358.39
309.012	332.65
309.468	320.95
309.925	306.9
310.382	276.48
310.838	349.03
311.295	269.45
311.751	325.63
312.208	271.79
312.664	274.14
313.12	302.22
313.577	304.56
314.033	271.79
314.489	323.29
314.945	283.5
315.401	278.82
315.857	367.76
316.313	253.07
316.769	283.5
317.225	344.35
317.681	299.88
318.136	325.63
318.592	271.79
319.048	297.54
319.503	313.92
319.959	267.11
320.414	271.79
320.869	309.24
321.325	243.71
321.78	339.67
322.235	311.58
322.691	295.2
323.146	332.65
323.601	276.48
324.056	330.31
324.511	316.26
324.966	316.26
325.421	325.63
325.875	288.18
326.33	264.77
326.785	267.11
327.24	304.56
327.694	374.78
328.149	304.56
328.603	297.54
329.058	334.99
329.512	274.14
329.966	257.75
330.421	363.08
330.875	332.65
331.329	360.74
331.783	302.22
332.237	339.67
332.691	304.56
333.145	325.63
333.599	250.73
334.053	325.63
334.507	283.5
334.96	320.95
335.414	351.37
335.868	327.97
336.321	267.11
336.775	330.31
337.228	274.14
337.682	349.03
338.135	337.33
338.588	311.58
339.042	306.9
339.495	288.18
339.948	302.22
340.401	393.5
340.854	316.26
341.307	299.88
341.76	295.2
342.213	288.18
342.666	356.05
343.119	342.01
343.571	332.65
344.024	349.03
344.477	323.29
344.929	342.01
345.382	339.67
345.834	349.03
346.287	353.71
346.739	288.18
347.191	274.14
347.644	316.26
348.096	330.31
348.548	327.97
349	360.74
349.452	306.9
349.904	290.52
350.356	306.9
350.808	281.16
351.26	377.12
351.711	313.92
352.163	318.61
352.615	346.69
353.066	309.24
353.518	320.95
353.969	302.22
354.421	281.16
354.872	299.88
355.324	356.05
355.775	288.18
356.226	330.31
356.677	360.74
357.128	281.16
357.579	290.52
358.03	342.01
358.481	311.58
358.932	349.03
359.383	304.56
359.834	299.88
360.285	302.22
360.735	316.26
361.186	320.95
361.637	292.86
362.087	299.88
362.538	330.31
362.988	285.84
363.438	358.39
363.889	217.96
364.339	318.61
364.789	227.32
365.239	283.5
365.689	316.26
366.139	311.58
366.589	304.56
367.039	288.18
367.489	320.95
367.939	346.69
368.389	330.31
368.839	255.41
369.288	309.24
369.738	302.22
370.187	309.24
370.637	302.22
371.086	320.95
371.536	365.42
371.985	409.89
372.434	318.61
372.884	278.82
373.333	311.58
373.782	290.52
374.231	342.01
374.68	356.05
375.129	299.88
375.578	222.64
376.027	309.24
376.475	288.18
376.924	327.97
377.373	356.05
377.822	332.65
378.27	332.65
378.719	327.97
379.167	309.24
379.616	281.16
380.064	217.96
380.512	283.5
380.961	281.16
381.409	262.43
381.857	267.11
382.305	302.22
382.753	288.18
383.201	313.92
383.649	271.79
384.097	330.31
384.545	358.39
384.992	299.88
385.44	283.5
385.888	290.52
386.335	306.9
386.783	353.71
387.231	346.69
387.678	246.05
388.125	304.56
388.573	309.24
389.02	276.48
389.467	313.92
389.914	320.95
390.362	302.22
390.809	327.97
391.256	386.48
391.703	306.9
392.15	320.95
392.596	316.26
393.043	309.24
393.49	283.5
393.937	313.92
394.383	297.54
394.83	393.5
395.276	337.33
395.723	302.22
396.169	269.45
396.616	304.56
397.062	271.79
397.508	342.01
397.954	264.77
398.401	318.61
398.847	344.35
399.293	327.97
399.739	386.48
400.185	316.26
400.631	313.92
401.076	290.52
401.522	276.48
401.968	302.22
402.414	323.29
402.859	288.18
403.305	327.97
403.75	349.03
404.196	288.18
404.641	349.03
405.086	351.37
405.532	360.74
405.977	316.26
406.422	295.2
406.867	302.22
407.312	386.48
407.757	297.54
408.202	299.88
408.647	292.86
409.092	302.22
409.537	292.86
409.982	327.97
410.426	351.37
410.871	386.48
411.316	358.39
411.76	344.35
412.205	276.48
412.649	274.14
413.093	349.03
413.538	297.54
413.982	234.35
414.426	330.31
414.87	297.54
415.314	311.58
415.758	313.92
416.202	271.79
416.646	344.35
417.09	379.46
417.534	358.39
417.978	283.5
418.421	337.33
418.865	257.75
419.309	339.67
419.752	339.67
420.196	269.45
420.639	337.33
421.083	246.05
421.526	320.95
421.969	260.09
422.412	271.79
422.856	323.29
423.299	349.03
423.742	395.84
424.185	309.24
424.628	337.33
425.071	339.67
425.513	269.45
425.956	297.54
426.399	285.84
426.842	290.52
427.284	358.39
427.727	313.92
428.169	360.74
428.612	316.26
429.054	271.79
429.497	330.31
429.939	311.58
430.381	255.41
430.823	337.33
431.265	304.56
431.707	306.9
432.149	302.22
432.591	297.54
433.033	342.01
433.475	320.95
433.917	295.2
434.359	255.41
434.8	337.33
435.242	288.18
435.684	325.63
436.125	353.71
436.567	316.26
437.008	332.65
437.449	365.42
437.891	342.01
438.332	295.2
438.773	304.56
439.214	344.35
439.656	323.29
440.097	311.58
440.538	349.03
440.978	278.82
441.419	351.37
441.86	292.86
442.301	283.5
442.742	302.22
443.182	290.52
443.623	311.58
444.063	297.54
444.504	330.31
444.944	311.58
445.385	351.37
445.825	325.63
446.265	309.24
446.706	292.86
447.146	288.18
447.586	311.58
448.026	327.97
448.466	257.75
448.906	274.14
449.346	393.5
449.786	269.45
450.225	379.46
450.665	311.58
451.105	288.18
451.544	309.24
451.984	285.84
452.424	316.26
452.863	283.5
453.302	281.16
453.742	304.56
454.181	283.5
454.62	318.61
455.059	349.03
455.499	295.2
455.938	358.39
456.377	353.71
456.816	337.33
457.254	395.84
457.693	311.58
458.132	302.22
458.571	309.24
459.01	365.42
459.448	292.86
459.887	363.08
460.325	311.58
460.764	290.52
461.202	295.2
461.641	316.26
462.079	299.88
462.517	274.14
462.955	285.84
463.393	302.22
463.832	290.52
464.27	327.97
464.708	288.18
465.145	325.63
465.583	339.67
466.021	229.67
466.459	323.29
466.897	393.5
467.334	276.48
467.772	377.12
468.209	339.67
468.647	405.21
469.084	346.69
469.522	297.54
469.959	292.86
470.396	274.14
470.833	302.22
471.271	332.65
471.708	365.42
472.145	381.8
472.582	292.86
473.019	330.31
473.456	283.5
473.892	285.84
474.329	370.1
474.766	325.63
475.202	320.95
475.639	311.58
476.076	367.76
476.512	349.03
476.949	309.24
477.385	288.18
477.821	302.22
478.258	334.99
478.694	283.5
479.13	370.1
479.566	356.05
480.002	311.58
480.438	295.2
480.874	306.9
481.31	283.5
481.746	267.11
482.181	316.26
482.617	274.14
483.053	313.92
483.488	353.71
483.924	306.9
484.36	360.74
484.795	344.35
485.23	288.18
485.666	323.29
486.101	327.97
486.536	292.86
486.971	313.92
487.407	327.97
487.842	316.26
488.277	267.11
488.712	306.9
489.146	316.26
489.581	346.69
490.016	327.97
490.451	250.73
490.885	318.61
491.32	346.69
491.755	309.24
492.189	271.79
492.624	374.78
493.058	299.88
493.492	285.84
493.927	309.24
494.361	318.61
494.795	309.24
495.229	243.71
495.663	288.18
496.097	313.92
496.531	327.97
496.965	356.05
497.399	304.56
497.833	253.07
498.266	344.35
498.7	374.78
499.134	295.2
499.567	372.44
500.001	384.14
500.434	365.42
500.868	346.69
501.301	353.71
501.734	374.78
502.168	262.43
502.601	356.05
503.034	323.29
503.467	327.97
503.9	327.97
504.333	304.56
504.766	356.05
505.199	353.71
505.632	351.37
506.064	327.97
506.497	325.63
506.93	327.97
507.362	318.61
507.795	278.82
508.227	342.01
508.66	370.1
509.092	309.24
509.524	318.61
509.956	370.1
510.389	297.54
510.821	363.08
511.253	281.16
511.685	243.71
512.117	316.26
512.549	295.2
512.981	290.52
513.412	299.88
513.844	290.52
514.276	346.69
514.707	260.09
515.139	402.86
515.571	290.52
516.002	299.88
516.433	332.65
516.865	327.97
517.296	337.33
517.727	313.92
518.159	360.74
518.59	306.9
519.021	332.65
519.452	356.05
519.883	353.71
520.314	306.9
520.744	295.2
521.175	344.35
521.606	337.33
522.037	342.01
522.467	299.88
522.898	269.45
523.328	351.37
523.759	374.78
524.189	316.26
524.62	309.24
525.05	318.61
525.48	278.82
525.91	276.48
526.341	356.05
526.771	346.69
527.201	290.52
527.631	313.92
528.061	306.9
528.49	290.52
528.92	304.56
529.35	290.52
529.78	330.31
530.209	370.1
530.639	309.24
531.068	344.35
531.498	299.88
531.927	334.99
532.357	334.99
532.786	290.52
533.215	384.14
533.644	243.71
534.074	304.56
534.503	337.33
534.932	309.24
535.361	323.29
535.79	356.05
536.218	344.35
536.647	323.29
537.076	267.11
537.505	278.82
537.933	346.69
538.362	327.97
538.79	260.09
539.219	339.67
539.647	318.61
540.076	318.61
540.504	342.01
540.932	332.65
541.36	334.99
541.788	327.97
542.217	327.97
542.645	278.82
543.073	278.82
543.5	342.01
543.928	309.24
544.356	309.24
544.784	290.52
545.211	290.52
545.639	344.35
546.067	309.24
546.494	304.56
546.922	346.69
547.349	313.92
547.776	332.65
548.204	253.07
548.631	274.14
549.058	412.23
549.485	325.63
549.912	316.26
550.339	257.75
550.766	306.9
551.193	295.2
551.62	313.92
552.047	346.69
552.474	278.82
552.9	342.01
553.327	325.63
553.754	306.9
554.18	285.84
554.607	374.78
555.033	344.35
555.459	309.24
555.886	267.11
556.312	316.26
556.738	360.74
557.164	253.07
557.59	262.43
558.016	363.08
558.442	295.2
558.868	288.18
559.294	360.74
559.72	351.37
560.145	262.43
560.571	320.95
560.997	281.16
561.422	325.63
561.848	283.5
562.273	299.88
562.699	334.99
563.124	309.24
563.549	318.61
563.974	325.63
564.4	337.33
564.825	351.37
565.25	276.48
565.675	318.61
566.1	313.92
566.525	285.84
566.95	297.54
567.374	283.5
567.799	285.84
568.224	316.26
568.648	339.67
569.073	356.05
569.497	316.26
569.922	353.71
570.346	323.29
570.771	409.89
571.195	318.61
571.619	271.79
572.043	309.24
572.467	292.86
572.891	365.42
573.315	374.78
573.739	346.69
574.163	313.92
574.587	302.22
575.011	327.97
575.435	309.24
575.858	327.97
576.282	278.82
576.705	306.9
577.129	346.69
577.552	290.52
577.976	337.33
578.399	285.84
578.822	356.05
579.245	313.92
579.669	229.67
580.092	271.79
580.515	288.18
580.938	295.2
581.361	297.54
581.784	339.67
582.206	356.05
582.629	290.52
583.052	302.22
583.474	285.84
583.897	339.67
584.32	346.69
584.742	313.92
585.165	349.03
585.587	344.35
586.009	334.99
586.431	309.24
586.854	325.63
587.276	325.63
587.698	304.56
588.12	224.98
588.542	313.92
588.964	384.14
589.386	290.52
589.807	283.5
590.229	337.33
590.651	288.18
591.073	313.92
591.494	313.92
591.916	363.08
592.337	337.33
592.759	267.11
593.18	292.86
593.601	302.22
594.022	365.42
594.444	318.61
594.865	344.35
595.286	330.31
595.707	320.95
596.128	346.69
596.549	327.97
596.97	276.48
597.39	316.26
597.811	358.39
598.232	323.29
598.652	327.97
599.073	344.35
599.494	384.14
599.914	344.35
600.334	250.73
600.755	239.03
601.175	318.61
601.595	342.01
602.015	318.61
602.436	360.74
602.856	405.21
603.276	276.48
603.696	330.31
604.115	351.37
604.535	330.31
604.955	395.84
605.375	297.54
605.794	274.14
606.214	334.99
606.634	297.54
607.053	358.39
607.473	271.79
607.892	306.9
608.311	360.74
608.731	276.48
609.15	325.63
609.569	440.31
609.988	332.65
610.407	353.71
610.826	330.31
611.245	323.29
611.664	360.74
612.083	316.26
612.501	304.56
612.92	363.08
613.339	344.35
613.757	353.71
614.176	346.69
614.594	292.86
615.013	337.33
615.431	313.92
615.85	299.88
616.268	337.33
616.686	269.45
617.104	346.69
617.522	334.99
617.94	379.46
618.358	309.24
618.776	313.92
619.194	318.61
619.612	327.97
620.03	367.76
620.447	271.79
620.865	302.22
621.282	276.48
621.7	346.69
622.117	302.22
622.535	374.78
622.952	339.67
623.369	325.63
623.787	304.56
624.204	288.18
624.621	313.92
625.038	339.67
625.455	281.16
625.872	330.31
626.289	309.24
626.706	297.54
627.123	367.76
627.539	281.16
627.956	330.31
628.373	323.29
628.789	281.16
629.206	391.16
629.622	356.05
630.038	311.58
630.455	306.9
630.871	271.79
631.287	337.33
631.703	285.84
632.12	292.86
632.536	323.29
632.952	370.1
633.368	332.65
633.783	320.95
634.199	353.71
634.615	316.26
635.031	288.18
635.446	311.58
635.862	353.71
636.277	290.52
636.693	318.61
637.108	323.29
637.524	325.63
637.939	337.33
638.354	276.48
638.77	379.46
639.185	302.22
639.6	356.05
640.015	318.61
640.43	339.67
640.845	320.95
641.259	283.5
641.674	351.37
642.089	374.78
642.504	278.82
642.918	297.54
643.333	302.22
643.747	274.14
644.162	267.11
644.576	267.11
644.991	346.69
645.405	334.99
645.819	386.48
646.233	320.95
646.647	306.9
647.061	309.24
647.475	356.05
647.889	283.5
648.303	302.22
648.717	332.65
649.131	295.2
649.545	327.97
649.958	292.86
650.372	339.67
650.785	334.99
651.199	264.77
651.612	342.01
652.026	358.39
652.439	339.67
652.852	313.92
653.266	320.95
653.679	241.37
654.092	339.67
654.505	302.22
654.918	316.26
655.331	302.22
655.744	281.16
656.156	302.22
656.569	320.95
656.982	295.2
657.394	320.95
657.807	313.92
658.22	325.63
658.632	283.5
659.044	353.71
659.457	325.63
659.869	400.52
660.281	356.05
660.693	222.64
661.106	360.74
661.518	327.97
661.93	309.24
662.342	262.43
662.754	398.18
663.165	269.45
663.577	346.69
663.989	337.33
664.401	346.69
664.812	274.14
665.224	295.2
665.635	318.61
666.047	332.65
666.458	337.33
666.869	325.63
667.281	302.22
667.692	290.52
668.103	311.58
668.514	337.33
668.925	332.65
669.336	316.26
669.747	271.79
670.158	367.76
670.569	299.88
670.979	316.26
671.39	285.84
671.801	267.11
672.211	334.99
672.622	327.97
673.032	295.2
673.443	278.82
673.853	330.31
674.263	332.65
674.674	346.69
675.084	353.71
675.494	304.56
675.904	381.8
676.314	325.63
676.724	309.24
677.134	332.65
677.544	339.67
677.953	323.29
678.363	285.84
678.773	365.42
679.182	297.54
679.592	363.08
680.001	325.63
680.411	381.8
680.82	332.65
681.23	271.79
681.639	332.65
682.048	299.88
682.457	327.97
682.866	292.86
683.275	356.05
683.684	306.9
684.093	342.01
684.502	337.33
684.911	316.26
685.32	234.35
685.728	342.01
686.137	274.14
686.546	295.2
686.954	239.03
687.363	262.43
687.771	339.67
688.179	311.58
688.588	330.31
688.996	297.54
689.404	290.52
689.812	320.95
690.22	325.63
690.628	349.03
691.036	342.01
691.444	337.33
691.852	288.18
692.26	318.61
692.667	334.99
693.075	325.63
693.483	299.88
693.89	243.71
694.298	304.56
694.705	295.2
695.112	351.37
695.52	360.74
695.927	309.24
696.334	320.95
696.741	409.89
697.148	334.99
697.555	283.5
697.962	313.92
698.369	339.67
698.776	299.88
699.183	299.88
699.59	349.03
699.996	288.18
700.403	325.63
700.81	342.01
701.216	342.01
701.623	400.52
702.029	346.69
702.435	253.07
702.842	325.63
703.248	320.95
703.654	248.39
704.06	351.37
704.466	253.07
704.872	313.92
705.278	288.18
705.684	330.31
706.09	269.45
706.496	281.16
706.901	311.58
707.307	304.56
707.712	274.14
708.118	360.74
708.523	309.24
708.929	334.99
709.334	269.45
709.74	297.54
710.145	339.67
710.55	318.61
710.955	276.48
711.36	323.29
711.765	290.52
712.17	292.86
712.575	323.29
712.98	920.12
713.385	349.03
713.789	309.24
714.194	367.76
714.599	274.14
715.003	292.86
715.408	297.54
715.812	299.88
716.217	320.95
716.621	274.14
717.025	250.73
717.429	276.48
717.833	295.2
718.238	302.22
718.642	344.35
719.046	323.29
719.449	288.18
719.853	283.5
720.257	334.99
720.661	290.52
721.065	325.63
721.468	327.97
721.872	246.05
722.275	299.88
722.679	360.74
723.082	309.24
723.485	327.97
723.889	292.86
724.292	285.84
724.695	292.86
725.098	281.16
725.501	257.75
725.904	334.99
726.307	372.44
726.71	325.63
727.113	323.29
727.516	236.69
727.918	309.24
728.321	323.29
728.724	304.56
729.126	358.39
729.529	372.44
729.931	379.46
730.333	316.26
730.736	358.39
731.138	363.08
731.54	304.56
731.942	311.58
732.344	374.78
732.746	288.18
733.148	304.56
733.55	320.95
733.952	311.58
734.354	299.88
734.756	285.84
735.157	278.82
735.559	349.03
735.96	311.58
736.362	342.01
736.763	334.99
737.165	318.61
737.566	372.44
737.967	246.05
738.368	349.03
738.77	299.88
739.171	323.29
739.572	379.46
739.973	255.41
740.374	264.77
740.774	346.69
741.175	297.54
741.576	339.67
741.977	316.26
742.377	302.22
742.778	416.91
743.178	257.75
743.579	344.35
743.979	313.92
744.379	320.95
744.78	269.45
745.18	311.58
745.58	295.2
745.98	274.14
746.38	292.86
746.78	332.65
747.18	405.21
747.58	250.73
747.98	297.54
748.38	269.45
748.779	292.86
749.179	269.45
749.578	313.92
749.978	342.01
750.377	299.88
750.777	372.44
751.176	313.92
751.575	344.35
751.975	386.48
752.374	304.56
752.773	327.97
753.172	316.26
753.571	309.24
753.97	353.71
754.369	288.18
754.768	267.11
755.166	262.43
755.565	299.88
755.964	281.16
756.362	342.01
756.761	349.03
757.159	323.29
757.558	276.48
757.956	309.24
758.354	367.76
758.753	269.45
759.151	297.54
759.549	292.86
759.947	327.97
760.345	344.35
760.743	351.37
761.141	290.52
761.539	297.54
761.936	342.01
762.334	304.56
762.732	288.18
763.129	309.24
763.527	332.65
763.924	316.26
