Data from Al_FLMS009871__483__14-36-45-130.txt Node

Date: Fri Mar 08 14:36:45 CST 2024
User: pe5414po
Spectrometer: FLMS00987
Trigger mode: 0
Integration Time (sec): 1.000000E-1
Scans to average: 1
Electric dark correction enabled: true
Nonlinearity correction enabled: false
Boxcar width: 0
XAxis mode: Wavelengths
Number of Pixels in Spectrum: 2048
>>>>>Begin Spectral Data<<<<<
188.938	-77.09
189.409	-77.09
189.879	-77.09
190.349	-112.2
190.819	-102.84
191.29	-91.13
191.76	-67.73
192.23	-109.86
192.7	-67.73
193.17	-58.37
193.64	-27.94
194.109	-58.37
194.579	14.19
195.049	2.49
195.519	72.7
195.988	21.21
196.458	68.02
196.927	75.04
197.397	56.32
197.866	124.19
198.336	46.96
198.805	220.16
199.274	147.6
199.744	175.69
200.213	159.3
200.682	208.45
201.151	210.79
201.62	250.58
202.089	245.9
202.558	278.67
203.027	243.56
203.495	285.69
203.964	306.76
204.433	210.79
204.902	259.95
205.37	222.5
205.839	313.78
206.307	273.99
206.776	285.69
207.244	292.71
207.712	259.95
208.181	304.42
208.649	257.61
209.117	262.29
209.585	318.46
210.053	358.25
210.521	299.73
210.989	327.82
211.457	222.5
211.925	217.82
212.393	266.97
212.861	259.95
213.328	255.26
213.796	292.71
214.264	285.69
214.731	299.73
215.199	297.39
215.666	313.78
216.133	248.24
216.601	299.73
217.068	250.58
217.535	273.99
218.003	281.01
218.47	276.33
218.937	311.44
219.404	264.63
219.871	243.56
220.338	283.35
220.805	201.43
221.271	248.24
221.738	215.48
222.205	250.58
222.671	281.01
223.138	238.88
223.605	276.33
224.071	227.18
224.538	250.58
225.004	297.39
225.47	252.92
225.937	313.78
226.403	243.56
226.869	245.9
227.335	259.95
227.801	292.71
228.267	248.24
228.733	250.58
229.199	238.88
229.665	241.22
230.131	374.63
230.597	295.05
231.062	255.26
231.528	252.92
231.994	316.12
232.459	269.31
232.925	290.37
233.39	243.56
233.856	288.03
234.321	278.67
234.786	269.31
235.252	222.5
235.717	250.58
236.182	306.76
236.647	348.89
237.112	278.67
237.577	306.76
238.042	231.86
238.507	217.82
238.972	323.14
239.436	292.71
239.901	259.95
240.366	302.08
240.83	313.78
241.295	309.1
241.76	313.78
242.224	222.5
242.688	271.65
243.153	276.33
243.617	292.71
244.081	295.05
244.545	236.54
245.01	217.82
245.474	323.14
245.938	332.5
246.402	266.97
246.866	252.92
247.33	266.97
247.793	276.33
248.257	299.73
248.721	327.82
249.185	288.03
249.648	327.82
250.112	243.56
250.575	255.26
251.039	302.08
251.502	320.8
251.965	283.35
252.429	306.76
252.892	266.97
253.355	304.42
253.818	243.56
254.281	299.73
254.744	217.82
255.207	341.86
255.67	285.69
256.133	292.71
256.596	330.16
257.059	252.92
257.522	192.07
257.984	313.78
258.447	285.69
258.909	337.18
259.372	269.31
259.834	332.5
260.297	257.61
260.759	299.73
261.221	325.48
261.684	316.12
262.146	369.95
262.608	309.1
263.07	283.35
263.532	395.7
263.994	273.99
264.456	327.82
264.918	292.71
265.38	337.18
265.842	327.82
266.303	285.69
266.765	283.35
267.227	271.65
267.688	320.8
268.15	376.97
268.611	299.73
269.072	271.65
269.534	269.31
269.995	351.23
270.456	318.46
270.918	339.52
271.379	231.86
271.84	288.03
272.301	290.37
272.762	227.18
273.223	281.01
273.684	311.44
274.144	353.57
274.605	316.12
275.066	360.59
275.527	372.29
275.987	295.05
276.448	292.71
276.908	259.95
277.369	304.42
277.829	311.44
278.289	304.42
278.75	266.97
279.21	259.95
279.67	271.65
280.13	252.92
280.59	323.14
281.05	243.56
281.51	288.03
281.97	283.35
282.43	241.22
282.89	215.48
283.35	273.99
283.809	391.02
284.269	309.1
284.729	358.25
285.188	311.44
285.648	276.33
286.107	278.67
286.567	386.33
287.026	313.78
287.485	276.33
287.944	266.97
288.404	297.39
288.863	285.69
289.322	243.56
289.781	196.75
290.24	271.65
290.699	269.31
291.158	266.97
291.616	311.44
292.075	367.61
292.534	302.08
292.992	376.97
293.451	351.23
293.91	285.69
294.368	313.78
294.827	276.33
295.285	318.46
295.743	346.55
296.202	327.82
296.66	313.78
297.118	332.5
297.576	278.67
298.034	264.63
298.492	316.12
298.95	304.42
299.408	318.46
299.866	292.71
300.324	374.63
300.781	273.99
301.239	290.37
301.697	278.67
302.154	337.18
302.612	302.08
303.069	285.69
303.527	245.9
303.984	245.9
304.441	302.08
304.899	313.78
305.356	318.46
305.813	337.18
306.27	299.73
306.727	327.82
307.184	290.37
307.641	311.44
308.098	273.99
308.555	288.03
309.012	325.48
309.468	316.12
309.925	271.65
310.382	290.37
310.838	288.03
311.295	334.84
311.751	320.8
312.208	316.12
312.664	306.76
313.12	353.57
313.577	316.12
314.033	351.23
314.489	292.71
314.945	264.63
315.401	278.67
315.857	334.84
316.313	374.63
316.769	295.05
317.225	276.33
317.681	353.57
318.136	306.76
318.592	227.18
319.048	327.82
319.503	299.73
319.959	311.44
320.414	292.71
320.869	285.69
321.325	339.52
321.78	325.48
322.235	351.23
322.691	304.42
323.146	290.37
323.601	276.33
324.056	334.84
324.511	346.55
324.966	299.73
325.421	269.31
325.875	337.18
326.33	278.67
326.785	288.03
327.24	306.76
327.694	339.52
328.149	316.12
328.603	255.26
329.058	367.61
329.512	320.8
329.966	276.33
330.421	288.03
330.875	309.1
331.329	304.42
331.783	271.65
332.237	313.78
332.691	292.71
333.145	339.52
333.599	276.33
334.053	325.48
334.507	341.86
334.96	299.73
335.414	313.78
335.868	313.78
336.321	302.08
336.775	332.5
337.228	255.26
337.682	224.84
338.135	257.61
338.588	252.92
339.042	295.05
339.495	281.01
339.948	292.71
340.401	299.73
340.854	259.95
341.307	285.69
341.76	292.71
342.213	281.01
342.666	283.35
343.119	316.12
343.571	295.05
344.024	318.46
344.477	367.61
344.929	412.08
345.382	306.76
345.834	295.05
346.287	288.03
346.739	229.52
347.191	320.8
347.644	325.48
348.096	295.05
348.548	306.76
349	318.46
349.452	299.73
349.904	325.48
350.356	281.01
350.808	339.52
351.26	330.16
351.711	362.93
352.163	358.25
352.615	273.99
353.066	271.65
353.518	318.46
353.969	325.48
354.421	252.92
354.872	234.2
355.324	273.99
355.775	273.99
356.226	273.99
356.677	297.39
357.128	292.71
357.579	332.5
358.03	332.5
358.481	271.65
358.932	320.8
359.383	290.37
359.834	323.14
360.285	248.24
360.735	241.22
361.186	309.1
361.637	330.16
362.087	323.14
362.538	332.5
362.988	292.71
363.438	334.84
363.889	262.29
364.339	313.78
364.789	304.42
365.239	318.46
365.689	316.12
366.139	250.58
366.589	299.73
367.039	304.42
367.489	302.08
367.939	316.12
368.389	288.03
368.839	358.25
369.288	318.46
369.738	290.37
370.187	283.35
370.637	311.44
371.086	299.73
371.536	302.08
371.985	325.48
372.434	327.82
372.884	295.05
373.333	362.93
373.782	346.55
374.231	348.89
374.68	353.57
375.129	285.69
375.578	325.48
376.027	250.58
376.475	313.78
376.924	288.03
377.373	318.46
377.822	320.8
378.27	278.67
378.719	266.97
379.167	320.8
379.616	358.25
380.064	341.86
380.512	316.12
380.961	295.05
381.409	304.42
381.857	281.01
382.305	313.78
382.753	302.08
383.201	313.78
383.649	304.42
384.097	320.8
384.545	379.31
384.992	299.73
385.44	252.92
385.888	285.69
386.335	313.78
386.783	295.05
387.231	358.25
387.678	245.9
388.125	295.05
388.573	346.55
389.02	248.24
389.467	309.1
389.914	295.05
390.362	318.46
390.809	358.25
391.256	304.42
391.703	339.52
392.15	351.23
392.596	339.52
393.043	374.63
393.49	266.97
393.937	332.5
394.383	295.05
394.83	318.46
395.276	278.67
395.723	341.86
396.169	327.82
396.616	355.91
397.062	320.8
397.508	311.44
397.954	369.95
398.401	372.29
398.847	311.44
399.293	355.91
399.739	318.46
400.185	374.63
400.631	316.12
401.076	285.69
401.522	288.03
401.968	311.44
402.414	302.08
402.859	344.21
403.305	332.5
403.75	367.61
404.196	290.37
404.641	337.18
405.086	278.67
405.532	323.14
405.977	341.86
406.422	330.16
406.867	358.25
407.312	278.67
407.757	337.18
408.202	290.37
408.647	332.5
409.092	346.55
409.537	320.8
409.982	306.76
410.426	292.71
410.871	327.82
411.316	320.8
411.76	355.91
412.205	311.44
412.649	369.95
413.093	302.08
413.538	285.69
413.982	292.71
414.426	234.2
414.87	327.82
415.314	346.55
415.758	262.29
416.202	252.92
416.646	292.71
417.09	306.76
417.534	288.03
417.978	353.57
418.421	334.84
418.865	388.68
419.309	381.65
419.752	334.84
420.196	325.48
420.639	381.65
421.083	412.08
421.526	288.03
421.969	372.29
422.412	283.35
422.856	334.84
423.299	320.8
423.742	358.25
424.185	316.12
424.628	355.91
425.071	269.31
425.513	304.42
425.956	313.78
426.399	316.12
426.842	273.99
427.284	283.35
427.727	252.92
428.169	323.14
428.612	269.31
429.054	313.78
429.497	285.69
429.939	306.76
430.381	379.31
430.823	311.44
431.265	285.69
431.707	341.86
432.149	334.84
432.591	360.59
433.033	337.18
433.475	276.33
433.917	304.42
434.359	334.84
434.8	374.63
435.242	278.67
435.684	252.92
436.125	285.69
436.567	320.8
437.008	311.44
437.449	386.33
437.891	273.99
438.332	327.82
438.773	374.63
439.214	407.4
439.656	238.88
440.097	313.78
440.538	376.97
440.978	259.95
441.419	341.86
441.86	365.27
442.301	351.23
442.742	290.37
443.182	306.76
443.623	313.78
444.063	320.8
444.504	337.18
444.944	325.48
445.385	339.52
445.825	252.92
446.265	281.01
446.706	316.12
447.146	302.08
447.586	313.78
448.026	362.93
448.466	297.39
448.906	302.08
449.346	271.65
449.786	271.65
450.225	339.52
450.665	316.12
451.105	388.68
451.544	325.48
451.984	316.12
452.424	318.46
452.863	283.35
453.302	313.78
453.742	316.12
454.181	330.16
454.62	316.12
455.059	304.42
455.499	323.14
455.938	302.08
456.377	281.01
456.816	353.57
457.254	374.63
457.693	351.23
458.132	299.73
458.571	255.26
459.01	348.89
459.448	320.8
459.887	295.05
460.325	273.99
460.764	318.46
461.202	327.82
461.641	304.42
462.079	299.73
462.517	327.82
462.955	288.03
463.393	320.8
463.832	323.14
464.27	316.12
464.708	316.12
465.145	330.16
465.583	327.82
466.021	337.18
466.459	306.76
466.897	278.67
467.334	318.46
467.772	283.35
468.209	344.21
468.647	330.16
469.084	316.12
469.522	283.35
469.959	332.5
470.396	297.39
470.833	374.63
471.271	330.16
471.708	304.42
472.145	323.14
472.582	316.12
473.019	316.12
473.456	318.46
473.892	341.86
474.329	299.73
474.766	302.08
475.202	273.99
475.639	292.71
476.076	281.01
476.512	292.71
476.949	351.23
477.385	318.46
477.821	351.23
478.258	344.21
478.694	318.46
479.13	346.55
479.566	339.52
480.002	304.42
480.438	278.67
480.874	245.9
481.31	362.93
481.746	309.1
482.181	337.18
482.617	344.21
483.053	299.73
483.488	353.57
483.924	283.35
484.36	344.21
484.795	339.52
485.23	353.57
485.666	353.57
486.101	323.14
486.536	395.7
486.971	313.78
487.407	320.8
487.842	381.65
488.277	276.33
488.712	327.82
489.146	290.37
489.581	337.18
490.016	358.25
490.451	285.69
490.885	344.21
491.32	367.61
491.755	306.76
492.189	295.05
492.624	398.04
493.058	330.16
493.492	281.01
493.927	320.8
494.361	290.37
494.795	327.82
495.229	332.5
495.663	283.35
496.097	309.1
496.531	269.31
496.965	320.8
497.399	281.01
497.833	313.78
498.266	306.76
498.7	264.63
499.134	299.73
499.567	269.31
500.001	383.99
500.434	311.44
500.868	351.23
501.301	344.21
501.734	325.48
502.168	283.35
502.601	290.37
503.034	281.01
503.467	227.18
503.9	353.57
504.333	360.59
504.766	236.54
505.199	400.38
505.632	360.59
506.064	297.39
506.497	341.86
506.93	285.69
507.362	344.21
507.795	365.27
508.227	297.39
508.66	281.01
509.092	360.59
509.524	259.95
509.956	288.03
510.389	278.67
510.821	376.97
511.253	355.91
511.685	348.89
512.117	292.71
512.549	320.8
512.981	276.33
513.412	330.16
513.844	365.27
514.276	369.95
514.707	398.04
515.139	285.69
515.571	299.73
516.002	288.03
516.433	332.5
516.865	295.05
517.296	346.55
517.727	372.29
518.159	217.82
518.59	412.08
519.021	276.33
519.452	292.71
519.883	269.31
520.314	337.18
520.744	348.89
521.175	262.29
521.606	351.23
522.037	362.93
522.467	283.35
522.898	266.97
523.328	306.76
523.759	323.14
524.189	283.35
524.62	337.18
525.05	281.01
525.48	334.84
525.91	295.05
526.341	346.55
526.771	311.44
527.201	231.86
527.631	283.35
528.061	341.86
528.49	334.84
528.92	220.16
529.35	320.8
529.78	327.82
530.209	285.69
530.639	292.71
531.068	318.46
531.498	337.18
531.927	269.31
532.357	341.86
532.786	323.14
533.215	358.25
533.644	273.99
534.074	273.99
534.503	299.73
534.932	327.82
535.361	309.1
535.79	332.5
536.218	355.91
536.647	297.39
537.076	344.21
537.505	320.8
537.933	323.14
538.362	330.16
538.79	311.44
539.219	320.8
539.647	304.42
540.076	341.86
540.504	332.5
540.932	290.37
541.36	337.18
541.788	355.91
542.217	327.82
542.645	346.55
543.073	311.44
543.5	320.8
543.928	278.67
544.356	297.39
544.784	334.84
545.211	365.27
545.639	295.05
546.067	302.08
546.494	344.21
546.922	325.48
547.349	325.48
547.776	318.46
548.204	304.42
548.631	339.52
549.058	358.25
549.485	302.08
549.912	255.26
550.339	281.01
550.766	290.37
551.193	346.55
551.62	266.97
552.047	313.78
552.474	269.31
552.9	297.39
553.327	311.44
553.754	252.92
554.18	271.65
554.607	330.16
555.033	288.03
555.459	327.82
555.886	405.06
556.312	297.39
556.738	290.37
557.164	302.08
557.59	316.12
558.016	337.18
558.442	316.12
558.868	283.35
559.294	285.69
559.72	316.12
560.145	259.95
560.571	362.93
560.997	393.36
561.422	327.82
561.848	292.71
562.273	269.31
562.699	264.63
563.124	311.44
563.549	292.71
563.974	360.59
564.4	330.16
564.825	323.14
565.25	332.5
565.675	351.23
566.1	351.23
566.525	351.23
566.95	360.59
567.374	276.33
567.799	374.63
568.224	290.37
568.648	318.46
569.073	323.14
569.497	262.29
569.922	325.48
570.346	283.35
570.771	367.61
571.195	365.27
571.619	339.52
572.043	372.29
572.467	295.05
572.891	337.18
573.315	348.89
573.739	351.23
574.163	320.8
574.587	295.05
575.011	330.16
575.435	313.78
575.858	276.33
576.282	304.42
576.705	313.78
577.129	271.65
577.552	299.73
577.976	393.36
578.399	290.37
578.822	351.23
579.245	311.44
579.669	264.63
580.092	222.5
580.515	386.33
580.938	304.42
581.361	412.08
581.784	252.92
582.206	297.39
582.629	299.73
583.052	304.42
583.474	297.39
583.897	348.89
584.32	320.8
584.742	264.63
585.165	285.69
585.587	320.8
586.009	229.52
586.431	337.18
586.854	337.18
587.276	299.73
587.698	201.43
588.12	243.56
588.542	353.57
588.964	316.12
589.386	325.48
589.807	407.4
590.229	273.99
590.651	386.33
591.073	334.84
591.494	278.67
591.916	323.14
592.337	365.27
592.759	332.5
593.18	288.03
593.601	358.25
594.022	337.18
594.444	386.33
594.865	341.86
595.286	320.8
595.707	281.01
596.128	306.76
596.549	299.73
596.97	206.11
597.39	313.78
597.811	330.16
598.232	362.93
598.652	339.52
599.073	344.21
599.494	309.1
599.914	299.73
600.334	353.57
600.755	281.01
601.175	311.44
601.595	311.44
602.015	344.21
602.436	288.03
602.856	409.74
603.276	355.91
603.696	327.82
604.115	283.35
604.535	334.84
604.955	278.67
605.375	325.48
605.794	278.67
606.214	323.14
606.634	306.76
607.053	344.21
607.473	358.25
607.892	302.08
608.311	262.29
608.731	330.16
609.15	316.12
609.569	313.78
609.988	276.33
610.407	334.84
610.826	299.73
611.245	330.16
611.664	318.46
612.083	346.55
612.501	273.99
612.92	339.52
613.339	337.18
613.757	283.35
614.176	311.44
614.594	355.91
615.013	295.05
615.431	297.39
615.85	285.69
616.268	332.5
616.686	273.99
617.104	309.1
617.522	311.44
617.94	295.05
618.358	262.29
618.776	318.46
619.194	292.71
619.612	295.05
620.03	318.46
620.447	367.61
620.865	348.89
621.282	257.61
621.7	332.5
622.117	288.03
622.535	341.86
622.952	323.14
623.369	351.23
623.787	313.78
624.204	330.16
624.621	309.1
625.038	299.73
625.455	304.42
625.872	337.18
626.289	243.56
626.706	348.89
627.123	273.99
627.539	323.14
627.956	278.67
628.373	311.44
628.789	281.01
629.206	304.42
629.622	341.86
630.038	273.99
630.455	346.55
630.871	320.8
631.287	309.1
631.703	304.42
632.12	304.42
632.536	316.12
632.952	332.5
633.368	292.71
633.783	271.65
634.199	383.99
634.615	330.16
635.031	304.42
635.446	323.14
635.862	339.52
636.277	325.48
636.693	337.18
637.108	309.1
637.524	341.86
637.939	337.18
638.354	297.39
638.77	273.99
639.185	278.67
639.6	355.91
640.015	330.16
640.43	316.12
640.845	337.18
641.259	311.44
641.674	348.89
642.089	304.42
642.504	320.8
642.918	283.35
643.333	309.1
643.747	229.52
644.162	365.27
644.576	318.46
644.991	276.33
645.405	241.22
645.819	299.73
646.233	344.21
646.647	306.76
647.061	323.14
647.475	330.16
647.889	283.35
648.303	330.16
648.717	330.16
649.131	360.59
649.545	276.33
649.958	276.33
650.372	332.5
650.785	243.56
651.199	290.37
651.612	332.5
652.026	295.05
652.439	309.1
652.852	320.8
653.266	297.39
653.679	313.78
654.092	295.05
654.505	302.08
654.918	323.14
655.331	372.29
655.744	332.5
656.156	355.91
656.569	281.01
656.982	318.46
657.394	367.61
657.807	332.5
658.22	283.35
658.632	292.71
659.044	330.16
659.457	323.14
659.869	271.65
660.281	299.73
660.693	332.5
661.106	299.73
661.518	304.42
661.93	264.63
662.342	297.39
662.754	281.01
663.165	330.16
663.577	374.63
663.989	341.86
664.401	334.84
664.812	358.25
665.224	346.55
665.635	320.8
666.047	318.46
666.458	278.67
666.869	271.65
667.281	316.12
667.692	313.78
668.103	273.99
668.514	358.25
668.925	344.21
669.336	344.21
669.747	323.14
670.158	285.69
670.569	383.99
670.979	348.89
671.39	264.63
671.801	337.18
672.211	295.05
672.622	292.71
673.032	299.73
673.443	365.27
673.853	297.39
674.263	271.65
674.674	346.55
675.084	400.38
675.494	245.9
675.904	344.21
676.314	292.71
676.724	269.31
677.134	353.57
677.544	318.46
677.953	325.48
678.363	346.55
678.773	330.16
679.182	344.21
679.592	311.44
680.001	320.8
680.411	311.44
680.82	285.69
681.23	302.08
681.639	304.42
682.048	248.24
682.457	318.46
682.866	224.84
683.275	304.42
683.684	341.86
684.093	313.78
684.502	353.57
684.911	302.08
685.32	290.37
685.728	299.73
686.137	407.4
686.546	325.48
686.954	276.33
687.363	339.52
687.771	297.39
688.179	257.61
688.588	316.12
688.996	351.23
689.404	346.55
689.812	302.08
690.22	313.78
690.628	311.44
691.036	341.86
691.444	306.76
691.852	290.37
692.26	266.97
692.667	290.37
693.075	290.37
693.483	372.29
693.89	292.71
694.298	309.1
694.705	348.89
695.112	348.89
695.52	320.8
695.927	365.27
696.334	311.44
696.741	295.05
697.148	323.14
697.555	327.82
697.962	259.95
698.369	346.55
698.776	318.46
699.183	313.78
699.59	297.39
699.996	273.99
700.403	391.02
700.81	362.93
701.216	341.86
701.623	339.52
702.029	388.68
702.435	288.03
702.842	391.02
703.248	323.14
703.654	337.18
704.06	332.5
704.466	353.57
704.872	334.84
705.278	304.42
705.684	311.44
706.09	327.82
706.496	288.03
706.901	362.93
707.307	318.46
707.712	285.69
708.118	250.58
708.523	255.26
708.929	316.12
709.334	306.76
709.74	285.69
710.145	264.63
710.55	355.91
710.955	325.48
711.36	297.39
711.765	346.55
712.17	341.86
712.575	320.8
712.98	999.56
713.385	381.65
713.789	311.44
714.194	257.61
714.599	299.73
715.003	292.71
715.408	334.84
715.812	281.01
716.217	323.14
716.621	353.57
717.025	323.14
717.429	278.67
717.833	288.03
718.238	332.5
718.642	348.89
719.046	374.63
719.449	358.25
719.853	259.95
720.257	281.01
720.661	341.86
721.065	306.76
721.468	243.56
721.872	292.71
722.275	306.76
722.679	313.78
723.082	250.58
723.485	395.7
723.889	285.69
724.292	297.39
724.695	341.86
725.098	339.52
725.501	313.78
725.904	337.18
726.307	306.76
726.71	304.42
727.113	285.69
727.516	309.1
727.918	283.35
728.321	273.99
728.724	281.01
729.126	313.78
729.529	330.16
729.931	332.5
730.333	304.42
730.736	339.52
731.138	332.5
731.54	337.18
731.942	281.01
732.344	309.1
732.746	285.69
733.148	332.5
733.55	292.71
733.952	367.61
734.354	353.57
734.756	318.46
735.157	318.46
735.559	332.5
735.96	281.01
736.362	264.63
736.763	339.52
737.165	320.8
737.566	332.5
737.967	330.16
738.368	341.86
738.77	281.01
739.171	323.14
739.572	313.78
739.973	323.14
740.374	355.91
740.774	391.02
741.175	318.46
741.576	309.1
741.977	355.91
742.377	316.12
742.778	273.99
743.178	269.31
743.579	362.93
743.979	306.76
744.379	334.84
744.78	285.69
745.18	362.93
745.58	320.8
745.98	334.84
746.38	330.16
746.78	276.33
747.18	311.44
747.58	318.46
747.98	255.26
748.38	323.14
748.779	337.18
749.179	234.2
749.578	269.31
749.978	290.37
750.377	398.04
750.777	320.8
751.176	311.44
751.575	269.31
751.975	311.44
752.374	313.78
752.773	262.29
753.172	304.42
753.571	344.21
753.97	285.69
754.369	281.01
754.768	306.76
755.166	318.46
755.565	273.99
755.964	299.73
756.362	316.12
756.761	339.52
757.159	311.44
757.558	295.05
757.956	288.03
758.354	241.22
758.753	323.14
759.151	309.1
759.549	355.91
759.947	278.67
760.345	297.39
760.743	295.05
761.141	311.44
761.539	339.52
761.936	292.71
762.334	288.03
762.732	318.46
763.129	337.18
763.527	285.69
763.924	346.55
764.322	297.39
764.719	330.16
