Data from Al_FLMS009871__484__14-36-45-230.txt Node

Date: Fri Mar 08 14:36:45 CST 2024
User: pe5414po
Spectrometer: FLMS00987
Trigger mode: 0
Integration Time (sec): 1.000000E-1
Scans to average: 1
Electric dark correction enabled: true
Nonlinearity correction enabled: false
Boxcar width: 0
XAxis mode: Wavelengths
Number of Pixels in Spectrum: 2048
>>>>>Begin Spectral Data<<<<<
188.938	-135.9
189.409	-135.9
189.879	-135.9
190.349	-124.19
190.819	-187.39
191.29	-166.32
191.76	-79.72
192.23	-103.13
192.7	-68.02
193.17	-89.09
193.64	-18.87
194.109	-91.43
194.579	-28.23
195.049	25.6
195.519	6.88
195.988	18.58
196.458	84.11
196.927	84.11
197.397	128.58
197.866	147.31
198.336	149.65
198.805	130.92
199.274	191.78
199.744	142.63
200.213	166.03
200.682	257.31
201.151	219.86
201.62	175.39
202.089	238.59
202.558	240.93
203.027	236.25
203.495	250.29
203.964	212.84
204.433	301.78
204.902	236.25
205.37	327.53
205.839	339.23
206.307	325.19
206.776	318.17
207.244	336.89
207.712	290.08
208.181	308.8
208.649	297.1
209.117	299.44
209.585	276.04
210.053	350.93
210.521	252.63
210.989	287.74
211.457	196.46
211.925	240.93
212.393	306.46
212.861	350.93
213.328	311.14
213.796	341.57
214.264	287.74
214.731	297.1
215.199	292.42
215.666	318.17
216.133	278.38
216.601	320.51
217.068	297.1
217.535	313.49
218.003	318.17
218.47	287.74
218.937	327.53
219.404	240.93
219.871	292.42
220.338	238.59
220.805	297.1
221.271	219.86
221.738	292.42
222.205	224.55
222.671	259.65
223.138	273.7
223.605	292.42
224.071	257.31
224.538	247.95
225.004	311.14
225.47	243.27
225.937	243.27
226.403	278.38
226.869	269.02
227.335	308.8
227.801	276.04
228.267	313.49
228.733	240.93
229.199	283.06
229.665	290.08
230.131	311.14
230.597	236.25
231.062	306.46
231.528	271.36
231.994	252.63
232.459	271.36
232.925	238.59
233.39	297.1
233.856	332.21
234.321	229.23
234.786	261.99
235.252	315.83
235.717	283.06
236.182	292.42
236.647	283.06
237.112	271.36
237.577	315.83
238.042	285.4
238.507	229.23
238.972	233.91
239.436	261.99
239.901	236.25
240.366	273.7
240.83	250.29
241.295	252.63
241.76	294.76
242.224	276.04
242.688	261.99
243.153	254.97
243.617	252.63
244.081	283.06
244.545	240.93
245.01	308.8
245.474	229.23
245.938	299.44
246.402	257.31
246.866	273.7
247.33	304.12
247.793	245.61
248.257	346.25
248.721	245.61
249.185	233.91
249.648	348.59
250.112	252.63
250.575	257.31
251.039	299.44
251.502	304.12
251.965	271.36
252.429	276.04
252.892	250.29
253.355	318.17
253.818	254.97
254.281	322.85
254.744	339.23
255.207	362.64
255.67	271.36
256.133	261.99
256.596	320.51
257.059	233.91
257.522	320.51
257.984	290.08
258.447	304.12
258.909	261.99
259.372	285.4
259.834	285.4
260.297	257.31
260.759	273.7
261.221	285.4
261.684	264.33
262.146	301.78
262.608	357.96
263.07	313.49
263.532	343.91
263.994	308.8
264.456	294.76
264.918	294.76
265.38	273.7
265.842	264.33
266.303	379.02
266.765	301.78
267.227	297.1
267.688	322.85
268.15	266.67
268.611	292.42
269.072	266.67
269.534	226.89
269.995	240.93
270.456	311.14
270.918	318.17
271.379	240.93
271.84	261.99
272.301	287.74
272.762	290.08
273.223	308.8
273.684	254.97
274.144	304.12
274.605	259.65
275.066	332.21
275.527	304.12
275.987	318.17
276.448	315.83
276.908	240.93
277.369	264.33
277.829	315.83
278.289	318.17
278.75	414.13
279.21	287.74
279.67	318.17
280.13	301.78
280.59	290.08
281.05	313.49
281.51	372
281.97	313.49
282.43	374.34
282.89	261.99
283.35	334.55
283.809	329.87
284.269	339.23
284.729	308.8
285.188	261.99
285.648	334.55
286.107	233.91
286.567	257.31
287.026	304.12
287.485	304.12
287.944	306.46
288.404	280.72
288.863	315.83
289.322	259.65
289.781	306.46
290.24	334.55
290.699	318.17
291.158	329.87
291.616	329.87
292.075	301.78
292.534	301.78
292.992	336.89
293.451	332.21
293.91	276.04
294.368	247.95
294.827	290.08
295.285	257.31
295.743	273.7
296.202	297.1
296.66	292.42
297.118	313.49
297.576	311.14
298.034	285.4
298.492	283.06
298.95	304.12
299.408	278.38
299.866	290.08
300.324	381.36
300.781	290.08
301.239	273.7
301.697	320.51
302.154	294.76
302.612	334.55
303.069	350.93
303.527	280.72
303.984	290.08
304.441	357.96
304.899	292.42
305.356	269.02
305.813	308.8
306.27	299.44
306.727	290.08
307.184	299.44
307.641	320.51
308.098	271.36
308.555	299.44
309.012	290.08
309.468	313.49
309.925	379.02
310.382	379.02
310.838	290.08
311.295	379.02
311.751	273.7
312.208	301.78
312.664	273.7
313.12	271.36
313.577	320.51
314.033	271.36
314.489	280.72
314.945	285.4
315.401	290.08
315.857	332.21
316.313	313.49
316.769	280.72
317.225	287.74
317.681	350.93
318.136	343.91
318.592	278.38
319.048	294.76
319.503	292.42
319.959	414.13
320.414	357.96
320.869	264.33
321.325	334.55
321.78	327.53
322.235	322.85
322.691	308.8
323.146	294.76
323.601	315.83
324.056	276.04
324.511	297.1
324.966	346.25
325.421	334.55
325.875	329.87
326.33	306.46
326.785	297.1
327.24	379.02
327.694	334.55
328.149	336.89
328.603	269.02
329.058	259.65
329.512	301.78
329.966	311.14
330.421	336.89
330.875	306.46
331.329	273.7
331.783	322.85
332.237	252.63
332.691	308.8
333.145	339.23
333.599	276.04
334.053	329.87
334.507	294.76
334.96	271.36
335.414	341.57
335.868	292.42
336.321	383.7
336.775	325.19
337.228	327.53
337.682	343.91
338.135	299.44
338.588	350.93
339.042	362.64
339.495	304.12
339.948	292.42
340.401	290.08
340.854	348.59
341.307	353.27
341.76	283.06
342.213	299.44
342.666	285.4
343.119	327.53
343.571	311.14
344.024	313.49
344.477	318.17
344.929	320.51
345.382	299.44
345.834	308.8
346.287	306.46
346.739	304.12
347.191	266.67
347.644	252.63
348.096	336.89
348.548	348.59
349	334.55
349.452	283.06
349.904	280.72
350.356	290.08
350.808	346.25
351.26	311.14
351.711	332.21
352.163	313.49
352.615	304.12
353.066	360.3
353.518	332.21
353.969	278.38
354.421	353.27
354.872	343.91
355.324	348.59
355.775	269.02
356.226	329.87
356.677	348.59
357.128	320.51
357.579	355.62
358.03	283.06
358.481	299.44
358.932	280.72
359.383	276.04
359.834	304.12
360.285	299.44
360.735	350.93
361.186	266.67
361.637	292.42
362.087	311.14
362.538	318.17
362.988	287.74
363.438	315.83
363.889	313.49
364.339	313.49
364.789	379.02
365.239	348.59
365.689	334.55
366.139	329.87
366.589	287.74
367.039	357.96
367.489	341.57
367.939	343.91
368.389	276.04
368.839	306.46
369.288	290.08
369.738	348.59
370.187	306.46
370.637	353.27
371.086	278.38
371.536	294.76
371.985	327.53
372.434	329.87
372.884	339.23
373.333	301.78
373.782	292.42
374.231	266.67
374.68	313.49
375.129	271.36
375.578	294.76
376.027	327.53
376.475	217.52
376.924	292.42
377.373	271.36
377.822	287.74
378.27	364.98
378.719	313.49
379.167	299.44
379.616	374.34
380.064	278.38
380.512	271.36
380.961	311.14
381.409	322.85
381.857	308.8
382.305	311.14
382.753	308.8
383.201	266.67
383.649	325.19
384.097	308.8
384.545	308.8
384.992	313.49
385.44	372
385.888	254.97
386.335	266.67
386.783	318.17
387.231	334.55
387.678	283.06
388.125	304.12
388.573	264.33
389.02	271.36
389.467	334.55
389.914	332.21
390.362	325.19
390.809	285.4
391.256	285.4
391.703	381.36
392.15	381.36
392.596	283.06
393.043	273.7
393.49	320.51
393.937	306.46
394.383	283.06
394.83	313.49
395.276	290.08
395.723	294.76
396.169	334.55
396.616	355.62
397.062	283.06
397.508	318.17
397.954	339.23
398.401	292.42
398.847	350.93
399.293	247.95
399.739	336.89
400.185	364.98
400.631	304.12
401.076	297.1
401.522	315.83
401.968	313.49
402.414	290.08
402.859	301.78
403.305	254.97
403.75	329.87
404.196	306.46
404.641	327.53
405.086	280.72
405.532	355.62
405.977	332.21
406.422	269.02
406.867	327.53
407.312	280.72
407.757	332.21
408.202	334.55
408.647	301.78
409.092	271.36
409.537	322.85
409.982	329.87
410.426	343.91
410.871	336.89
411.316	336.89
411.76	287.74
412.205	318.17
412.649	329.87
413.093	299.44
413.538	350.93
413.982	311.14
414.426	350.93
414.87	285.4
415.314	271.36
415.758	320.51
416.202	336.89
416.646	353.27
417.09	301.78
417.534	257.31
417.978	280.72
418.421	379.02
418.865	367.32
419.309	322.85
419.752	325.19
420.196	299.44
420.639	311.14
421.083	257.31
421.526	306.46
421.969	334.55
422.412	341.57
422.856	280.72
423.299	273.7
423.742	343.91
424.185	301.78
424.628	325.19
425.071	360.3
425.513	308.8
425.956	367.32
426.399	308.8
426.842	297.1
427.284	245.61
427.727	290.08
428.169	327.53
428.612	346.25
429.054	311.14
429.497	322.85
429.939	322.85
430.381	364.98
430.823	341.57
431.265	355.62
431.707	226.89
432.149	325.19
432.591	364.98
433.033	311.14
433.475	332.21
433.917	369.66
434.359	367.32
434.8	294.76
435.242	360.3
435.684	320.51
436.125	245.61
436.567	346.25
437.008	287.74
437.449	269.02
437.891	336.89
438.332	266.67
438.773	294.76
439.214	376.68
439.656	301.78
440.097	276.04
440.538	362.64
440.978	357.96
441.419	304.12
441.86	322.85
442.301	334.55
442.742	278.38
443.182	322.85
443.623	329.87
444.063	306.46
444.504	259.65
444.944	343.91
445.385	334.55
445.825	327.53
446.265	283.06
446.706	376.68
447.146	320.51
447.586	297.1
448.026	350.93
448.466	332.21
448.906	350.93
449.346	327.53
449.786	353.27
450.225	329.87
450.665	325.19
451.105	315.83
451.544	379.02
451.984	357.96
452.424	341.57
452.863	334.55
453.302	386.04
453.742	315.83
454.181	285.4
454.62	311.14
455.059	278.38
455.499	280.72
455.938	273.7
456.377	292.42
456.816	304.12
457.254	357.96
457.693	355.62
458.132	308.8
458.571	341.57
459.01	301.78
459.448	294.76
459.887	327.53
460.325	336.89
460.764	297.1
461.202	318.17
461.641	311.14
462.079	238.59
462.517	322.85
462.955	297.1
463.393	294.76
463.832	350.93
464.27	325.19
464.708	325.19
465.145	264.33
465.583	287.74
466.021	264.33
466.459	264.33
466.897	306.46
467.334	294.76
467.772	311.14
468.209	346.25
468.647	322.85
469.084	320.51
469.522	376.68
469.959	322.85
470.396	360.3
470.833	297.1
471.271	369.66
471.708	285.4
472.145	348.59
472.582	339.23
473.019	325.19
473.456	278.38
473.892	315.83
474.329	341.57
474.766	346.25
475.202	306.46
475.639	339.23
476.076	343.91
476.512	297.1
476.949	308.8
477.385	231.57
477.821	327.53
478.258	306.46
478.694	362.64
479.13	313.49
479.566	334.55
480.002	299.44
480.438	301.78
480.874	297.1
481.31	287.74
481.746	357.96
482.181	243.27
482.617	294.76
483.053	367.32
483.488	320.51
483.924	332.21
484.36	318.17
484.795	297.1
485.23	346.25
485.666	364.98
486.101	231.57
486.536	294.76
486.971	325.19
487.407	318.17
487.842	346.25
488.277	325.19
488.712	339.23
489.146	287.74
489.581	318.17
490.016	318.17
490.451	259.65
490.885	318.17
491.32	325.19
491.755	252.63
492.189	313.49
492.624	278.38
493.058	294.76
493.492	343.91
493.927	285.4
494.361	348.59
494.795	264.33
495.229	287.74
495.663	372
496.097	283.06
496.531	224.55
496.965	327.53
497.399	320.51
497.833	334.55
498.266	294.76
498.7	364.98
499.134	261.99
499.567	322.85
500.001	334.55
500.434	334.55
500.868	280.72
501.301	374.34
501.734	339.23
502.168	343.91
502.601	367.32
503.034	313.49
503.467	304.12
503.9	280.72
504.333	283.06
504.766	341.57
505.199	311.14
505.632	269.02
506.064	308.8
506.497	299.44
506.93	315.83
507.362	299.44
507.795	320.51
508.227	247.95
508.66	299.44
509.092	315.83
509.524	252.63
509.956	327.53
510.389	357.96
510.821	355.62
511.253	320.51
511.685	261.99
512.117	294.76
512.549	355.62
512.981	304.12
513.412	332.21
513.844	308.8
514.276	240.93
514.707	313.49
515.139	311.14
515.571	339.23
516.002	322.85
516.433	353.27
516.865	297.1
517.296	332.21
517.727	341.57
518.159	343.91
518.59	348.59
519.021	357.96
519.452	325.19
519.883	236.25
520.314	306.46
520.744	360.3
521.175	332.21
521.606	311.14
522.037	304.12
522.467	283.06
522.898	353.27
523.328	297.1
523.759	304.12
524.189	287.74
524.62	294.76
525.05	254.97
525.48	278.38
525.91	329.87
526.341	320.51
526.771	315.83
527.201	369.66
527.631	278.38
528.061	261.99
528.49	280.72
528.92	297.1
529.35	259.65
529.78	292.42
530.209	304.12
530.639	402.43
531.068	254.97
531.498	372
531.927	355.62
532.357	386.04
532.786	304.12
533.215	355.62
533.644	372
534.074	304.12
534.503	318.17
534.932	278.38
535.361	308.8
535.79	287.74
536.218	297.1
536.647	346.25
537.076	395.4
537.505	299.44
537.933	376.68
538.362	306.46
538.79	336.89
539.219	285.4
539.647	322.85
540.076	308.8
540.504	325.19
540.932	341.57
541.36	315.83
541.788	353.27
542.217	332.21
542.645	306.46
543.073	376.68
543.5	353.27
543.928	259.65
544.356	250.29
544.784	320.51
545.211	290.08
545.639	297.1
546.067	297.1
546.494	301.78
546.922	318.17
547.349	313.49
547.776	311.14
548.204	306.46
548.631	374.34
549.058	257.31
549.485	306.46
549.912	276.04
550.339	315.83
550.766	383.7
551.193	325.19
551.62	315.83
552.047	259.65
552.474	348.59
552.9	322.85
553.327	297.1
553.754	283.06
554.18	236.25
554.607	280.72
555.033	278.38
555.459	292.42
555.886	332.21
556.312	318.17
556.738	322.85
557.164	315.83
557.59	318.17
558.016	348.59
558.442	355.62
558.868	334.55
559.294	386.04
559.72	276.04
560.145	308.8
560.571	276.04
560.997	315.83
561.422	299.44
561.848	357.96
562.273	332.21
562.699	269.02
563.124	381.36
563.549	355.62
563.974	308.8
564.4	311.14
564.825	334.55
565.25	236.25
565.675	374.34
566.1	299.44
566.525	294.76
566.95	362.64
567.374	308.8
567.799	299.44
568.224	355.62
568.648	334.55
569.073	283.06
569.497	271.36
569.922	346.25
570.346	332.21
570.771	306.46
571.195	290.08
571.619	313.49
572.043	355.62
572.467	311.14
572.891	348.59
573.315	383.7
573.739	329.87
574.163	308.8
574.587	294.76
575.011	360.3
575.435	299.44
575.858	355.62
576.282	261.99
576.705	306.46
577.129	386.04
577.552	364.98
577.976	364.98
578.399	304.12
578.822	297.1
579.245	299.44
579.669	346.25
580.092	327.53
580.515	278.38
580.938	372
581.361	271.36
581.784	285.4
582.206	318.17
582.629	306.46
583.052	306.46
583.474	276.04
583.897	329.87
584.32	290.08
584.742	297.1
585.165	283.06
585.587	357.96
586.009	280.72
586.431	304.12
586.854	362.64
587.276	327.53
587.698	299.44
588.12	327.53
588.542	287.74
588.964	292.42
589.386	402.43
589.807	318.17
590.229	336.89
590.651	353.27
591.073	285.4
591.494	383.7
591.916	299.44
592.337	285.4
592.759	254.97
593.18	329.87
593.601	299.44
594.022	313.49
594.444	259.65
594.865	350.93
595.286	280.72
595.707	243.27
596.128	283.06
596.549	306.46
596.97	386.04
597.39	299.44
597.811	299.44
598.232	332.21
598.652	306.46
599.073	252.63
599.494	313.49
599.914	299.44
600.334	311.14
600.755	287.74
601.175	290.08
601.595	325.19
602.015	360.3
602.436	360.3
602.856	479.66
603.276	290.08
603.696	320.51
604.115	348.59
604.535	301.78
604.955	355.62
605.375	327.53
605.794	327.53
606.214	322.85
606.634	304.12
607.053	308.8
607.473	318.17
607.892	346.25
608.311	315.83
608.731	353.27
609.15	308.8
609.569	369.66
609.988	322.85
610.407	315.83
610.826	329.87
611.245	322.85
611.664	301.78
612.083	386.04
612.501	254.97
612.92	252.63
613.339	325.19
613.757	341.57
614.176	322.85
614.594	313.49
615.013	304.12
615.431	292.42
615.85	292.42
616.268	269.02
616.686	320.51
617.104	264.33
617.522	327.53
617.94	261.99
618.358	259.65
618.776	341.57
619.194	294.76
619.612	327.53
620.03	252.63
620.447	269.02
620.865	273.7
621.282	306.46
621.7	336.89
622.117	313.49
622.535	273.7
622.952	215.18
623.369	320.51
623.787	322.85
624.204	334.55
624.621	299.44
625.038	336.89
625.455	322.85
625.872	343.91
626.289	325.19
626.706	308.8
627.123	341.57
627.539	245.61
627.956	292.42
628.373	320.51
628.789	299.44
629.206	301.78
629.622	266.67
630.038	229.23
630.455	299.44
630.871	327.53
631.287	383.7
631.703	311.14
632.12	297.1
632.536	308.8
632.952	318.17
633.368	271.36
633.783	294.76
634.199	339.23
634.615	341.57
635.031	327.53
635.446	318.17
635.862	367.32
636.277	285.4
636.693	301.78
637.108	304.12
637.524	318.17
637.939	322.85
638.354	250.29
638.77	318.17
639.185	273.7
639.6	304.12
640.015	376.68
640.43	357.96
640.845	332.21
641.259	261.99
641.674	297.1
642.089	332.21
642.504	290.08
642.918	273.7
643.333	313.49
643.747	367.32
644.162	357.96
644.576	322.85
644.991	318.17
645.405	273.7
645.819	322.85
646.233	327.53
646.647	292.42
647.061	280.72
647.475	276.04
647.889	287.74
648.303	308.8
648.717	332.21
649.131	285.4
649.545	269.02
649.958	353.27
650.372	285.4
650.785	301.78
651.199	278.38
651.612	297.1
652.026	301.78
652.439	306.46
652.852	350.93
653.266	306.46
653.679	297.1
654.092	304.12
654.505	334.55
654.918	334.55
655.331	325.19
655.744	306.46
656.156	320.51
656.569	283.06
656.982	320.51
657.394	278.38
657.807	325.19
658.22	313.49
658.632	346.25
659.044	304.12
659.457	222.2
659.869	320.51
660.281	325.19
660.693	332.21
661.106	240.93
661.518	315.83
661.93	285.4
662.342	329.87
662.754	334.55
663.165	343.91
663.577	297.1
663.989	306.46
664.401	332.21
664.812	315.83
665.224	264.33
665.635	329.87
666.047	329.87
666.458	264.33
666.869	292.42
667.281	421.15
667.692	299.44
668.103	313.49
668.514	285.4
668.925	276.04
669.336	304.12
669.747	247.95
670.158	264.33
670.569	325.19
670.979	240.93
671.39	311.14
671.801	362.64
672.211	322.85
672.622	245.61
673.032	287.74
673.443	294.76
673.853	325.19
674.263	339.23
674.674	261.99
675.084	264.33
675.494	315.83
675.904	353.27
676.314	332.21
676.724	285.4
677.134	318.17
677.544	301.78
677.953	386.04
678.363	353.27
678.773	306.46
679.182	280.72
679.592	350.93
680.001	313.49
680.411	250.29
680.82	343.91
681.23	238.59
681.639	278.38
682.048	362.64
682.457	306.46
682.866	311.14
683.275	339.23
683.684	348.59
684.093	301.78
684.502	292.42
684.911	290.08
685.32	355.62
685.728	313.49
686.137	290.08
686.546	411.79
686.954	355.62
687.363	336.89
687.771	329.87
688.179	341.57
688.588	341.57
688.996	322.85
689.404	346.25
689.812	294.76
690.22	334.55
690.628	306.46
691.036	372
691.444	341.57
691.852	292.42
692.26	339.23
692.667	301.78
693.075	287.74
693.483	306.46
693.89	294.76
694.298	294.76
694.705	346.25
695.112	381.36
695.52	353.27
695.927	254.97
696.334	240.93
696.741	238.59
697.148	292.42
697.555	339.23
697.962	355.62
698.369	301.78
698.776	287.74
699.183	276.04
699.59	252.63
699.996	332.21
700.403	332.21
700.81	348.59
701.216	329.87
701.623	374.34
702.029	357.96
702.435	339.23
702.842	327.53
703.248	304.12
703.654	308.8
704.06	247.95
704.466	341.57
704.872	276.04
705.278	343.91
705.684	322.85
706.09	334.55
706.496	264.33
706.901	386.04
707.307	325.19
707.712	329.87
708.118	292.42
708.523	285.4
708.929	276.04
709.334	325.19
709.74	332.21
710.145	308.8
710.55	236.25
710.955	325.19
711.36	287.74
711.765	334.55
712.17	290.08
712.575	341.57
712.98	863.51
713.385	381.36
713.789	339.23
714.194	341.57
714.599	259.65
715.003	313.49
715.408	311.14
715.812	336.89
716.217	306.46
716.621	231.57
717.025	362.64
717.429	332.21
717.833	318.17
718.238	357.96
718.642	306.46
719.046	283.06
719.449	301.78
719.853	313.49
720.257	327.53
720.661	348.59
721.065	355.62
721.468	276.04
721.872	245.61
722.275	299.44
722.679	280.72
723.082	308.8
723.485	269.02
723.889	290.08
724.292	327.53
724.695	261.99
725.098	369.66
725.501	320.51
725.904	383.7
726.307	322.85
726.71	271.36
727.113	283.06
727.516	276.04
727.918	341.57
728.321	325.19
728.724	341.57
729.126	341.57
729.529	343.91
729.931	357.96
730.333	339.23
730.736	287.74
731.138	250.29
731.54	320.51
731.942	322.85
732.344	299.44
732.746	297.1
733.148	287.74
733.55	280.72
733.952	311.14
734.354	257.31
734.756	297.1
735.157	372
735.559	360.3
735.96	238.59
736.362	390.72
736.763	329.87
737.165	217.52
737.566	297.1
737.967	297.1
738.368	381.36
738.77	280.72
739.171	261.99
739.572	325.19
739.973	329.87
740.374	315.83
740.774	304.12
741.175	224.55
741.576	292.42
741.977	313.49
742.377	315.83
742.778	273.7
743.178	285.4
743.579	271.36
743.979	301.78
744.379	343.91
744.78	201.14
745.18	315.83
745.58	299.44
745.98	364.98
746.38	297.1
746.78	226.89
747.18	283.06
747.58	271.36
747.98	308.8
748.38	306.46
748.779	322.85
749.179	252.63
749.578	369.66
749.978	322.85
750.377	301.78
750.777	269.02
751.176	252.63
751.575	325.19
751.975	381.36
752.374	280.72
752.773	334.55
753.172	322.85
753.571	357.96
753.97	301.78
754.369	318.17
754.768	376.68
755.166	372
755.565	322.85
755.964	322.85
756.362	290.08
756.761	350.93
757.159	273.7
757.558	376.68
757.956	287.74
758.354	313.49
758.753	343.91
759.151	276.04
759.549	341.57
759.947	320.51
760.345	320.51
760.743	250.29
761.141	306.46
761.539	353.27
761.936	369.66
762.334	266.67
762.732	292.42
763.129	292.42
763.527	278.38
763.924	348.59
764.322	311.14
764.719	280.72
765.117	280.72
765.514	278.38
765.911	327.53
