Data from Al_FLMS009871__492__14-36-46-030.txt Node

Date: Fri Mar 08 14:36:46 CST 2024
User: pe5414po
Spectrometer: FLMS00987
Trigger mode: 0
Integration Time (sec): 1.000000E-1
Scans to average: 1
Electric dark correction enabled: true
Nonlinearity correction enabled: false
Boxcar width: 0
XAxis mode: Wavelengths
Number of Pixels in Spectrum: 2048
>>>>>Begin Spectral Data<<<<<
188.938	-54.27
189.409	-54.27
189.879	-54.27
190.349	-84.7
190.819	-157.25
191.29	-112.78
191.76	-154.91
192.23	-110.44
192.7	-54.27
193.17	-84.7
193.64	-54.27
194.109	-28.53
194.579	4.24
195.049	37.01
195.519	-7.46
195.988	-0.44
196.458	104.89
196.927	88.5
197.397	142.33
197.866	74.46
198.336	156.38
198.805	107.23
199.274	177.44
199.744	266.38
200.213	189.14
200.682	203.19
201.151	228.93
201.62	217.23
202.089	224.25
202.558	303.83
203.027	259.36
203.495	308.51
203.964	313.19
204.433	296.81
204.902	317.87
205.37	352.98
205.839	315.53
206.307	327.24
206.776	296.81
207.244	273.4
207.712	296.81
208.181	287.45
208.649	259.36
209.117	348.3
209.585	322.56
210.053	315.53
210.521	245.32
210.989	310.85
211.457	266.38
211.925	275.74
212.393	273.4
212.861	247.66
213.328	252.34
213.796	257.02
214.264	257.02
214.731	257.02
215.199	331.92
215.666	343.62
216.133	322.56
216.601	294.47
217.068	285.11
217.535	271.06
218.003	254.68
218.47	266.38
218.937	308.51
219.404	317.87
219.871	315.53
220.338	275.74
220.805	285.11
221.271	235.96
221.738	306.17
222.205	273.4
222.671	266.38
223.138	303.83
223.605	308.51
224.071	292.13
224.538	266.38
225.004	261.7
225.47	303.83
225.937	259.36
226.403	247.66
226.869	266.38
227.335	324.9
227.801	299.15
228.267	310.85
228.733	266.38
229.199	294.47
229.665	250
230.131	296.81
230.597	252.34
231.062	317.87
231.528	280.43
231.994	259.36
232.459	273.4
232.925	292.13
233.39	343.62
233.856	231.27
234.321	320.21
234.786	266.38
235.252	275.74
235.717	348.3
236.182	334.26
236.647	345.96
237.112	331.92
237.577	322.56
238.042	308.51
238.507	245.32
238.972	315.53
239.436	233.61
239.901	355.32
240.366	296.81
240.83	271.06
241.295	282.77
241.76	245.32
242.224	292.13
242.688	306.17
243.153	306.17
243.617	313.19
244.081	308.51
244.545	303.83
245.01	250
245.474	334.26
245.938	303.83
246.402	315.53
246.866	252.34
247.33	310.85
247.793	278.08
248.257	350.64
248.721	235.96
249.185	334.26
249.648	322.56
250.112	278.08
250.575	331.92
251.039	266.38
251.502	315.53
251.965	261.7
252.429	287.45
252.892	336.6
253.355	289.79
253.818	338.94
254.281	329.58
254.744	278.08
255.207	315.53
255.67	264.04
256.133	266.38
256.596	275.74
257.059	273.4
257.522	348.3
257.984	238.3
258.447	271.06
258.909	322.56
259.372	285.11
259.834	285.11
260.297	308.51
260.759	306.17
261.221	285.11
261.684	322.56
262.146	261.7
262.608	334.26
263.07	301.49
263.532	322.56
263.994	289.79
264.456	371.71
264.918	292.13
265.38	308.51
265.842	303.83
266.303	296.81
266.765	334.26
267.227	331.92
267.688	367.03
268.15	322.56
268.611	306.17
269.072	329.58
269.534	322.56
269.995	271.06
270.456	289.79
270.918	259.36
271.379	350.64
271.84	271.06
272.301	292.13
272.762	268.72
273.223	338.94
273.684	336.6
274.144	301.49
274.605	261.7
275.066	310.85
275.527	275.74
275.987	324.9
276.448	308.51
276.908	292.13
277.369	285.11
277.829	289.79
278.289	381.07
278.75	343.62
279.21	341.28
279.67	350.64
280.13	357.66
280.59	287.45
281.05	352.98
281.51	280.43
281.97	369.37
282.43	308.51
282.89	296.81
283.35	296.81
283.809	324.9
284.269	289.79
284.729	287.45
285.188	362.34
285.648	329.58
286.107	320.21
286.567	315.53
287.026	338.94
287.485	278.08
287.944	285.11
288.404	271.06
288.863	315.53
289.322	271.06
289.781	334.26
290.24	374.05
290.699	315.53
291.158	306.17
291.616	324.9
292.075	287.45
292.534	320.21
292.992	282.77
293.451	268.72
293.91	282.77
294.368	310.85
294.827	331.92
295.285	247.66
295.743	268.72
296.202	317.87
296.66	350.64
297.118	266.38
297.576	252.34
298.034	250
298.492	381.07
298.95	275.74
299.408	308.51
299.866	348.3
300.324	348.3
300.781	320.21
301.239	322.56
301.697	329.58
302.154	266.38
302.612	327.24
303.069	355.32
303.527	313.19
303.984	257.02
304.441	322.56
304.899	324.9
305.356	329.58
305.813	355.32
306.27	299.15
306.727	303.83
307.184	362.34
307.641	266.38
308.098	334.26
308.555	362.34
309.012	317.87
309.468	273.4
309.925	308.51
310.382	357.66
310.838	343.62
311.295	320.21
311.751	378.73
312.208	282.77
312.664	271.06
313.12	334.26
313.577	285.11
314.033	280.43
314.489	374.05
314.945	334.26
315.401	357.66
315.857	280.43
316.313	329.58
316.769	301.49
317.225	320.21
317.681	327.24
318.136	287.45
318.592	313.19
319.048	280.43
319.503	233.61
319.959	273.4
320.414	324.9
320.869	299.15
321.325	324.9
321.78	329.58
322.235	308.51
322.691	259.36
323.146	362.34
323.601	329.58
324.056	350.64
324.511	329.58
324.966	334.26
325.421	306.17
325.875	322.56
326.33	327.24
326.785	313.19
327.24	268.72
327.694	315.53
328.149	345.96
328.603	320.21
329.058	350.64
329.512	254.68
329.966	320.21
330.421	320.21
330.875	266.38
331.329	345.96
331.783	242.98
332.237	331.92
332.691	360
333.145	280.43
333.599	306.17
334.053	268.72
334.507	383.41
334.96	317.87
335.414	390.43
335.868	310.85
336.321	329.58
336.775	296.81
337.228	315.53
337.682	254.68
338.135	289.79
338.588	327.24
339.042	306.17
339.495	268.72
339.948	350.64
340.401	329.58
340.854	320.21
341.307	334.26
341.76	334.26
342.213	322.56
342.666	364.68
343.119	322.56
343.571	334.26
344.024	352.98
344.477	285.11
344.929	301.49
345.382	303.83
345.834	371.71
346.287	343.62
346.739	266.38
347.191	327.24
347.644	369.37
348.096	329.58
348.548	301.49
349	327.24
349.452	348.3
349.904	364.68
350.356	327.24
350.808	299.15
351.26	324.9
351.711	364.68
352.163	301.49
352.615	367.03
353.066	352.98
353.518	343.62
353.969	357.66
354.421	322.56
354.872	289.79
355.324	296.81
355.775	334.26
356.226	355.32
356.677	341.28
357.128	348.3
357.579	352.98
358.03	348.3
358.481	324.9
358.932	308.51
359.383	369.37
359.834	306.17
360.285	331.92
360.735	324.9
361.186	367.03
361.637	341.28
362.087	343.62
362.538	345.96
362.988	282.77
363.438	355.32
363.889	360
364.339	371.71
364.789	376.39
365.239	299.15
365.689	399.79
366.139	313.19
366.589	381.07
367.039	411.5
367.489	385.75
367.939	329.58
368.389	317.87
368.839	292.13
369.288	310.85
369.738	350.64
370.187	308.51
370.637	315.53
371.086	327.24
371.536	285.11
371.985	303.83
372.434	296.81
372.884	310.85
373.333	423.2
373.782	317.87
374.231	345.96
374.68	324.9
375.129	327.24
375.578	360
376.027	376.39
376.475	273.4
376.924	282.77
377.373	367.03
377.822	355.32
378.27	313.19
378.719	303.83
379.167	331.92
379.616	345.96
380.064	306.17
380.512	345.96
380.961	299.15
381.409	336.6
381.857	399.79
382.305	348.3
382.753	329.58
383.201	348.3
383.649	357.66
384.097	324.9
384.545	271.06
384.992	322.56
385.44	327.24
385.888	280.43
386.335	343.62
386.783	338.94
387.231	331.92
387.678	381.07
388.125	357.66
388.573	376.39
389.02	402.13
389.467	336.6
389.914	334.26
390.362	345.96
390.809	331.92
391.256	282.77
391.703	376.39
392.15	334.26
392.596	296.81
393.043	374.05
393.49	331.92
393.937	364.68
394.383	334.26
394.83	376.39
395.276	301.49
395.723	303.83
396.169	343.62
396.616	334.26
397.062	327.24
397.508	350.64
397.954	360
398.401	376.39
398.847	348.3
399.293	315.53
399.739	299.15
400.185	313.19
400.631	336.6
401.076	308.51
401.522	352.98
401.968	334.26
402.414	289.79
402.859	268.72
403.305	343.62
403.75	348.3
404.196	282.77
404.641	367.03
405.086	352.98
405.532	371.71
405.977	336.6
406.422	327.24
406.867	402.13
407.312	315.53
407.757	352.98
408.202	352.98
408.647	301.49
409.092	306.17
409.537	343.62
409.982	329.58
410.426	301.49
410.871	313.19
411.316	352.98
411.76	348.3
412.205	360
412.649	360
413.093	322.56
413.538	334.26
413.982	317.87
414.426	327.24
414.87	289.79
415.314	411.5
415.758	343.62
416.202	338.94
416.646	292.13
417.09	338.94
417.534	385.75
417.978	292.13
418.421	327.24
418.865	360
419.309	360
419.752	303.83
420.196	336.6
420.639	287.45
421.083	374.05
421.526	313.19
421.969	313.19
422.412	343.62
422.856	282.77
423.299	315.53
423.742	327.24
424.185	327.24
424.628	282.77
425.071	341.28
425.513	385.75
425.956	343.62
426.399	324.9
426.842	299.15
427.284	360
427.727	331.92
428.169	306.17
428.612	310.85
429.054	301.49
429.497	345.96
429.939	308.51
430.381	371.71
430.823	299.15
431.265	364.68
431.707	278.08
432.149	329.58
432.591	367.03
433.033	315.53
433.475	329.58
433.917	296.81
434.359	327.24
434.8	345.96
435.242	352.98
435.684	345.96
436.125	306.17
436.567	343.62
437.008	343.62
437.449	352.98
437.891	348.3
438.332	292.13
438.773	338.94
439.214	310.85
439.656	343.62
440.097	336.6
440.538	313.19
440.978	303.83
441.419	303.83
441.86	315.53
442.301	315.53
442.742	322.56
443.182	331.92
443.623	411.5
444.063	357.66
444.504	362.34
444.944	369.37
445.385	313.19
445.825	367.03
446.265	303.83
446.706	348.3
447.146	350.64
447.586	364.68
448.026	336.6
448.466	355.32
448.906	322.56
449.346	364.68
449.786	362.34
450.225	254.68
450.665	399.79
451.105	374.05
451.544	362.34
451.984	324.9
452.424	331.92
452.863	324.9
453.302	320.21
453.742	320.21
454.181	250
454.62	317.87
455.059	367.03
455.499	411.5
455.938	303.83
456.377	320.21
456.816	310.85
457.254	336.6
457.693	324.9
458.132	345.96
458.571	336.6
459.01	303.83
459.448	310.85
459.887	301.49
460.325	338.94
460.764	264.04
461.202	336.6
461.641	350.64
462.079	345.96
462.517	341.28
462.955	317.87
463.393	338.94
463.832	322.56
464.27	362.34
464.708	322.56
465.145	376.39
465.583	317.87
466.021	303.83
466.459	296.81
466.897	336.6
467.334	355.32
467.772	362.34
468.209	397.45
468.647	352.98
469.084	362.34
469.522	324.9
469.959	357.66
470.396	313.19
470.833	362.34
471.271	338.94
471.708	315.53
472.145	308.51
472.582	411.5
473.019	306.17
473.456	369.37
473.892	385.75
474.329	310.85
474.766	367.03
475.202	320.21
475.639	285.11
476.076	355.32
476.512	341.28
476.949	402.13
477.385	313.19
477.821	336.6
478.258	329.58
478.694	341.28
479.13	381.07
479.566	374.05
480.002	334.26
480.438	266.38
480.874	360
481.31	362.34
481.746	357.66
482.181	343.62
482.617	303.83
483.053	336.6
483.488	381.07
483.924	374.05
484.36	348.3
484.795	369.37
485.23	338.94
485.666	334.26
486.101	338.94
486.536	336.6
486.971	252.34
487.407	345.96
487.842	334.26
488.277	322.56
488.712	376.39
489.146	324.9
489.581	371.71
490.016	352.98
490.451	308.51
490.885	388.09
491.32	292.13
491.755	352.98
492.189	287.45
492.624	315.53
493.058	294.47
493.492	317.87
493.927	268.72
494.361	343.62
494.795	324.9
495.229	299.15
495.663	329.58
496.097	343.62
496.531	376.39
496.965	343.62
497.399	320.21
497.833	336.6
498.266	306.17
498.7	303.83
499.134	324.9
499.567	364.68
500.001	357.66
500.434	334.26
500.868	345.96
501.301	348.3
501.734	315.53
502.168	392.77
502.601	306.17
503.034	235.96
503.467	322.56
503.9	399.79
504.333	310.85
504.766	282.77
505.199	374.05
505.632	350.64
506.064	334.26
506.497	327.24
506.93	280.43
507.362	287.45
507.795	313.19
508.227	357.66
508.66	357.66
509.092	404.47
509.524	348.3
509.956	341.28
510.389	303.83
510.821	369.37
511.253	331.92
511.685	331.92
512.117	299.15
512.549	392.77
512.981	280.43
513.412	331.92
513.844	369.37
514.276	367.03
514.707	301.49
515.139	292.13
515.571	402.13
516.002	369.37
516.433	402.13
516.865	285.11
517.296	383.41
517.727	240.64
518.159	271.06
518.59	320.21
519.021	369.37
519.452	367.03
519.883	348.3
520.314	301.49
520.744	331.92
521.175	350.64
521.606	317.87
522.037	289.79
522.467	308.51
522.898	336.6
523.328	289.79
523.759	409.15
524.189	348.3
524.62	320.21
525.05	352.98
525.48	320.21
525.91	381.07
526.341	383.41
526.771	374.05
527.201	310.85
527.631	280.43
528.061	324.9
528.49	371.71
528.92	381.07
529.35	322.56
529.78	282.77
530.209	385.75
530.639	404.47
531.068	352.98
531.498	317.87
531.927	308.51
532.357	360
532.786	294.47
533.215	245.32
533.644	362.34
534.074	315.53
534.503	350.64
534.932	322.56
535.361	317.87
535.79	357.66
536.218	306.17
536.647	383.41
537.076	303.83
537.505	338.94
537.933	327.24
538.362	367.03
538.79	324.9
539.219	289.79
539.647	383.41
540.076	348.3
540.504	327.24
540.932	362.34
541.36	334.26
541.788	334.26
542.217	402.13
542.645	390.43
543.073	306.17
543.5	371.71
543.928	310.85
544.356	324.9
544.784	282.77
545.211	329.58
545.639	334.26
546.067	388.09
546.494	320.21
546.922	336.6
547.349	341.28
547.776	376.39
548.204	355.32
548.631	294.47
549.058	306.17
549.485	308.51
549.912	341.28
550.339	348.3
550.766	383.41
551.193	357.66
551.62	376.39
552.047	397.45
552.474	331.92
552.9	348.3
553.327	336.6
553.754	341.28
554.18	336.6
554.607	369.37
555.033	378.73
555.459	357.66
555.886	303.83
556.312	348.3
556.738	388.09
557.164	350.64
557.59	247.66
558.016	360
558.442	374.05
558.868	303.83
559.294	331.92
559.72	327.24
560.145	303.83
560.571	385.75
560.997	360
561.422	411.5
561.848	385.75
562.273	313.19
562.699	364.68
563.124	322.56
563.549	390.43
563.974	383.41
564.4	350.64
564.825	371.71
565.25	341.28
565.675	385.75
566.1	320.21
566.525	294.47
566.95	301.49
567.374	313.19
567.799	336.6
568.224	275.74
568.648	313.19
569.073	341.28
569.497	360
569.922	348.3
570.346	355.32
570.771	355.32
571.195	416.18
571.619	313.19
572.043	369.37
572.467	338.94
572.891	278.08
573.315	303.83
573.739	247.66
574.163	360
574.587	317.87
575.011	320.21
575.435	355.32
575.858	331.92
576.282	275.74
576.705	338.94
577.129	317.87
577.552	320.21
577.976	322.56
578.399	355.32
578.822	341.28
579.245	413.84
579.669	355.32
580.092	336.6
580.515	310.85
580.938	327.24
581.361	299.15
581.784	348.3
582.206	362.34
582.629	331.92
583.052	292.13
583.474	306.17
583.897	364.68
584.32	376.39
584.742	327.24
585.165	289.79
585.587	376.39
586.009	324.9
586.431	289.79
586.854	385.75
587.276	338.94
587.698	322.56
588.12	329.58
588.542	367.03
588.964	369.37
589.386	374.05
589.807	378.73
590.229	275.74
590.651	266.38
591.073	388.09
591.494	320.21
591.916	317.87
592.337	313.19
592.759	322.56
593.18	355.32
593.601	322.56
594.022	338.94
594.444	331.92
594.865	275.74
595.286	348.3
595.707	313.19
596.128	322.56
596.549	336.6
596.97	392.77
597.39	341.28
597.811	350.64
598.232	331.92
598.652	296.81
599.073	357.66
599.494	360
599.914	299.15
600.334	285.11
600.755	348.3
601.175	289.79
601.595	313.19
602.015	310.85
602.436	303.83
602.856	491.07
603.276	320.21
603.696	364.68
604.115	369.37
604.535	313.19
604.955	322.56
605.375	350.64
605.794	334.26
606.214	374.05
606.634	341.28
607.053	271.06
607.473	345.96
607.892	296.81
608.311	338.94
608.731	360
609.15	320.21
609.569	329.58
609.988	357.66
610.407	350.64
610.826	378.73
611.245	397.45
611.664	336.6
612.083	369.37
612.501	360
612.92	289.79
613.339	388.09
613.757	338.94
614.176	345.96
614.594	247.66
615.013	315.53
615.431	374.05
615.85	303.83
616.268	282.77
616.686	350.64
617.104	334.26
617.522	306.17
617.94	308.51
618.358	317.87
618.776	322.56
619.194	320.21
619.612	264.04
620.03	367.03
620.447	357.66
620.865	327.24
621.282	322.56
621.7	360
622.117	331.92
622.535	294.47
622.952	320.21
623.369	331.92
623.787	350.64
624.204	317.87
624.621	322.56
625.038	350.64
625.455	411.5
625.872	308.51
626.289	343.62
626.706	317.87
627.123	317.87
627.539	385.75
627.956	343.62
628.373	315.53
628.789	296.81
629.206	329.58
629.622	341.28
630.038	315.53
630.455	329.58
630.871	320.21
631.287	383.41
631.703	303.83
632.12	357.66
632.536	285.11
632.952	341.28
633.368	240.64
633.783	322.56
634.199	378.73
634.615	350.64
635.031	327.24
635.446	352.98
635.862	388.09
636.277	331.92
636.693	374.05
637.108	385.75
637.524	423.2
637.939	355.32
638.354	374.05
638.77	296.81
639.185	266.38
639.6	313.19
640.015	254.68
640.43	310.85
640.845	282.77
641.259	350.64
641.674	299.15
642.089	322.56
642.504	336.6
642.918	313.19
643.333	322.56
643.747	315.53
644.162	355.32
644.576	315.53
644.991	360
645.405	327.24
645.819	235.96
646.233	348.3
646.647	395.11
647.061	313.19
647.475	306.17
647.889	364.68
648.303	383.41
648.717	345.96
649.131	280.43
649.545	301.49
649.958	282.77
650.372	301.49
650.785	306.17
651.199	264.04
651.612	448.94
652.026	364.68
652.439	331.92
652.852	338.94
653.266	299.15
653.679	324.9
654.092	352.98
654.505	294.47
654.918	355.32
655.331	338.94
655.744	324.9
656.156	320.21
656.569	355.32
656.982	362.34
657.394	299.15
657.807	338.94
658.22	350.64
658.632	334.26
659.044	352.98
659.457	324.9
659.869	383.41
660.281	285.11
660.693	296.81
661.106	254.68
661.518	348.3
661.93	268.72
662.342	350.64
662.754	334.26
663.165	336.6
663.577	327.24
663.989	338.94
664.401	336.6
664.812	352.98
665.224	362.34
665.635	362.34
666.047	360
666.458	315.53
666.869	315.53
667.281	334.26
667.692	310.85
668.103	374.05
668.514	278.08
668.925	245.32
669.336	287.45
669.747	378.73
670.158	278.08
670.569	273.4
670.979	331.92
671.39	282.77
671.801	261.7
672.211	217.23
672.622	317.87
673.032	289.79
673.443	322.56
673.853	264.04
674.263	364.68
674.674	385.75
675.084	287.45
675.494	350.64
675.904	294.47
676.314	381.07
676.724	355.32
677.134	292.13
677.544	322.56
677.953	397.45
678.363	338.94
678.773	409.15
679.182	364.68
679.592	299.15
680.001	350.64
680.411	289.79
680.82	352.98
681.23	357.66
681.639	371.71
682.048	313.19
682.457	338.94
682.866	259.36
683.275	266.38
683.684	357.66
684.093	345.96
684.502	299.15
684.911	292.13
685.32	341.28
685.728	289.79
686.137	395.11
686.546	371.71
686.954	327.24
687.363	341.28
687.771	371.71
688.179	280.43
688.588	334.26
688.996	399.79
689.404	331.92
689.812	367.03
690.22	376.39
690.628	301.49
691.036	306.17
691.444	350.64
691.852	331.92
692.26	397.45
692.667	350.64
693.075	292.13
693.483	271.06
693.89	322.56
694.298	327.24
694.705	266.38
695.112	257.02
695.52	334.26
695.927	313.19
696.334	357.66
696.741	313.19
697.148	275.74
697.555	278.08
697.962	331.92
698.369	308.51
698.776	327.24
699.183	327.24
699.59	320.21
699.996	317.87
700.403	338.94
700.81	348.3
701.216	287.45
701.623	294.47
702.029	292.13
702.435	280.43
702.842	341.28
703.248	381.07
703.654	336.6
704.06	369.37
704.466	338.94
704.872	369.37
705.278	385.75
705.684	371.71
706.09	341.28
706.496	308.51
706.901	313.19
707.307	299.15
707.712	310.85
708.118	364.68
708.523	334.26
708.929	350.64
709.334	268.72
709.74	322.56
710.145	385.75
710.55	348.3
710.955	322.56
711.36	320.21
711.765	341.28
712.17	317.87
712.575	341.28
712.98	912.37
713.385	355.32
713.789	317.87
714.194	301.49
714.599	299.15
715.003	238.3
715.408	296.81
715.812	324.9
716.217	289.79
716.621	399.79
717.025	355.32
717.429	348.3
717.833	320.21
718.238	301.49
718.642	371.71
719.046	348.3
719.449	289.79
719.853	388.09
720.257	257.02
720.661	273.4
721.065	308.51
721.468	264.04
721.872	303.83
722.275	350.64
722.679	364.68
723.082	348.3
723.485	275.74
723.889	355.32
724.292	355.32
724.695	338.94
725.098	374.05
725.501	331.92
725.904	348.3
726.307	371.71
726.71	317.87
727.113	362.34
727.516	327.24
727.918	378.73
728.321	371.71
728.724	352.98
729.126	292.13
729.529	362.34
729.931	289.79
730.333	367.03
730.736	254.68
731.138	299.15
731.54	334.26
731.942	338.94
732.344	378.73
732.746	341.28
733.148	399.79
733.55	320.21
733.952	285.11
734.354	345.96
734.756	275.74
735.157	329.58
735.559	383.41
735.96	345.96
736.362	329.58
736.763	355.32
737.165	303.83
737.566	310.85
737.967	404.47
738.368	360
738.77	329.58
739.171	350.64
739.572	364.68
739.973	285.11
740.374	327.24
740.774	331.92
741.175	336.6
741.576	296.81
741.977	299.15
742.377	226.59
742.778	294.47
743.178	301.49
743.579	264.04
743.979	282.77
744.379	294.47
744.78	271.06
745.18	350.64
745.58	360
745.98	289.79
746.38	313.19
746.78	278.08
747.18	313.19
747.58	303.83
747.98	329.58
748.38	317.87
748.779	367.03
749.179	308.51
749.578	308.51
749.978	402.13
750.377	320.21
750.777	355.32
751.176	306.17
751.575	287.45
751.975	352.98
752.374	313.19
752.773	367.03
753.172	292.13
753.571	362.34
753.97	357.66
754.369	285.11
754.768	322.56
755.166	397.45
755.565	343.62
755.964	327.24
756.362	350.64
756.761	345.96
757.159	299.15
757.558	310.85
757.956	315.53
758.354	425.54
758.753	324.9
759.151	352.98
759.549	266.38
759.947	301.49
760.345	317.87
760.743	367.03
761.141	296.81
761.539	280.43
761.936	364.68
762.334	324.9
762.732	360
763.129	376.39
763.527	381.07
763.924	310.85
764.322	334.26
764.719	280.43
765.117	350.64
765.514	301.49
765.911	285.11
766.308	367.03
766.705	273.4
767.102	355.32
