Data from Al_FLMS009871__490__14-36-45-830.txt Node

Date: Fri Mar 08 14:36:45 CST 2024
User: pe5414po
Spectrometer: FLMS00987
Trigger mode: 0
Integration Time (sec): 1.000000E-1
Scans to average: 1
Electric dark correction enabled: true
Nonlinearity correction enabled: false
Boxcar width: 0
XAxis mode: Wavelengths
Number of Pixels in Spectrum: 2048
>>>>>Begin Spectral Data<<<<<
188.938	-104.89
189.409	-104.89
189.879	-104.89
190.349	-123.61
190.819	-97.86
191.29	-139.99
191.76	-65.1
192.23	0.44
192.7	-83.82
193.17	-72.12
193.64	-51.05
194.109	-4.24
194.579	-32.33
195.049	-55.73
195.519	-29.99
195.988	16.82
196.458	73
196.927	44.91
197.397	126.83
197.866	103.42
198.336	168.96
198.805	192.36
199.274	122.15
199.744	171.3
200.213	234.49
200.682	215.77
201.151	180.66
201.62	225.13
202.089	232.15
202.558	201.72
203.027	234.49
203.495	218.11
203.964	285.98
204.433	257.9
204.902	307.05
205.37	285.98
205.839	293.01
206.307	302.37
206.776	260.24
207.244	328.11
207.712	274.28
208.181	297.69
208.649	325.77
209.117	337.48
209.585	271.94
210.053	227.47
210.521	285.98
210.989	234.49
211.457	290.67
211.925	309.39
212.393	335.14
212.861	307.05
213.328	271.94
213.796	285.98
214.264	328.11
214.731	295.35
215.199	351.52
215.666	262.58
216.133	241.51
216.601	285.98
217.068	339.82
217.535	302.37
218.003	262.58
218.47	271.94
218.937	250.88
219.404	246.2
219.871	194.7
220.338	276.62
220.805	295.35
221.271	206.41
221.738	274.28
222.205	304.71
222.671	288.32
223.138	307.05
223.605	262.58
224.071	330.45
224.538	241.51
225.004	314.07
225.47	253.22
225.937	243.85
226.403	236.83
226.869	300.03
227.335	274.28
227.801	295.35
228.267	257.9
228.733	274.28
229.199	332.79
229.665	283.64
230.131	307.05
230.597	302.37
231.062	232.15
231.528	269.6
231.994	288.32
232.459	346.84
232.925	250.88
233.39	239.17
233.856	276.62
234.321	257.9
234.786	271.94
235.252	295.35
235.717	255.56
236.182	316.41
236.647	335.14
237.112	271.94
237.577	321.09
238.042	260.24
238.507	220.45
238.972	300.03
239.436	290.67
239.901	269.6
240.366	229.81
240.83	278.96
241.295	267.26
241.76	243.85
242.224	285.98
242.688	307.05
243.153	328.11
243.617	236.83
244.081	285.98
244.545	255.56
245.01	229.81
245.474	262.58
245.938	278.96
246.402	307.05
246.866	302.37
247.33	264.92
247.793	295.35
248.257	290.67
248.721	239.17
249.185	302.37
249.648	278.96
250.112	311.73
250.575	267.26
251.039	297.69
251.502	227.47
251.965	257.9
252.429	311.73
252.892	246.2
253.355	300.03
253.818	288.32
254.281	311.73
254.744	339.82
255.207	288.32
255.67	267.26
256.133	276.62
256.596	264.92
257.059	283.64
257.522	314.07
257.984	274.28
258.447	395.99
258.909	222.79
259.372	204.07
259.834	288.32
260.297	353.86
260.759	316.41
261.221	243.85
261.684	262.58
262.146	243.85
262.608	351.52
263.07	328.11
263.532	239.17
263.994	257.9
264.456	328.11
264.918	311.73
265.38	328.11
265.842	269.6
266.303	344.5
266.765	276.62
267.227	325.77
267.688	356.2
268.15	300.03
268.611	300.03
269.072	302.37
269.534	267.26
269.995	229.81
270.456	234.49
270.918	271.94
271.379	269.6
271.84	288.32
272.301	363.22
272.762	332.79
273.223	281.3
273.684	248.54
274.144	318.75
274.605	281.3
275.066	325.77
275.527	323.43
275.987	335.14
276.448	314.07
276.908	285.98
277.369	328.11
277.829	316.41
278.289	276.62
278.75	363.22
279.21	358.54
279.67	360.88
280.13	370.24
280.59	311.73
281.05	323.43
281.51	283.64
281.97	316.41
282.43	278.96
282.89	274.28
283.35	353.86
283.809	293.01
284.269	295.35
284.729	318.75
285.188	311.73
285.648	332.79
286.107	297.69
286.567	293.01
287.026	253.22
287.485	278.96
287.944	358.54
288.404	290.67
288.863	307.05
289.322	314.07
289.781	290.67
290.24	302.37
290.699	337.48
291.158	309.39
291.616	278.96
292.075	295.35
292.534	311.73
292.992	374.92
293.451	271.94
293.91	267.26
294.368	278.96
294.827	297.69
295.285	262.58
295.743	318.75
296.202	288.32
296.66	290.67
297.118	314.07
297.576	225.13
298.034	262.58
298.492	309.39
298.95	309.39
299.408	288.32
299.866	328.11
300.324	257.9
300.781	295.35
301.239	328.11
301.697	323.43
302.154	267.26
302.612	339.82
303.069	307.05
303.527	323.43
303.984	344.5
304.441	344.5
304.899	335.14
305.356	267.26
305.813	363.22
306.27	300.03
306.727	243.85
307.184	285.98
307.641	288.32
308.098	281.3
308.555	304.71
309.012	281.3
309.468	335.14
309.925	300.03
310.382	323.43
310.838	302.37
311.295	318.75
311.751	262.58
312.208	253.22
312.664	293.01
313.12	255.56
313.577	300.03
314.033	342.16
314.489	271.94
314.945	283.64
315.401	293.01
315.857	374.92
316.313	307.05
316.769	304.71
317.225	274.28
317.681	260.24
318.136	318.75
318.592	300.03
319.048	335.14
319.503	353.86
319.959	351.52
320.414	323.43
320.869	285.98
321.325	262.58
321.78	276.62
322.235	311.73
322.691	227.47
323.146	321.09
323.601	300.03
324.056	278.96
324.511	349.18
324.966	330.45
325.421	335.14
325.875	300.03
326.33	332.79
326.785	241.51
327.24	264.92
327.694	309.39
328.149	276.62
328.603	311.73
329.058	346.84
329.512	344.5
329.966	314.07
330.421	358.54
330.875	311.73
331.329	267.26
331.783	253.22
332.237	335.14
332.691	349.18
333.145	269.6
333.599	321.09
334.053	351.52
334.507	318.75
334.96	386.63
335.414	300.03
335.868	311.73
336.321	307.05
336.775	318.75
337.228	293.01
337.682	295.35
338.135	293.01
338.588	290.67
339.042	374.92
339.495	367.9
339.948	325.77
340.401	349.18
340.854	304.71
341.307	290.67
341.76	293.01
342.213	304.71
342.666	344.5
343.119	278.96
343.571	351.52
344.024	288.32
344.477	288.32
344.929	300.03
345.382	304.71
345.834	367.9
346.287	267.26
346.739	309.39
347.191	262.58
347.644	302.37
348.096	283.64
348.548	283.64
349	342.16
349.452	328.11
349.904	363.22
350.356	330.45
350.808	335.14
351.26	307.05
351.711	281.3
352.163	271.94
352.615	288.32
353.066	332.79
353.518	262.58
353.969	318.75
354.421	281.3
354.872	267.26
355.324	302.37
355.775	239.17
356.226	239.17
356.677	323.43
357.128	302.37
357.579	297.69
358.03	330.45
358.481	283.64
358.932	288.32
359.383	349.18
359.834	370.24
360.285	325.77
360.735	353.86
361.186	365.56
361.637	349.18
362.087	316.41
362.538	290.67
362.988	267.26
363.438	290.67
363.889	344.5
364.339	304.71
364.789	360.88
365.239	358.54
365.689	342.16
366.139	384.29
366.589	307.05
367.039	316.41
367.489	293.01
367.939	335.14
368.389	328.11
368.839	328.11
369.288	243.85
369.738	307.05
370.187	290.67
370.637	304.71
371.086	276.62
371.536	314.07
371.985	318.75
372.434	337.48
372.884	325.77
373.333	288.32
373.782	372.58
374.231	271.94
374.68	323.43
375.129	285.98
375.578	300.03
376.027	314.07
376.475	323.43
376.924	358.54
377.373	321.09
377.822	281.3
378.27	288.32
378.719	330.45
379.167	344.5
379.616	335.14
380.064	346.84
380.512	323.43
380.961	321.09
381.409	257.9
381.857	351.52
382.305	407.69
382.753	349.18
383.201	363.22
383.649	344.5
384.097	278.96
384.545	274.28
384.992	330.45
385.44	346.84
385.888	318.75
386.335	318.75
386.783	321.09
387.231	297.69
387.678	295.35
388.125	360.88
388.573	300.03
389.02	288.32
389.467	290.67
389.914	330.45
390.362	302.37
390.809	276.62
391.256	314.07
391.703	309.39
392.15	316.41
392.596	353.86
393.043	311.73
393.49	339.82
393.937	304.71
394.383	351.52
394.83	360.88
395.276	269.6
395.723	377.27
396.169	339.82
396.616	302.37
397.062	297.69
397.508	285.98
397.954	335.14
398.401	307.05
398.847	339.82
399.293	342.16
399.739	349.18
400.185	304.71
400.631	323.43
401.076	363.22
401.522	264.92
401.968	311.73
402.414	321.09
402.859	321.09
403.305	267.26
403.75	330.45
404.196	297.69
404.641	381.95
405.086	283.64
405.532	344.5
405.977	307.05
406.422	323.43
406.867	304.71
407.312	344.5
407.757	285.98
408.202	290.67
408.647	278.96
409.092	377.27
409.537	314.07
409.982	391.31
410.426	281.3
410.871	360.88
411.316	250.88
411.76	335.14
412.205	323.43
412.649	328.11
413.093	335.14
413.538	309.39
413.982	351.52
414.426	367.9
414.87	290.67
415.314	309.39
415.758	300.03
416.202	288.32
416.646	330.45
417.09	356.2
417.534	374.92
417.978	370.24
418.421	309.39
418.865	288.32
419.309	314.07
419.752	318.75
420.196	386.63
420.639	337.48
421.083	309.39
421.526	325.77
421.969	300.03
422.412	335.14
422.856	300.03
423.299	360.88
423.742	332.79
424.185	351.52
424.628	337.48
425.071	304.71
425.513	293.01
425.956	381.95
426.399	311.73
426.842	318.75
427.284	297.69
427.727	335.14
428.169	328.11
428.612	344.5
429.054	318.75
429.497	365.56
429.939	295.35
430.381	314.07
430.823	374.92
431.265	304.71
431.707	318.75
432.149	288.32
432.591	325.77
433.033	398.33
433.475	349.18
433.917	257.9
434.359	295.35
434.8	374.92
435.242	316.41
435.684	335.14
436.125	297.69
436.567	311.73
437.008	281.3
437.449	332.79
437.891	234.49
438.332	346.84
438.773	344.5
439.214	318.75
439.656	321.09
440.097	314.07
440.538	290.67
440.978	337.48
441.419	295.35
441.86	353.86
442.301	264.92
442.742	332.79
443.182	351.52
443.623	349.18
444.063	318.75
444.504	330.45
444.944	311.73
445.385	349.18
445.825	297.69
446.265	304.71
446.706	297.69
447.146	339.82
447.586	330.45
448.026	337.48
448.466	283.64
448.906	300.03
449.346	321.09
449.786	302.37
450.225	318.75
450.665	246.2
451.105	290.67
451.544	391.31
451.984	293.01
452.424	300.03
452.863	321.09
453.302	356.2
453.742	285.98
454.181	316.41
454.62	309.39
455.059	264.92
455.499	229.81
455.938	250.88
456.377	295.35
456.816	332.79
457.254	250.88
457.693	316.41
458.132	346.84
458.571	264.92
459.01	311.73
459.448	309.39
459.887	365.56
460.325	290.67
460.764	377.27
461.202	335.14
461.641	328.11
462.079	346.84
462.517	295.35
462.955	274.28
463.393	360.88
463.832	267.26
464.27	309.39
464.708	288.32
465.145	274.28
465.583	278.96
466.021	288.32
466.459	300.03
466.897	337.48
467.334	330.45
467.772	257.9
468.209	304.71
468.647	314.07
469.084	290.67
469.522	302.37
469.959	246.2
470.396	264.92
470.833	325.77
471.271	384.29
471.708	311.73
472.145	349.18
472.582	283.64
473.019	370.24
473.456	318.75
473.892	349.18
474.329	302.37
474.766	297.69
475.202	344.5
475.639	337.48
476.076	293.01
476.512	335.14
476.949	323.43
477.385	295.35
477.821	351.52
478.258	335.14
478.694	314.07
479.13	278.96
479.566	307.05
480.002	386.63
480.438	304.71
480.874	349.18
481.31	271.94
481.746	323.43
482.181	311.73
482.617	353.86
483.053	339.82
483.488	328.11
483.924	278.96
484.36	307.05
484.795	295.35
485.23	367.9
485.666	342.16
486.101	412.37
486.536	351.52
486.971	381.95
487.407	339.82
487.842	377.27
488.277	318.75
488.712	367.9
489.146	290.67
489.581	316.41
490.016	339.82
490.451	276.62
490.885	349.18
491.32	346.84
491.755	412.37
492.189	307.05
492.624	278.96
493.058	349.18
493.492	318.75
493.927	304.71
494.361	295.35
494.795	304.71
495.229	358.54
495.663	295.35
496.097	335.14
496.531	358.54
496.965	293.01
497.399	297.69
497.833	288.32
498.266	328.11
498.7	330.45
499.134	297.69
499.567	328.11
500.001	370.24
500.434	257.9
500.868	330.45
501.301	332.79
501.734	304.71
502.168	381.95
502.601	293.01
503.034	297.69
503.467	367.9
503.9	297.69
504.333	314.07
504.766	297.69
505.199	393.65
505.632	311.73
506.064	300.03
506.497	316.41
506.93	290.67
507.362	304.71
507.795	311.73
508.227	370.24
508.66	309.39
509.092	337.48
509.524	344.5
509.956	349.18
510.389	349.18
510.821	290.67
511.253	337.48
511.685	379.61
512.117	325.77
512.549	283.64
512.981	342.16
513.412	342.16
513.844	302.37
514.276	276.62
514.707	297.69
515.139	307.05
515.571	353.86
516.002	363.22
516.433	274.28
516.865	267.26
517.296	304.71
517.727	360.88
518.159	304.71
518.59	349.18
519.021	321.09
519.452	330.45
519.883	330.45
520.314	335.14
520.744	302.37
521.175	307.05
521.606	278.96
522.037	246.2
522.467	262.58
522.898	321.09
523.328	281.3
523.759	328.11
524.189	283.64
524.62	323.43
525.05	330.45
525.48	337.48
525.91	295.35
526.341	349.18
526.771	358.54
527.201	353.86
527.631	318.75
528.061	297.69
528.49	288.32
528.92	325.77
529.35	328.11
529.78	314.07
530.209	365.56
530.639	332.79
531.068	271.94
531.498	253.22
531.927	307.05
532.357	285.98
532.786	283.64
533.215	309.39
533.644	271.94
534.074	323.43
534.503	349.18
534.932	367.9
535.361	309.39
535.79	374.92
536.218	302.37
536.647	311.73
537.076	377.27
537.505	332.79
537.933	365.56
538.362	307.05
538.79	297.69
539.219	293.01
539.647	316.41
540.076	351.52
540.504	304.71
540.932	300.03
541.36	330.45
541.788	304.71
542.217	339.82
542.645	400.67
543.073	267.26
543.5	278.96
543.928	283.64
544.356	283.64
544.784	398.33
545.211	321.09
545.639	318.75
546.067	293.01
546.494	302.37
546.922	325.77
547.349	321.09
547.776	351.52
548.204	358.54
548.631	321.09
549.058	290.67
549.485	274.28
549.912	307.05
550.339	316.41
550.766	307.05
551.193	346.84
551.62	330.45
552.047	342.16
552.474	328.11
552.9	295.35
553.327	342.16
553.754	316.41
554.18	302.37
554.607	328.11
555.033	311.73
555.459	325.77
555.886	300.03
556.312	260.24
556.738	328.11
557.164	335.14
557.59	342.16
558.016	318.75
558.442	314.07
558.868	346.84
559.294	295.35
559.72	316.41
560.145	295.35
560.571	391.31
560.997	342.16
561.422	321.09
561.848	337.48
562.273	250.88
562.699	318.75
563.124	278.96
563.549	381.95
563.974	304.71
564.4	304.71
564.825	323.43
565.25	318.75
565.675	314.07
566.1	307.05
566.525	260.24
566.95	311.73
567.374	309.39
567.799	349.18
568.224	220.45
568.648	285.98
569.073	311.73
569.497	360.88
569.922	302.37
570.346	358.54
570.771	316.41
571.195	325.77
571.619	302.37
572.043	293.01
572.467	307.05
572.891	346.84
573.315	332.79
573.739	311.73
574.163	302.37
574.587	379.61
575.011	300.03
575.435	293.01
575.858	297.69
576.282	278.96
576.705	325.77
577.129	314.07
577.552	288.32
577.976	388.97
578.399	318.75
578.822	309.39
579.245	344.5
579.669	365.56
580.092	246.2
580.515	304.71
580.938	337.48
581.361	370.24
581.784	328.11
582.206	395.99
582.629	297.69
583.052	332.79
583.474	358.54
583.897	346.84
584.32	321.09
584.742	374.92
585.165	311.73
585.587	307.05
586.009	257.9
586.431	246.2
586.854	328.11
587.276	302.37
587.698	304.71
588.12	353.86
588.542	255.56
588.964	318.75
589.386	330.45
589.807	339.82
590.229	281.3
590.651	363.22
591.073	351.52
591.494	339.82
591.916	302.37
592.337	342.16
592.759	290.67
593.18	353.86
593.601	260.24
594.022	349.18
594.444	339.82
594.865	332.79
595.286	304.71
595.707	318.75
596.128	316.41
596.549	297.69
596.97	335.14
597.39	288.32
597.811	309.39
598.232	351.52
598.652	360.88
599.073	309.39
599.494	328.11
599.914	342.16
600.334	363.22
600.755	349.18
601.175	388.97
601.595	374.92
602.015	274.28
602.436	295.35
602.856	424.08
603.276	293.01
603.696	332.79
604.115	377.27
604.535	278.96
604.955	274.28
605.375	311.73
605.794	293.01
606.214	316.41
606.634	262.58
607.053	297.69
607.473	395.99
607.892	302.37
608.311	365.56
608.731	285.98
609.15	346.84
609.569	288.32
609.988	302.37
610.407	421.74
610.826	325.77
611.245	374.92
611.664	346.84
612.083	311.73
612.501	281.3
612.92	309.39
613.339	234.49
613.757	342.16
614.176	325.77
614.594	328.11
615.013	370.24
615.431	304.71
615.85	377.27
616.268	332.79
616.686	276.62
617.104	302.37
617.522	335.14
617.94	269.6
618.358	330.45
618.776	363.22
619.194	335.14
619.612	271.94
620.03	300.03
620.447	293.01
620.865	318.75
621.282	342.16
621.7	337.48
622.117	262.58
622.535	339.82
622.952	276.62
623.369	316.41
623.787	309.39
624.204	300.03
624.621	274.28
625.038	293.01
625.455	393.65
625.872	300.03
626.289	318.75
626.706	274.28
627.123	321.09
627.539	309.39
627.956	328.11
628.373	300.03
628.789	349.18
629.206	391.31
629.622	332.79
630.038	356.2
630.455	314.07
630.871	311.73
631.287	337.48
631.703	381.95
632.12	323.43
632.536	316.41
632.952	349.18
633.368	220.45
633.783	332.79
634.199	321.09
634.615	290.67
635.031	246.2
635.446	339.82
635.862	321.09
636.277	377.27
636.693	318.75
637.108	302.37
637.524	293.01
637.939	293.01
638.354	241.51
638.77	304.71
639.185	302.37
639.6	339.82
640.015	316.41
640.43	365.56
640.845	283.64
641.259	316.41
641.674	278.96
642.089	351.52
642.504	300.03
642.918	321.09
643.333	337.48
643.747	379.61
644.162	344.5
644.576	262.58
644.991	255.56
645.405	309.39
645.819	311.73
646.233	290.67
646.647	346.84
647.061	358.54
647.475	323.43
647.889	269.6
648.303	356.2
648.717	257.9
649.131	302.37
649.545	302.37
649.958	318.75
650.372	440.46
650.785	269.6
651.199	288.32
651.612	316.41
652.026	323.43
652.439	342.16
652.852	360.88
653.266	276.62
653.679	290.67
654.092	335.14
654.505	335.14
654.918	236.83
655.331	302.37
655.744	309.39
656.156	309.39
656.569	257.9
656.982	325.77
657.394	358.54
657.807	356.2
658.22	285.98
658.632	302.37
659.044	220.45
659.457	302.37
659.869	257.9
660.281	316.41
660.693	288.32
661.106	293.01
661.518	321.09
661.93	293.01
662.342	328.11
662.754	323.43
663.165	349.18
663.577	302.37
663.989	349.18
664.401	332.79
664.812	316.41
665.224	302.37
665.635	353.86
666.047	325.77
666.458	302.37
666.869	342.16
667.281	293.01
667.692	337.48
668.103	295.35
668.514	325.77
668.925	353.86
669.336	321.09
669.747	295.35
670.158	335.14
670.569	323.43
670.979	342.16
671.39	330.45
671.801	325.77
672.211	318.75
672.622	339.82
673.032	335.14
673.443	307.05
673.853	295.35
674.263	309.39
674.674	311.73
675.084	262.58
675.494	356.2
675.904	349.18
676.314	295.35
676.724	264.92
677.134	309.39
677.544	388.97
677.953	316.41
678.363	353.86
678.773	321.09
679.182	243.85
679.592	363.22
680.001	337.48
680.411	304.71
680.82	283.64
681.23	267.26
681.639	309.39
682.048	281.3
682.457	260.24
682.866	325.77
683.275	288.32
683.684	295.35
684.093	295.35
684.502	253.22
684.911	318.75
685.32	323.43
685.728	358.54
686.137	302.37
686.546	300.03
686.954	304.71
687.363	316.41
687.771	307.05
688.179	344.5
688.588	356.2
688.996	330.45
689.404	351.52
689.812	351.52
690.22	332.79
690.628	304.71
691.036	339.82
691.444	255.56
691.852	278.96
692.26	278.96
692.667	349.18
693.075	246.2
693.483	363.22
693.89	304.71
694.298	290.67
694.705	330.45
695.112	349.18
695.52	332.79
695.927	325.77
696.334	342.16
696.741	307.05
697.148	321.09
697.555	250.88
697.962	342.16
698.369	311.73
698.776	276.62
699.183	316.41
699.59	290.67
699.996	381.95
700.403	278.96
700.81	377.27
701.216	323.43
701.623	393.65
702.029	314.07
702.435	328.11
702.842	344.5
703.248	264.92
703.654	285.98
704.06	316.41
704.466	276.62
704.872	342.16
705.278	307.05
705.684	367.9
706.09	295.35
706.496	321.09
706.901	311.73
707.307	243.85
707.712	255.56
708.118	339.82
708.523	339.82
708.929	302.37
709.334	309.39
709.74	330.45
710.145	367.9
710.55	344.5
710.955	316.41
711.36	332.79
711.765	307.05
712.17	344.5
712.575	323.43
712.98	936.65
713.385	232.15
713.789	374.92
714.194	290.67
714.599	344.5
715.003	281.3
715.408	304.71
715.812	281.3
716.217	267.26
716.621	346.84
717.025	309.39
717.429	293.01
717.833	281.3
718.238	349.18
718.642	346.84
719.046	253.22
719.449	278.96
719.853	276.62
720.257	316.41
720.661	271.94
721.065	300.03
721.468	365.56
721.872	307.05
722.275	328.11
722.679	276.62
723.082	309.39
723.485	300.03
723.889	346.84
724.292	248.54
724.695	372.58
725.098	323.43
725.501	267.26
725.904	318.75
726.307	307.05
726.71	300.03
727.113	330.45
727.516	321.09
727.918	328.11
728.321	342.16
728.724	304.71
729.126	288.32
729.529	335.14
729.931	304.71
730.333	344.5
730.736	316.41
731.138	215.77
731.54	285.98
731.942	325.77
732.344	346.84
732.746	332.79
733.148	332.79
733.55	307.05
733.952	276.62
734.354	328.11
734.756	335.14
735.157	311.73
735.559	360.88
735.96	311.73
736.362	342.16
736.763	300.03
737.165	288.32
737.566	325.77
737.967	307.05
738.368	330.45
738.77	309.39
739.171	393.65
739.572	374.92
739.973	388.97
740.374	321.09
740.774	356.2
741.175	290.67
741.576	290.67
741.977	367.9
742.377	316.41
742.778	253.22
743.178	285.98
743.579	328.11
743.979	335.14
744.379	314.07
744.78	285.98
745.18	335.14
745.58	304.71
745.98	304.71
746.38	283.64
746.78	269.6
747.18	342.16
747.58	344.5
747.98	353.86
748.38	367.9
748.779	360.88
749.179	311.73
749.578	309.39
749.978	295.35
750.377	321.09
750.777	330.45
751.176	269.6
751.575	300.03
751.975	353.86
752.374	288.32
752.773	335.14
753.172	356.2
753.571	370.24
753.97	328.11
754.369	365.56
754.768	337.48
755.166	379.61
755.565	264.92
755.964	346.84
756.362	332.79
756.761	290.67
757.159	316.41
757.558	349.18
757.956	351.52
758.354	367.9
758.753	290.67
759.151	346.84
759.549	311.73
759.947	386.63
760.345	311.73
760.743	351.52
761.141	309.39
761.539	269.6
761.936	344.5
762.334	367.9
762.732	335.14
763.129	318.75
763.527	257.9
763.924	407.69
764.322	302.37
