Data from Al_FLMS009871__1090__16-29-42-705.txt Node

Date: Fri Mar 08 16:29:42 CST 2024
User: pe5414po
Spectrometer: FLMS00987
Trigger mode: 0
Integration Time (sec): 1.000000E-1
Scans to average: 1
Electric dark correction enabled: true
Nonlinearity correction enabled: false
Boxcar width: 0
XAxis mode: Wavelengths
Number of Pixels in Spectrum: 2048
>>>>>Begin Spectral Data<<<<<
188.938	-95.96
189.409	-95.96
189.879	-95.96
190.349	-67.88
190.819	-84.26
191.29	-74.9
191.76	-117.03
192.23	-98.3
192.7	-84.26
193.17	-25.75
193.64	-53.83
194.109	-60.85
194.579	-37.45
195.049	-16.38
195.519	63.19
195.988	30.43
196.458	65.54
196.927	77.24
197.397	72.56
197.866	107.66
198.336	152.13
198.805	161.5
199.274	175.54
199.744	173.2
200.213	215.33
200.682	161.5
201.151	250.44
201.62	248.1
202.089	196.61
202.558	250.44
203.027	273.84
203.495	229.37
203.964	313.63
204.433	259.8
204.902	271.5
205.37	311.29
205.839	290.23
206.307	337.04
206.776	318.31
207.244	287.89
207.712	278.52
208.181	250.44
208.649	320.65
209.117	344.06
209.585	308.95
210.053	322.99
210.521	280.86
210.989	334.7
211.457	290.23
211.925	287.89
212.393	271.5
212.861	311.29
213.328	313.63
213.796	344.06
214.264	234.05
214.731	269.16
215.199	297.25
215.666	304.27
216.133	285.55
216.601	292.57
217.068	290.23
217.535	322.99
218.003	304.27
218.47	304.27
218.937	259.8
219.404	339.38
219.871	248.1
220.338	191.92
220.805	276.18
221.271	276.18
221.738	278.52
222.205	285.55
222.671	229.37
223.138	280.86
223.605	290.23
224.071	285.55
224.538	290.23
225.004	252.78
225.47	236.39
225.937	287.89
226.403	224.69
226.869	353.42
227.335	241.08
227.801	292.57
228.267	238.73
228.733	287.89
229.199	271.5
229.665	294.91
230.131	386.19
230.597	280.86
231.062	276.18
231.528	283.2
231.994	252.78
232.459	208.31
232.925	273.84
233.39	229.37
233.856	306.61
234.321	236.39
234.786	292.57
235.252	348.74
235.717	257.46
236.182	285.55
236.647	301.93
237.112	269.16
237.577	330.02
238.042	308.95
238.507	308.95
238.972	264.48
239.436	299.59
239.901	292.57
240.366	222.35
240.83	339.38
241.295	311.29
241.76	292.57
242.224	283.2
242.688	238.73
243.153	339.38
243.617	297.25
244.081	297.25
244.545	264.48
245.01	341.72
245.474	259.8
245.938	285.55
246.402	294.91
246.866	330.02
247.33	327.68
247.793	313.63
248.257	252.78
248.721	248.1
249.185	301.93
249.648	330.02
250.112	280.86
250.575	334.7
251.039	280.86
251.502	264.48
251.965	269.16
252.429	255.12
252.892	332.36
253.355	245.76
253.818	325.33
254.281	318.31
254.744	358.1
255.207	374.49
255.67	255.12
256.133	285.55
256.596	273.84
257.059	297.25
257.522	250.44
257.984	273.84
258.447	271.5
258.909	297.25
259.372	266.82
259.834	280.86
260.297	278.52
260.759	278.52
261.221	252.78
261.684	318.31
262.146	264.48
262.608	327.68
263.07	285.55
263.532	241.08
263.994	259.8
264.456	259.8
264.918	292.57
265.38	229.37
265.842	271.5
266.303	313.63
266.765	337.04
267.227	372.15
267.688	290.23
268.15	292.57
268.611	285.55
269.072	283.2
269.534	322.99
269.995	311.29
270.456	320.65
270.918	318.31
271.379	311.29
271.84	304.27
272.301	287.89
272.762	283.2
273.223	250.44
273.684	353.42
274.144	294.91
274.605	327.68
275.066	297.25
275.527	271.5
275.987	332.36
276.448	313.63
276.908	241.08
277.369	332.36
277.829	297.25
278.289	290.23
278.75	262.14
279.21	252.78
279.67	360.44
280.13	313.63
280.59	264.48
281.05	353.42
281.51	255.12
281.97	322.99
282.43	257.46
282.89	255.12
283.35	346.4
283.809	330.02
284.269	322.99
284.729	266.82
285.188	311.29
285.648	287.89
286.107	250.44
286.567	224.69
287.026	351.08
287.485	311.29
287.944	327.68
288.404	266.82
288.863	222.35
289.322	266.82
289.781	325.33
290.24	325.33
290.699	262.14
291.158	327.68
291.616	313.63
292.075	266.82
292.534	299.59
292.992	320.65
293.451	297.25
293.91	313.63
294.368	360.44
294.827	334.7
295.285	330.02
295.743	365.12
296.202	299.59
296.66	271.5
297.118	308.95
297.576	306.61
298.034	283.2
298.492	339.38
298.95	297.25
299.408	315.97
299.866	299.59
300.324	348.74
300.781	297.25
301.239	351.08
301.697	280.86
302.154	325.33
302.612	339.38
303.069	322.99
303.527	327.68
303.984	315.97
304.441	313.63
304.899	273.84
305.356	248.1
305.813	306.61
306.27	238.73
306.727	299.59
307.184	311.29
307.641	332.36
308.098	290.23
308.555	337.04
309.012	236.39
309.468	269.16
309.925	318.31
310.382	287.89
310.838	273.84
311.295	306.61
311.751	252.78
312.208	330.02
312.664	304.27
313.12	372.15
313.577	322.99
314.033	372.15
314.489	255.12
314.945	365.12
315.401	299.59
315.857	280.86
316.313	360.44
316.769	278.52
317.225	325.33
317.681	273.84
318.136	330.02
318.592	327.68
319.048	266.82
319.503	313.63
319.959	376.83
320.414	297.25
320.869	344.06
321.325	313.63
321.78	276.18
322.235	283.2
322.691	308.95
323.146	322.99
323.601	257.46
324.056	280.86
324.511	372.15
324.966	334.7
325.421	276.18
325.875	374.49
326.33	306.61
326.785	285.55
327.24	341.72
327.694	313.63
328.149	334.7
328.603	229.37
329.058	332.36
329.512	313.63
329.966	318.31
330.421	346.4
330.875	374.49
331.329	313.63
331.783	337.04
332.237	390.87
332.691	306.61
333.145	330.02
333.599	369.8
334.053	320.65
334.507	252.78
334.96	299.59
335.414	287.89
335.868	369.8
336.321	283.2
336.775	367.46
337.228	362.78
337.682	299.59
338.135	271.5
338.588	283.2
339.042	320.65
339.495	318.31
339.948	315.97
340.401	362.78
340.854	362.78
341.307	287.89
341.76	283.2
342.213	294.91
342.666	337.04
343.119	318.31
343.571	290.23
344.024	287.89
344.477	327.68
344.929	334.7
345.382	325.33
345.834	297.25
346.287	337.04
346.739	353.42
347.191	308.95
347.644	280.86
348.096	299.59
348.548	325.33
349	308.95
349.452	273.84
349.904	315.97
350.356	353.42
350.808	304.27
351.26	330.02
351.711	287.89
352.163	299.59
352.615	276.18
353.066	337.04
353.518	344.06
353.969	304.27
354.421	330.02
354.872	304.27
355.324	358.1
355.775	397.89
356.226	304.27
356.677	283.2
357.128	304.27
357.579	301.93
358.03	341.72
358.481	397.89
358.932	292.57
359.383	337.04
359.834	358.1
360.285	379.17
360.735	313.63
361.186	269.16
361.637	311.29
362.087	241.08
362.538	322.99
362.988	276.18
363.438	313.63
363.889	320.65
364.339	365.12
364.789	337.04
365.239	257.46
365.689	351.08
366.139	292.57
366.589	339.38
367.039	348.74
367.489	276.18
367.939	304.27
368.389	330.02
368.839	320.65
369.288	334.7
369.738	351.08
370.187	304.27
370.637	353.42
371.086	287.89
371.536	313.63
371.985	346.4
372.434	290.23
372.884	351.08
373.333	308.95
373.782	294.91
374.231	269.16
374.68	278.52
375.129	322.99
375.578	353.42
376.027	374.49
376.475	388.53
376.924	351.08
377.373	360.44
377.822	276.18
378.27	292.57
378.719	276.18
379.167	243.42
379.616	238.73
380.064	379.17
380.512	339.38
380.961	318.31
381.409	320.65
381.857	379.17
382.305	285.55
382.753	330.02
383.201	320.65
383.649	334.7
384.097	411.93
384.545	322.99
384.992	311.29
385.44	311.29
385.888	313.63
386.335	339.38
386.783	327.68
387.231	287.89
387.678	320.65
388.125	360.44
388.573	330.02
389.02	315.97
389.467	332.36
389.914	320.65
390.362	374.49
390.809	315.97
391.256	388.53
391.703	341.72
392.15	278.52
392.596	255.12
393.043	304.27
393.49	327.68
393.937	327.68
394.383	351.08
394.83	334.7
395.276	280.86
395.723	292.57
396.169	301.93
396.616	355.76
397.062	318.31
397.508	301.93
397.954	325.33
398.401	297.25
398.847	372.15
399.293	255.12
399.739	330.02
400.185	351.08
400.631	346.4
401.076	332.36
401.522	381.51
401.968	292.57
402.414	360.44
402.859	330.02
403.305	304.27
403.75	299.59
404.196	339.38
404.641	276.18
405.086	283.2
405.532	369.8
405.977	306.61
406.422	367.46
406.867	327.68
407.312	339.38
407.757	294.91
408.202	360.44
408.647	259.8
409.092	362.78
409.537	325.33
409.982	355.76
410.426	290.23
410.871	341.72
411.316	365.12
411.76	346.4
412.205	255.12
412.649	287.89
413.093	369.8
413.538	269.16
413.982	311.29
414.426	320.65
414.87	374.49
415.314	332.36
415.758	365.12
416.202	358.1
416.646	362.78
417.09	306.61
417.534	425.98
417.978	344.06
418.421	315.97
418.865	327.68
419.309	346.4
419.752	369.8
420.196	248.1
420.639	299.59
421.083	367.46
421.526	330.02
421.969	257.46
422.412	304.27
422.856	381.51
423.299	325.33
423.742	297.25
424.185	341.72
424.628	369.8
425.071	332.36
425.513	346.4
425.956	337.04
426.399	327.68
426.842	322.99
427.284	304.27
427.727	367.46
428.169	292.57
428.612	315.97
429.054	351.08
429.497	280.86
429.939	315.97
430.381	273.84
430.823	322.99
431.265	248.1
431.707	372.15
432.149	332.36
432.591	353.42
433.033	252.78
433.475	365.12
433.917	346.4
434.359	280.86
434.8	365.12
435.242	344.06
435.684	362.78
436.125	306.61
436.567	278.52
437.008	334.7
437.449	374.49
437.891	332.36
438.332	327.68
438.773	248.1
439.214	299.59
439.656	395.55
440.097	360.44
440.538	409.59
440.978	271.5
441.419	315.97
441.86	292.57
442.301	337.04
442.742	341.72
443.182	325.33
443.623	276.18
444.063	292.57
444.504	320.65
444.944	332.36
445.385	360.44
445.825	285.55
446.265	292.57
446.706	386.19
447.146	369.8
447.586	299.59
448.026	369.8
448.466	353.42
448.906	362.78
449.346	355.76
449.786	367.46
450.225	332.36
450.665	318.31
451.105	271.5
451.544	306.61
451.984	330.02
452.424	346.4
452.863	278.52
453.302	315.97
453.742	332.36
454.181	344.06
454.62	339.38
455.059	294.91
455.499	322.99
455.938	351.08
456.377	304.27
456.816	273.84
457.254	308.95
457.693	294.91
458.132	308.95
458.571	304.27
459.01	334.7
459.448	353.42
459.887	290.23
460.325	330.02
460.764	327.68
461.202	337.04
461.641	318.31
462.079	255.12
462.517	386.19
462.955	353.42
463.393	418.96
463.832	348.74
464.27	390.87
464.708	386.19
465.145	327.68
465.583	341.72
466.021	301.93
466.459	322.99
466.897	372.15
467.334	320.65
467.772	318.31
468.209	344.06
468.647	327.68
469.084	379.17
469.522	344.06
469.959	297.25
470.396	351.08
470.833	358.1
471.271	365.12
471.708	299.59
472.145	346.4
472.582	351.08
473.019	372.15
473.456	376.83
473.892	301.93
474.329	344.06
474.766	299.59
475.202	346.4
475.639	330.02
476.076	231.71
476.512	308.95
476.949	358.1
477.385	259.8
477.821	264.48
478.258	374.49
478.694	344.06
479.13	311.29
479.566	341.72
480.002	283.2
480.438	306.61
480.874	294.91
481.31	306.61
481.746	243.42
482.181	344.06
482.617	304.27
483.053	374.49
483.488	369.8
483.924	348.74
484.36	346.4
484.795	346.4
485.23	325.33
485.666	313.63
486.101	273.84
486.536	320.65
486.971	301.93
487.407	327.68
487.842	337.04
488.277	358.1
488.712	386.19
489.146	372.15
489.581	325.33
490.016	325.33
490.451	367.46
490.885	334.7
491.32	322.99
491.755	337.04
492.189	290.23
492.624	339.38
493.058	299.59
493.492	322.99
493.927	348.74
494.361	334.7
494.795	278.52
495.229	372.15
495.663	337.04
496.097	344.06
496.531	304.27
496.965	299.59
497.399	327.68
497.833	292.57
498.266	308.95
498.7	313.63
499.134	344.06
499.567	372.15
500.001	372.15
500.434	376.83
500.868	337.04
501.301	299.59
501.734	332.36
502.168	304.27
502.601	358.1
503.034	306.61
503.467	330.02
503.9	276.18
504.333	346.4
504.766	315.97
505.199	341.72
505.632	358.1
506.064	337.04
506.497	292.57
506.93	341.72
507.362	379.17
507.795	292.57
508.227	344.06
508.66	334.7
509.092	304.27
509.524	393.21
509.956	334.7
510.389	369.8
510.821	276.18
511.253	369.8
511.685	344.06
512.117	318.31
512.549	337.04
512.981	285.55
513.412	332.36
513.844	351.08
514.276	325.33
514.707	283.2
515.139	346.4
515.571	388.53
516.002	341.72
516.433	388.53
516.865	325.33
517.296	367.46
517.727	337.04
518.159	365.12
518.59	276.18
519.021	341.72
519.452	320.65
519.883	395.55
520.314	287.89
520.744	337.04
521.175	374.49
521.606	334.7
522.037	344.06
522.467	346.4
522.898	325.33
523.328	278.52
523.759	327.68
524.189	397.89
524.62	250.44
525.05	355.76
525.48	369.8
525.91	362.78
526.341	393.21
526.771	304.27
527.201	315.97
527.631	369.8
528.061	369.8
528.49	344.06
528.92	383.85
529.35	360.44
529.78	299.59
530.209	346.4
530.639	346.4
531.068	301.93
531.498	276.18
531.927	348.74
532.357	330.02
532.786	283.2
533.215	217.67
533.644	299.59
534.074	320.65
534.503	376.83
534.932	386.19
535.361	376.83
535.79	339.38
536.218	311.29
536.647	311.29
537.076	287.89
537.505	273.84
537.933	301.93
538.362	362.78
538.79	376.83
539.219	351.08
539.647	339.38
540.076	297.25
540.504	346.4
540.932	325.33
541.36	308.95
541.788	311.29
542.217	351.08
542.645	330.02
543.073	355.76
543.5	330.02
543.928	320.65
544.356	318.31
544.784	358.1
545.211	376.83
545.639	320.65
546.067	301.93
546.494	315.97
546.922	320.65
547.349	320.65
547.776	358.1
548.204	386.19
548.631	313.63
549.058	334.7
549.485	372.15
549.912	409.59
550.339	334.7
550.766	341.72
551.193	365.12
551.62	262.14
552.047	327.68
552.474	271.5
552.9	322.99
553.327	320.65
553.754	283.2
554.18	320.65
554.607	339.38
555.033	346.4
555.459	320.65
555.886	325.33
556.312	339.38
556.738	292.57
557.164	325.33
557.59	330.02
558.016	332.36
558.442	325.33
558.868	344.06
559.294	346.4
559.72	358.1
560.145	290.23
560.571	285.55
560.997	266.82
561.422	372.15
561.848	330.02
562.273	315.97
562.699	383.85
563.124	318.31
563.549	294.91
563.974	264.48
564.4	318.31
564.825	301.93
565.25	353.42
565.675	271.5
566.1	339.38
566.525	292.57
566.95	348.74
567.374	341.72
567.799	292.57
568.224	306.61
568.648	362.78
569.073	325.33
569.497	341.72
569.922	306.61
570.346	294.91
570.771	341.72
571.195	360.44
571.619	346.4
572.043	351.08
572.467	365.12
572.891	327.68
573.315	299.59
573.739	311.29
574.163	369.8
574.587	344.06
575.011	348.74
575.435	367.46
575.858	334.7
576.282	318.31
576.705	369.8
577.129	358.1
577.552	325.33
577.976	327.68
578.399	315.97
578.822	383.85
579.245	339.38
579.669	327.68
580.092	330.02
580.515	374.49
580.938	372.15
581.361	348.74
581.784	287.89
582.206	330.02
582.629	362.78
583.052	308.95
583.474	278.52
583.897	360.44
584.32	292.57
584.742	313.63
585.165	273.84
585.587	280.86
586.009	360.44
586.431	353.42
586.854	369.8
587.276	297.25
587.698	325.33
588.12	322.99
588.542	346.4
588.964	294.91
589.386	290.23
589.807	337.04
590.229	397.89
590.651	367.46
591.073	322.99
591.494	334.7
591.916	409.59
592.337	294.91
592.759	334.7
593.18	280.86
593.601	337.04
594.022	243.42
594.444	351.08
594.865	299.59
595.286	283.2
595.707	372.15
596.128	325.33
596.549	374.49
596.97	367.46
597.39	348.74
597.811	294.91
598.232	365.12
598.652	400.23
599.073	339.38
599.494	348.74
599.914	308.95
600.334	362.78
600.755	355.76
601.175	381.51
601.595	358.1
602.015	301.93
602.436	304.27
602.856	503.22
603.276	322.99
603.696	325.33
604.115	273.84
604.535	337.04
604.955	383.85
605.375	341.72
605.794	308.95
606.214	306.61
606.634	269.16
607.053	297.25
607.473	318.31
607.892	353.42
608.311	294.91
608.731	318.31
609.15	313.63
609.569	400.23
609.988	355.76
610.407	313.63
610.826	306.61
611.245	327.68
611.664	337.04
612.083	325.33
612.501	351.08
612.92	308.95
613.339	306.61
613.757	334.7
614.176	360.44
614.594	322.99
615.013	283.2
615.431	341.72
615.85	318.31
616.268	341.72
616.686	313.63
617.104	292.57
617.522	290.23
617.94	292.57
618.358	299.59
618.776	337.04
619.194	339.38
619.612	283.2
620.03	311.29
620.447	404.91
620.865	325.33
621.282	330.02
621.7	372.15
622.117	358.1
622.535	330.02
622.952	327.68
623.369	353.42
623.787	308.95
624.204	297.25
624.621	311.29
625.038	334.7
625.455	379.17
625.872	358.1
626.289	365.12
626.706	409.59
627.123	322.99
627.539	374.49
627.956	330.02
628.373	330.02
628.789	318.31
629.206	327.68
629.622	348.74
630.038	344.06
630.455	320.65
630.871	306.61
631.287	315.97
631.703	292.57
632.12	304.27
632.536	306.61
632.952	365.12
633.368	351.08
633.783	315.97
634.199	304.27
634.615	346.4
635.031	348.74
635.446	322.99
635.862	355.76
636.277	294.91
636.693	320.65
637.108	278.52
637.524	313.63
637.939	273.84
638.354	355.76
638.77	339.38
639.185	276.18
639.6	374.49
640.015	344.06
640.43	376.83
640.845	330.02
641.259	308.95
641.674	301.93
642.089	318.31
642.504	301.93
642.918	339.38
643.333	353.42
643.747	306.61
644.162	362.78
644.576	292.57
644.991	273.84
645.405	304.27
645.819	332.36
646.233	276.18
646.647	273.84
647.061	301.93
647.475	294.91
647.889	313.63
648.303	360.44
648.717	292.57
649.131	344.06
649.545	341.72
649.958	383.85
650.372	304.27
650.785	339.38
651.199	337.04
651.612	374.49
652.026	292.57
652.439	322.99
652.852	306.61
653.266	325.33
653.679	353.42
654.092	297.25
654.505	308.95
654.918	360.44
655.331	351.08
655.744	341.72
656.156	276.18
656.569	358.1
656.982	313.63
657.394	304.27
657.807	285.55
658.22	374.49
658.632	320.65
659.044	327.68
659.457	327.68
659.869	332.36
660.281	348.74
660.693	344.06
661.106	301.93
661.518	297.25
661.93	341.72
662.342	325.33
662.754	308.95
663.165	339.38
663.577	285.55
663.989	308.95
664.401	318.31
664.812	325.33
665.224	264.48
665.635	304.27
666.047	367.46
666.458	311.29
666.869	313.63
667.281	325.33
667.692	360.44
668.103	297.25
668.514	283.2
668.925	332.36
669.336	346.4
669.747	351.08
670.158	304.27
670.569	372.15
670.979	383.85
671.39	297.25
671.801	397.89
672.211	369.8
672.622	365.12
673.032	320.65
673.443	290.23
673.853	374.49
674.263	290.23
674.674	334.7
675.084	334.7
675.494	348.74
675.904	320.65
676.314	353.42
676.724	304.27
677.134	402.57
677.544	381.51
677.953	404.91
678.363	322.99
678.773	435.34
679.182	358.1
679.592	304.27
680.001	241.08
680.411	308.95
680.82	327.68
681.23	325.33
681.639	294.91
682.048	332.36
682.457	381.51
682.866	292.57
683.275	318.31
683.684	304.27
684.093	294.91
684.502	299.59
684.911	353.42
685.32	320.65
685.728	285.55
686.137	383.85
686.546	358.1
686.954	313.63
687.363	372.15
687.771	308.95
688.179	320.65
688.588	358.1
688.996	262.14
689.404	393.21
689.812	278.52
690.22	273.84
690.628	297.25
691.036	372.15
691.444	330.02
691.852	332.36
692.26	344.06
692.667	327.68
693.075	351.08
693.483	339.38
693.89	318.31
694.298	341.72
694.705	344.06
695.112	266.82
695.52	376.83
695.927	348.74
696.334	360.44
696.741	337.04
697.148	369.8
697.555	315.97
697.962	376.83
698.369	337.04
698.776	353.42
699.183	337.04
699.59	313.63
699.996	386.19
700.403	330.02
700.81	383.85
701.216	339.38
701.623	374.49
702.029	358.1
702.435	306.61
702.842	330.02
703.248	367.46
703.654	306.61
704.06	353.42
704.466	285.55
704.872	287.89
705.278	348.74
705.684	355.76
706.09	294.91
706.496	262.14
706.901	290.23
707.307	325.33
707.712	292.57
708.118	346.4
708.523	353.42
708.929	306.61
709.334	243.42
709.74	372.15
710.145	367.46
710.55	383.85
710.955	280.86
711.36	297.25
711.765	337.04
712.17	330.02
712.575	386.19
712.98	896.43
713.385	351.08
713.789	273.84
714.194	297.25
714.599	325.33
715.003	299.59
715.408	337.04
715.812	348.74
716.217	308.95
716.621	290.23
717.025	386.19
717.429	330.02
717.833	372.15
718.238	273.84
718.642	433
719.046	353.42
719.449	358.1
719.853	304.27
720.257	325.33
720.661	320.65
721.065	337.04
721.468	315.97
721.872	294.91
722.275	285.55
722.679	330.02
723.082	255.12
723.485	346.4
723.889	280.86
724.292	351.08
724.695	362.78
725.098	330.02
725.501	339.38
725.904	376.83
726.307	365.12
726.71	257.46
727.113	330.02
727.516	414.27
727.918	358.1
728.321	367.46
728.724	304.27
729.126	367.46
729.529	320.65
729.931	344.06
730.333	301.93
730.736	341.72
731.138	306.61
731.54	278.52
731.942	313.63
732.344	353.42
732.746	383.85
733.148	341.72
733.55	341.72
733.952	327.68
734.354	313.63
734.756	334.7
735.157	280.86
735.559	313.63
735.96	330.02
736.362	327.68
736.763	322.99
737.165	404.91
737.566	341.72
737.967	283.2
738.368	320.65
738.77	327.68
739.171	386.19
739.572	294.91
739.973	348.74
740.374	278.52
740.774	348.74
741.175	301.93
741.576	360.44
741.977	301.93
742.377	337.04
742.778	311.29
743.178	358.1
743.579	318.31
743.979	330.02
744.379	292.57
744.78	325.33
745.18	339.38
745.58	330.02
745.98	320.65
746.38	381.51
746.78	388.53
747.18	376.83
747.58	334.7
747.98	348.74
748.38	341.72
748.779	327.68
749.179	297.25
749.578	341.72
749.978	339.38
750.377	318.31
750.777	339.38
751.176	346.4
751.575	369.8
751.975	283.2
752.374	330.02
752.773	348.74
753.172	301.93
753.571	341.72
753.97	273.84
754.369	320.65
754.768	315.97
755.166	297.25
755.565	257.46
755.964	348.74
756.362	292.57
756.761	285.55
757.159	238.73
757.558	322.99
757.956	297.25
758.354	348.74
758.753	308.95
759.151	304.27
759.549	313.63
759.947	299.59
760.345	344.06
760.743	339.38
761.141	280.86
761.539	360.44
761.936	283.2
762.334	369.8
762.732	320.65
763.129	301.93
763.527	346.4
763.924	362.78
764.322	266.82
764.719	315.97
765.117	306.61
765.514	227.03
