Data from Al_FLMS009871__1099__16-29-43-605.txt Node

Date: Fri Mar 08 16:29:43 CST 2024
User: pe5414po
Spectrometer: FLMS00987
Trigger mode: 0
Integration Time (sec): 1.000000E-1
Scans to average: 1
Electric dark correction enabled: true
Nonlinearity correction enabled: false
Boxcar width: 0
XAxis mode: Wavelengths
Number of Pixels in Spectrum: 2048
>>>>>Begin Spectral Data<<<<<
188.938	-159.16
189.409	-159.16
189.879	-159.16
190.349	-133.41
190.819	-86.6
191.29	-131.07
191.76	-88.94
192.23	-95.96
192.7	-2.34
193.17	-86.6
193.64	4.68
194.109	-53.83
194.579	7.02
195.049	-2.34
195.519	16.38
195.988	-2.34
196.458	42.13
196.927	119.37
197.397	86.6
197.866	81.92
198.336	105.32
198.805	156.82
199.274	203.63
199.744	187.24
200.213	156.82
200.682	205.97
201.151	161.5
201.62	198.95
202.089	201.29
202.558	156.82
203.027	280.86
203.495	294.91
203.964	201.29
204.433	292.57
204.902	231.71
205.37	248.1
205.839	273.84
206.307	269.16
206.776	266.82
207.244	250.44
207.712	311.29
208.181	294.91
208.649	255.12
209.117	320.65
209.585	287.89
210.053	257.46
210.521	297.25
210.989	271.5
211.457	276.18
211.925	255.12
212.393	227.03
212.861	273.84
213.328	229.37
213.796	278.52
214.264	276.18
214.731	285.55
215.199	285.55
215.666	297.25
216.133	278.52
216.601	259.8
217.068	241.08
217.535	273.84
218.003	255.12
218.47	250.44
218.937	255.12
219.404	269.16
219.871	266.82
220.338	224.69
220.805	245.76
221.271	187.24
221.738	175.54
222.205	198.95
222.671	220.01
223.138	234.05
223.605	271.5
224.071	301.93
224.538	299.59
225.004	231.71
225.47	220.01
225.937	276.18
226.403	276.18
226.869	220.01
227.335	297.25
227.801	273.84
228.267	301.93
228.733	315.97
229.199	241.08
229.665	255.12
230.131	266.82
230.597	285.55
231.062	236.39
231.528	301.93
231.994	234.05
232.459	231.71
232.925	255.12
233.39	243.42
233.856	266.82
234.321	299.59
234.786	269.16
235.252	271.5
235.717	280.86
236.182	283.2
236.647	313.63
237.112	297.25
237.577	294.91
238.042	243.42
238.507	177.88
238.972	259.8
239.436	236.39
239.901	250.44
240.366	266.82
240.83	201.29
241.295	278.52
241.76	290.23
242.224	208.31
242.688	227.03
243.153	259.8
243.617	203.63
244.081	276.18
244.545	276.18
245.01	243.42
245.474	264.48
245.938	222.35
246.402	320.65
246.866	245.76
247.33	262.14
247.793	271.5
248.257	292.57
248.721	280.86
249.185	257.46
249.648	229.37
250.112	234.05
250.575	248.1
251.039	234.05
251.502	278.52
251.965	330.02
252.429	271.5
252.892	292.57
253.355	299.59
253.818	273.84
254.281	318.31
254.744	294.91
255.207	280.86
255.67	234.05
256.133	285.55
256.596	229.37
257.059	269.16
257.522	271.5
257.984	201.29
258.447	194.26
258.909	269.16
259.372	283.2
259.834	187.24
260.297	278.52
260.759	241.08
261.221	320.65
261.684	215.33
262.146	262.14
262.608	241.08
263.07	264.48
263.532	276.18
263.994	257.46
264.456	257.46
264.918	227.03
265.38	257.46
265.842	269.16
266.303	278.52
266.765	255.12
267.227	187.24
267.688	217.67
268.15	325.33
268.611	231.71
269.072	290.23
269.534	262.14
269.995	271.5
270.456	278.52
270.918	264.48
271.379	294.91
271.84	205.97
272.301	318.31
272.762	301.93
273.223	285.55
273.684	311.29
274.144	304.27
274.605	262.14
275.066	290.23
275.527	175.54
275.987	210.65
276.448	301.93
276.908	280.86
277.369	252.78
277.829	301.93
278.289	198.95
278.75	299.59
279.21	313.63
279.67	187.24
280.13	224.69
280.59	299.59
281.05	304.27
281.51	236.39
281.97	271.5
282.43	285.55
282.89	280.86
283.35	320.65
283.809	276.18
284.269	280.86
284.729	273.84
285.188	294.91
285.648	285.55
286.107	273.84
286.567	313.63
287.026	224.69
287.485	283.2
287.944	315.97
288.404	229.37
288.863	231.71
289.322	280.86
289.781	248.1
290.24	287.89
290.699	292.57
291.158	227.03
291.616	285.55
292.075	241.08
292.534	306.61
292.992	276.18
293.451	294.91
293.91	269.16
294.368	325.33
294.827	259.8
295.285	259.8
295.743	236.39
296.202	241.08
296.66	278.52
297.118	311.29
297.576	297.25
298.034	248.1
298.492	208.31
298.95	301.93
299.408	252.78
299.866	306.61
300.324	222.35
300.781	294.91
301.239	299.59
301.697	276.18
302.154	255.12
302.612	264.48
303.069	231.71
303.527	266.82
303.984	278.52
304.441	257.46
304.899	248.1
305.356	315.97
305.813	301.93
306.27	353.42
306.727	269.16
307.184	306.61
307.641	306.61
308.098	276.18
308.555	353.42
309.012	320.65
309.468	301.93
309.925	273.84
310.382	311.29
310.838	292.57
311.295	355.76
311.751	257.46
312.208	327.68
312.664	304.27
313.12	285.55
313.577	308.95
314.033	301.93
314.489	294.91
314.945	334.7
315.401	269.16
315.857	271.5
316.313	304.27
316.769	287.89
317.225	330.02
317.681	344.06
318.136	332.36
318.592	241.08
319.048	283.2
319.503	327.68
319.959	255.12
320.414	269.16
320.869	306.61
321.325	304.27
321.78	327.68
322.235	304.27
322.691	264.48
323.146	278.52
323.601	287.89
324.056	299.59
324.511	287.89
324.966	346.4
325.421	292.57
325.875	283.2
326.33	238.73
326.785	203.63
327.24	257.46
327.694	313.63
328.149	210.65
328.603	292.57
329.058	367.46
329.512	283.2
329.966	255.12
330.421	330.02
330.875	318.31
331.329	327.68
331.783	318.31
332.237	313.63
332.691	262.14
333.145	290.23
333.599	294.91
334.053	257.46
334.507	334.7
334.96	355.76
335.414	341.72
335.868	292.57
336.321	320.65
336.775	227.03
337.228	355.76
337.682	297.25
338.135	304.27
338.588	318.31
339.042	337.04
339.495	252.78
339.948	315.97
340.401	287.89
340.854	238.73
341.307	257.46
341.76	285.55
342.213	292.57
342.666	269.16
343.119	278.52
343.571	381.51
344.024	283.2
344.477	252.78
344.929	292.57
345.382	278.52
345.834	273.84
346.287	285.55
346.739	262.14
347.191	285.55
347.644	264.48
348.096	280.86
348.548	297.25
349	299.59
349.452	264.48
349.904	280.86
350.356	243.42
350.808	283.2
351.26	294.91
351.711	248.1
352.163	299.59
352.615	322.99
353.066	304.27
353.518	292.57
353.969	264.48
354.421	271.5
354.872	330.02
355.324	320.65
355.775	322.99
356.226	252.78
356.677	337.04
357.128	299.59
357.579	271.5
358.03	250.44
358.481	341.72
358.932	276.18
359.383	304.27
359.834	262.14
360.285	212.99
360.735	306.61
361.186	264.48
361.637	264.48
362.087	351.08
362.538	390.87
362.988	344.06
363.438	276.18
363.889	271.5
364.339	292.57
364.789	269.16
365.239	372.15
365.689	311.29
366.139	276.18
366.589	322.99
367.039	301.93
367.489	306.61
367.939	327.68
368.389	348.74
368.839	283.2
369.288	276.18
369.738	311.29
370.187	266.82
370.637	294.91
371.086	285.55
371.536	330.02
371.985	257.46
372.434	273.84
372.884	330.02
373.333	344.06
373.782	271.5
374.231	358.1
374.68	276.18
375.129	280.86
375.578	259.8
376.027	341.72
376.475	294.91
376.924	306.61
377.373	285.55
377.822	217.67
378.27	297.25
378.719	339.38
379.167	292.57
379.616	297.25
380.064	280.86
380.512	259.8
380.961	290.23
381.409	337.04
381.857	297.25
382.305	337.04
382.753	315.97
383.201	285.55
383.649	341.72
384.097	344.06
384.545	238.73
384.992	315.97
385.44	348.74
385.888	259.8
386.335	273.84
386.783	306.61
387.231	306.61
387.678	346.4
388.125	241.08
388.573	327.68
389.02	250.44
389.467	278.52
389.914	304.27
390.362	330.02
390.809	262.14
391.256	269.16
391.703	278.52
392.15	315.97
392.596	252.78
393.043	294.91
393.49	292.57
393.937	287.89
394.383	325.33
394.83	304.27
395.276	283.2
395.723	313.63
396.169	330.02
396.616	320.65
397.062	297.25
397.508	238.73
397.954	344.06
398.401	299.59
398.847	308.95
399.293	325.33
399.739	330.02
400.185	348.74
400.631	308.95
401.076	276.18
401.522	348.74
401.968	243.42
402.414	252.78
402.859	220.01
403.305	311.29
403.75	290.23
404.196	322.99
404.641	243.42
405.086	283.2
405.532	248.1
405.977	299.59
406.422	287.89
406.867	294.91
407.312	318.31
407.757	330.02
408.202	308.95
408.647	264.48
409.092	297.25
409.537	266.82
409.982	360.44
410.426	327.68
410.871	280.86
411.316	334.7
411.76	315.97
412.205	311.29
412.649	280.86
413.093	276.18
413.538	297.25
413.982	269.16
414.426	294.91
414.87	248.1
415.314	269.16
415.758	287.89
416.202	264.48
416.646	306.61
417.09	297.25
417.534	330.02
417.978	311.29
418.421	332.36
418.865	311.29
419.309	348.74
419.752	290.23
420.196	299.59
420.639	339.38
421.083	238.73
421.526	327.68
421.969	351.08
422.412	290.23
422.856	304.27
423.299	301.93
423.742	299.59
424.185	269.16
424.628	294.91
425.071	269.16
425.513	294.91
425.956	299.59
426.399	353.42
426.842	325.33
427.284	306.61
427.727	273.84
428.169	276.18
428.612	315.97
429.054	297.25
429.497	255.12
429.939	304.27
430.381	269.16
430.823	311.29
431.265	315.97
431.707	346.4
432.149	358.1
432.591	339.38
433.033	299.59
433.475	278.52
433.917	322.99
434.359	271.5
434.8	327.68
435.242	313.63
435.684	255.12
436.125	306.61
436.567	304.27
437.008	327.68
437.449	301.93
437.891	332.36
438.332	325.33
438.773	292.57
439.214	280.86
439.656	294.91
440.097	306.61
440.538	259.8
440.978	276.18
441.419	337.04
441.86	306.61
442.301	320.65
442.742	287.89
443.182	367.46
443.623	337.04
444.063	334.7
444.504	299.59
444.944	259.8
445.385	341.72
445.825	271.5
446.265	278.52
446.706	266.82
447.146	311.29
447.586	315.97
448.026	308.95
448.466	353.42
448.906	283.2
449.346	379.17
449.786	292.57
450.225	234.05
450.665	250.44
451.105	243.42
451.544	353.42
451.984	308.95
452.424	308.95
452.863	301.93
453.302	294.91
453.742	287.89
454.181	266.82
454.62	262.14
455.059	276.18
455.499	287.89
455.938	297.25
456.377	325.33
456.816	332.36
457.254	278.52
457.693	283.2
458.132	311.29
458.571	311.29
459.01	339.38
459.448	339.38
459.887	294.91
460.325	304.27
460.764	313.63
461.202	327.68
461.641	280.86
462.079	306.61
462.517	273.84
462.955	404.91
463.393	280.86
463.832	280.86
464.27	320.65
464.708	351.08
465.145	238.73
465.583	290.23
466.021	304.27
466.459	238.73
466.897	362.78
467.334	320.65
467.772	290.23
468.209	255.12
468.647	259.8
469.084	231.71
469.522	308.95
469.959	308.95
470.396	271.5
470.833	330.02
471.271	311.29
471.708	304.27
472.145	266.82
472.582	332.36
473.019	271.5
473.456	294.91
473.892	269.16
474.329	301.93
474.766	386.19
475.202	351.08
475.639	269.16
476.076	278.52
476.512	224.69
476.949	262.14
477.385	273.84
477.821	292.57
478.258	227.03
478.694	374.49
479.13	229.37
479.566	327.68
480.002	308.95
480.438	257.46
480.874	285.55
481.31	311.29
481.746	271.5
482.181	252.78
482.617	283.2
483.053	297.25
483.488	313.63
483.924	313.63
484.36	252.78
484.795	322.99
485.23	395.55
485.666	236.39
486.101	330.02
486.536	290.23
486.971	320.65
487.407	285.55
487.842	313.63
488.277	313.63
488.712	290.23
489.146	294.91
489.581	250.44
490.016	297.25
490.451	245.76
490.885	238.73
491.32	245.76
491.755	245.76
492.189	334.7
492.624	318.31
493.058	311.29
493.492	271.5
493.927	346.4
494.361	306.61
494.795	271.5
495.229	294.91
495.663	318.31
496.097	351.08
496.531	325.33
496.965	327.68
497.399	236.39
497.833	280.86
498.266	273.84
498.7	297.25
499.134	379.17
499.567	374.49
500.001	252.78
500.434	351.08
500.868	339.38
501.301	306.61
501.734	285.55
502.168	266.82
502.601	287.89
503.034	290.23
503.467	344.06
503.9	273.84
504.333	297.25
504.766	358.1
505.199	299.59
505.632	320.65
506.064	341.72
506.497	325.33
506.93	299.59
507.362	308.95
507.795	248.1
508.227	283.2
508.66	301.93
509.092	332.36
509.524	290.23
509.956	315.97
510.389	248.1
510.821	318.31
511.253	325.33
511.685	271.5
512.117	334.7
512.549	255.12
512.981	285.55
513.412	301.93
513.844	299.59
514.276	283.2
514.707	285.55
515.139	301.93
515.571	337.04
516.002	346.4
516.433	294.91
516.865	255.12
517.296	276.18
517.727	313.63
518.159	266.82
518.59	287.89
519.021	257.46
519.452	227.03
519.883	315.97
520.314	353.42
520.744	297.25
521.175	292.57
521.606	327.68
522.037	320.65
522.467	301.93
522.898	311.29
523.328	294.91
523.759	337.04
524.189	308.95
524.62	266.82
525.05	294.91
525.48	255.12
525.91	308.95
526.341	322.99
526.771	292.57
527.201	325.33
527.631	318.31
528.061	332.36
528.49	287.89
528.92	355.76
529.35	278.52
529.78	266.82
530.209	320.65
530.639	330.02
531.068	280.86
531.498	348.74
531.927	259.8
532.357	285.55
532.786	374.49
533.215	276.18
533.644	294.91
534.074	278.52
534.503	292.57
534.932	257.46
535.361	311.29
535.79	362.78
536.218	306.61
536.647	290.23
537.076	273.84
537.505	262.14
537.933	362.78
538.362	325.33
538.79	313.63
539.219	285.55
539.647	313.63
540.076	311.29
540.504	301.93
540.932	315.97
541.36	320.65
541.788	330.02
542.217	304.27
542.645	313.63
543.073	334.7
543.5	355.76
543.928	290.23
544.356	250.44
544.784	320.65
545.211	292.57
545.639	294.91
546.067	332.36
546.494	301.93
546.922	337.04
547.349	271.5
547.776	320.65
548.204	264.48
548.631	229.37
549.058	294.91
549.485	299.59
549.912	243.42
550.339	304.27
550.766	287.89
551.193	297.25
551.62	332.36
552.047	252.78
552.474	255.12
552.9	311.29
553.327	348.74
553.754	297.25
554.18	276.18
554.607	313.63
555.033	332.36
555.459	262.14
555.886	334.7
556.312	320.65
556.738	348.74
557.164	287.89
557.59	294.91
558.016	320.65
558.442	308.95
558.868	294.91
559.294	358.1
559.72	297.25
560.145	243.42
560.571	318.31
560.997	231.71
561.422	280.86
561.848	301.93
562.273	262.14
562.699	285.55
563.124	311.29
563.549	308.95
563.974	252.78
564.4	294.91
564.825	320.65
565.25	304.27
565.675	327.68
566.1	294.91
566.525	278.52
566.95	262.14
567.374	250.44
567.799	299.59
568.224	334.7
568.648	269.16
569.073	308.95
569.497	236.39
569.922	266.82
570.346	334.7
570.771	306.61
571.195	294.91
571.619	299.59
572.043	292.57
572.467	194.26
572.891	306.61
573.315	283.2
573.739	308.95
574.163	313.63
574.587	255.12
575.011	283.2
575.435	308.95
575.858	266.82
576.282	278.52
576.705	238.73
577.129	280.86
577.552	243.42
577.976	241.08
578.399	278.52
578.822	348.74
579.245	388.53
579.669	318.31
580.092	227.03
580.515	325.33
580.938	234.05
581.361	273.84
581.784	294.91
582.206	337.04
582.629	306.61
583.052	262.14
583.474	360.44
583.897	278.52
584.32	304.27
584.742	301.93
585.165	308.95
585.587	348.74
586.009	292.57
586.431	358.1
586.854	318.31
587.276	304.27
587.698	327.68
588.12	285.55
588.542	294.91
588.964	299.59
589.386	278.52
589.807	294.91
590.229	325.33
590.651	250.44
591.073	294.91
591.494	297.25
591.916	245.76
592.337	311.29
592.759	330.02
593.18	278.52
593.601	255.12
594.022	262.14
594.444	346.4
594.865	224.69
595.286	278.52
595.707	351.08
596.128	341.72
596.549	308.95
596.97	416.62
597.39	320.65
597.811	278.52
598.232	325.33
598.652	294.91
599.073	287.89
599.494	299.59
599.914	306.61
600.334	250.44
600.755	334.7
601.175	245.76
601.595	355.76
602.015	339.38
602.436	292.57
602.856	372.15
603.276	313.63
603.696	262.14
604.115	304.27
604.535	318.31
604.955	301.93
605.375	283.2
605.794	290.23
606.214	278.52
606.634	224.69
607.053	308.95
607.473	294.91
607.892	262.14
608.311	325.33
608.731	393.21
609.15	285.55
609.569	390.87
609.988	346.4
610.407	273.84
610.826	337.04
611.245	273.84
611.664	315.97
612.083	318.31
612.501	308.95
612.92	304.27
613.339	332.36
613.757	283.2
614.176	266.82
614.594	271.5
615.013	315.97
615.431	330.02
615.85	285.55
616.268	287.89
616.686	341.72
617.104	315.97
617.522	308.95
617.94	348.74
618.358	264.48
618.776	278.52
619.194	259.8
619.612	243.42
620.03	262.14
620.447	351.08
620.865	217.67
621.282	297.25
621.7	313.63
622.117	294.91
622.535	301.93
622.952	266.82
623.369	306.61
623.787	320.65
624.204	301.93
624.621	290.23
625.038	292.57
625.455	372.15
625.872	290.23
626.289	294.91
626.706	318.31
627.123	252.78
627.539	227.03
627.956	280.86
628.373	320.65
628.789	294.91
629.206	308.95
629.622	276.18
630.038	341.72
630.455	290.23
630.871	269.16
631.287	271.5
631.703	283.2
632.12	381.51
632.536	332.36
632.952	306.61
633.368	290.23
633.783	308.95
634.199	334.7
634.615	283.2
635.031	353.42
635.446	299.59
635.862	299.59
636.277	353.42
636.693	262.14
637.108	315.97
637.524	276.18
637.939	346.4
638.354	278.52
638.77	234.05
639.185	334.7
639.6	306.61
640.015	276.18
640.43	320.65
640.845	285.55
641.259	334.7
641.674	339.38
642.089	301.93
642.504	308.95
642.918	273.84
643.333	306.61
643.747	322.99
644.162	290.23
644.576	280.86
644.991	266.82
645.405	259.8
645.819	325.33
646.233	271.5
646.647	351.08
647.061	297.25
647.475	259.8
647.889	292.57
648.303	327.68
648.717	344.06
649.131	311.29
649.545	386.19
649.958	266.82
650.372	369.8
650.785	325.33
651.199	299.59
651.612	299.59
652.026	297.25
652.439	208.31
652.852	273.84
653.266	257.46
653.679	234.05
654.092	287.89
654.505	252.78
654.918	318.31
655.331	292.57
655.744	322.99
656.156	334.7
656.569	337.04
656.982	280.86
657.394	308.95
657.807	306.61
658.22	334.7
658.632	313.63
659.044	313.63
659.457	299.59
659.869	339.38
660.281	273.84
660.693	301.93
661.106	325.33
661.518	266.82
661.93	266.82
662.342	294.91
662.754	285.55
663.165	264.48
663.577	255.12
663.989	222.35
664.401	320.65
664.812	320.65
665.224	327.68
665.635	313.63
666.047	339.38
666.458	318.31
666.869	355.76
667.281	318.31
667.692	273.84
668.103	285.55
668.514	271.5
668.925	355.76
669.336	337.04
669.747	313.63
670.158	283.2
670.569	346.4
670.979	290.23
671.39	229.37
671.801	297.25
672.211	280.86
672.622	280.86
673.032	294.91
673.443	287.89
673.853	297.25
674.263	355.76
674.674	355.76
675.084	278.52
675.494	306.61
675.904	311.29
676.314	322.99
676.724	351.08
677.134	292.57
677.544	306.61
677.953	276.18
678.363	301.93
678.773	245.76
679.182	248.1
679.592	325.33
680.001	348.74
680.411	290.23
680.82	262.14
681.23	306.61
681.639	292.57
682.048	313.63
682.457	337.04
682.866	318.31
683.275	301.93
683.684	327.68
684.093	334.7
684.502	299.59
684.911	238.73
685.32	322.99
685.728	313.63
686.137	278.52
686.546	313.63
686.954	278.52
687.363	278.52
687.771	301.93
688.179	297.25
688.588	339.38
688.996	362.78
689.404	320.65
689.812	262.14
690.22	348.74
690.628	313.63
691.036	255.12
691.444	215.33
691.852	248.1
692.26	318.31
692.667	287.89
693.075	318.31
693.483	294.91
693.89	339.38
694.298	351.08
694.705	320.65
695.112	332.36
695.52	250.44
695.927	285.55
696.334	212.99
696.741	271.5
697.148	297.25
697.555	255.12
697.962	292.57
698.369	376.83
698.776	294.91
699.183	311.29
699.59	299.59
699.996	257.46
700.403	304.27
700.81	315.97
701.216	248.1
701.623	318.31
702.029	348.74
702.435	273.84
702.842	339.38
703.248	264.48
703.654	327.68
704.06	299.59
704.466	266.82
704.872	290.23
705.278	313.63
705.684	308.95
706.09	276.18
706.496	301.93
706.901	285.55
707.307	245.76
707.712	290.23
708.118	278.52
708.523	285.55
708.929	269.16
709.334	280.86
709.74	280.86
710.145	325.33
710.55	283.2
710.955	311.29
711.36	280.86
711.765	322.99
712.17	297.25
712.575	304.27
712.98	912.81
713.385	308.95
713.789	287.89
714.194	264.48
714.599	320.65
715.003	264.48
715.408	318.31
715.812	301.93
716.217	318.31
716.621	276.18
717.025	351.08
717.429	337.04
717.833	243.42
718.238	243.42
718.642	217.67
719.046	344.06
719.449	341.72
719.853	294.91
720.257	280.86
720.661	355.76
721.065	283.2
721.468	330.02
721.872	287.89
722.275	299.59
722.679	285.55
723.082	215.33
723.485	285.55
723.889	320.65
724.292	304.27
724.695	287.89
725.098	322.99
725.501	283.2
725.904	262.14
726.307	297.25
726.71	330.02
727.113	255.12
727.516	285.55
727.918	299.59
728.321	301.93
728.724	290.23
729.126	337.04
729.529	301.93
729.931	252.78
730.333	266.82
730.736	243.42
731.138	285.55
731.54	215.33
731.942	271.5
732.344	227.03
732.746	280.86
733.148	273.84
733.55	276.18
733.952	290.23
734.354	299.59
734.756	318.31
735.157	332.36
735.559	269.16
735.96	313.63
736.362	332.36
736.763	304.27
737.165	287.89
737.566	264.48
737.967	250.44
738.368	315.97
738.77	287.89
739.171	273.84
739.572	304.27
739.973	320.65
740.374	301.93
740.774	297.25
741.175	346.4
741.576	269.16
741.977	276.18
742.377	327.68
742.778	278.52
743.178	322.99
743.579	255.12
743.979	264.48
744.379	280.86
744.78	301.93
745.18	325.33
745.58	304.27
745.98	294.91
746.38	327.68
746.78	304.27
747.18	297.25
747.58	255.12
747.98	301.93
748.38	294.91
748.779	292.57
749.179	269.16
749.578	257.46
749.978	304.27
750.377	292.57
750.777	294.91
751.176	306.61
751.575	334.7
751.975	297.25
752.374	294.91
752.773	292.57
753.172	311.29
753.571	306.61
753.97	283.2
754.369	236.39
754.768	262.14
755.166	280.86
755.565	269.16
755.964	341.72
756.362	285.55
756.761	243.42
757.159	322.99
757.558	297.25
757.956	348.74
758.354	315.97
758.753	271.5
759.151	283.2
759.549	315.97
759.947	322.99
760.345	264.48
760.743	313.63
761.141	285.55
761.539	320.65
761.936	283.2
762.334	285.55
762.732	315.97
763.129	344.06
763.527	271.5
763.924	285.55
764.322	255.12
764.719	255.12
