Data from Al_FLMS009871__1085__16-29-42-205.txt Node

Date: Fri Mar 08 16:29:42 CST 2024
User: pe5414po
Spectrometer: FLMS00987
Trigger mode: 0
Integration Time (sec): 1.000000E-1
Scans to average: 1
Electric dark correction enabled: true
Nonlinearity correction enabled: false
Boxcar width: 0
XAxis mode: Wavelengths
Number of Pixels in Spectrum: 2048
>>>>>Begin Spectral Data<<<<<
188.938	-114.25
189.409	-114.25
189.879	-114.25
190.349	-74.46
190.819	-100.2
191.29	-121.27
191.76	-107.23
192.23	-95.52
192.7	-81.48
193.17	-72.12
193.64	-109.57
194.109	-22.97
194.579	-41.69
195.049	73
195.519	35.55
195.988	-29.99
196.458	112.78
196.927	84.7
197.397	126.83
197.866	112.78
198.336	136.19
198.805	171.3
199.274	157.25
199.744	187.68
200.213	208.75
200.682	220.45
201.151	222.79
201.62	234.49
202.089	147.89
202.558	250.88
203.027	309.39
203.495	342.16
203.964	260.24
204.433	360.88
204.902	304.71
205.37	278.96
205.839	365.56
206.307	337.48
206.776	360.88
207.244	304.71
207.712	300.03
208.181	349.18
208.649	335.14
209.117	323.43
209.585	314.07
210.053	307.05
210.521	330.45
210.989	300.03
211.457	248.54
211.925	253.22
212.393	281.3
212.861	330.45
213.328	302.37
213.796	328.11
214.264	311.73
214.731	297.69
215.199	293.01
215.666	293.01
216.133	307.05
216.601	204.07
217.068	281.3
217.535	260.24
218.003	302.37
218.47	304.71
218.937	374.92
219.404	222.79
219.871	201.72
220.338	302.37
220.805	276.62
221.271	260.24
221.738	225.13
222.205	290.67
222.671	321.09
223.138	229.81
223.605	262.58
224.071	246.2
224.538	264.92
225.004	241.51
225.47	281.3
225.937	255.56
226.403	190.02
226.869	316.41
227.335	318.75
227.801	264.92
228.267	288.32
228.733	269.6
229.199	276.62
229.665	204.07
230.131	321.09
230.597	281.3
231.062	346.84
231.528	262.58
231.994	290.67
232.459	297.69
232.925	250.88
233.39	325.77
233.856	283.64
234.321	302.37
234.786	323.43
235.252	332.79
235.717	253.22
236.182	293.01
236.647	288.32
237.112	295.35
237.577	271.94
238.042	302.37
238.507	283.64
238.972	285.98
239.436	323.43
239.901	321.09
240.366	269.6
240.83	269.6
241.295	239.17
241.76	281.3
242.224	311.73
242.688	323.43
243.153	267.26
243.617	285.98
244.081	335.14
244.545	260.24
245.01	281.3
245.474	276.62
245.938	271.94
246.402	276.62
246.866	300.03
247.33	307.05
247.793	309.39
248.257	269.6
248.721	295.35
249.185	344.5
249.648	314.07
250.112	274.28
250.575	253.22
251.039	328.11
251.502	285.98
251.965	314.07
252.429	269.6
252.892	264.92
253.355	344.5
253.818	314.07
254.281	328.11
254.744	271.94
255.207	278.96
255.67	262.58
256.133	314.07
256.596	278.96
257.059	288.32
257.522	285.98
257.984	241.51
258.447	295.35
258.909	243.85
259.372	342.16
259.834	262.58
260.297	267.26
260.759	332.79
261.221	316.41
261.684	285.98
262.146	250.88
262.608	342.16
263.07	276.62
263.532	281.3
263.994	262.58
264.456	309.39
264.918	323.43
265.38	262.58
265.842	311.73
266.303	316.41
266.765	311.73
267.227	257.9
267.688	339.82
268.15	246.2
268.611	290.67
269.072	250.88
269.534	346.84
269.995	344.5
270.456	307.05
270.918	321.09
271.379	295.35
271.84	274.28
272.301	262.58
272.762	290.67
273.223	349.18
273.684	295.35
274.144	316.41
274.605	307.05
275.066	344.5
275.527	386.63
275.987	374.92
276.448	262.58
276.908	346.84
277.369	276.62
277.829	344.5
278.289	302.37
278.75	297.69
279.21	344.5
279.67	337.48
280.13	314.07
280.59	283.64
281.05	328.11
281.51	318.75
281.97	269.6
282.43	318.75
282.89	363.22
283.35	321.09
283.809	344.5
284.269	285.98
284.729	372.58
285.188	271.94
285.648	316.41
286.107	211.09
286.567	370.24
287.026	300.03
287.485	372.58
287.944	276.62
288.404	309.39
288.863	262.58
289.322	302.37
289.781	300.03
290.24	300.03
290.699	325.77
291.158	321.09
291.616	269.6
292.075	316.41
292.534	302.37
292.992	323.43
293.451	335.14
293.91	257.9
294.368	309.39
294.827	307.05
295.285	304.71
295.743	281.3
296.202	281.3
296.66	363.22
297.118	323.43
297.576	271.94
298.034	367.9
298.492	330.45
298.95	332.79
299.408	323.43
299.866	358.54
300.324	321.09
300.781	278.96
301.239	300.03
301.697	360.88
302.154	358.54
302.612	321.09
303.069	309.39
303.527	330.45
303.984	323.43
304.441	307.05
304.899	283.64
305.356	283.64
305.813	311.73
306.27	370.24
306.727	346.84
307.184	307.05
307.641	321.09
308.098	353.86
308.555	360.88
309.012	344.5
309.468	342.16
309.925	302.37
310.382	332.79
310.838	309.39
311.295	281.3
311.751	314.07
312.208	307.05
312.664	328.11
313.12	335.14
313.577	302.37
314.033	314.07
314.489	304.71
314.945	255.56
315.401	323.43
315.857	344.5
316.313	332.79
316.769	300.03
317.225	278.96
317.681	276.62
318.136	276.62
318.592	365.56
319.048	269.6
319.503	300.03
319.959	370.24
320.414	300.03
320.869	381.95
321.325	309.39
321.78	339.82
322.235	332.79
322.691	302.37
323.146	318.75
323.601	288.32
324.056	316.41
324.511	365.56
324.966	283.64
325.421	349.18
325.875	290.67
326.33	342.16
326.785	335.14
327.24	367.9
327.694	358.54
328.149	260.24
328.603	285.98
329.058	309.39
329.512	278.96
329.966	288.32
330.421	304.71
330.875	314.07
331.329	269.6
331.783	253.22
332.237	356.2
332.691	281.3
333.145	328.11
333.599	281.3
334.053	325.77
334.507	321.09
334.96	344.5
335.414	316.41
335.868	311.73
336.321	323.43
336.775	325.77
337.228	356.2
337.682	351.52
338.135	302.37
338.588	332.79
339.042	328.11
339.495	367.9
339.948	290.67
340.401	260.24
340.854	300.03
341.307	358.54
341.76	297.69
342.213	316.41
342.666	360.88
343.119	274.28
343.571	339.82
344.024	398.33
344.477	215.77
344.929	285.98
345.382	293.01
345.834	283.64
346.287	253.22
346.739	330.45
347.191	328.11
347.644	264.92
348.096	278.96
348.548	353.86
349	363.22
349.452	321.09
349.904	316.41
350.356	332.79
350.808	328.11
351.26	300.03
351.711	330.45
352.163	342.16
352.615	342.16
353.066	372.58
353.518	372.58
353.969	349.18
354.421	328.11
354.872	351.52
355.324	314.07
355.775	365.56
356.226	372.58
356.677	377.27
357.128	365.56
357.579	290.67
358.03	278.96
358.481	407.69
358.932	316.41
359.383	353.86
359.834	349.18
360.285	262.58
360.735	328.11
361.186	257.9
361.637	304.71
362.087	316.41
362.538	316.41
362.988	297.69
363.438	300.03
363.889	285.98
364.339	360.88
364.789	337.48
365.239	295.35
365.689	339.82
366.139	309.39
366.589	360.88
367.039	330.45
367.489	342.16
367.939	335.14
368.389	307.05
368.839	295.35
369.288	377.27
369.738	323.43
370.187	314.07
370.637	285.98
371.086	398.33
371.536	288.32
371.985	267.26
372.434	374.92
372.884	365.56
373.333	276.62
373.782	346.84
374.231	346.84
374.68	311.73
375.129	311.73
375.578	332.79
376.027	330.45
376.475	283.64
376.924	349.18
377.373	344.5
377.822	300.03
378.27	297.69
378.719	302.37
379.167	325.77
379.616	300.03
380.064	311.73
380.512	304.71
380.961	274.28
381.409	318.75
381.857	349.18
382.305	344.5
382.753	360.88
383.201	321.09
383.649	311.73
384.097	293.01
384.545	323.43
384.992	290.67
385.44	335.14
385.888	339.82
386.335	321.09
386.783	370.24
387.231	269.6
387.678	346.84
388.125	353.86
388.573	344.5
389.02	351.52
389.467	332.79
389.914	311.73
390.362	365.56
390.809	309.39
391.256	271.94
391.703	342.16
392.15	325.77
392.596	372.58
393.043	293.01
393.49	344.5
393.937	314.07
394.383	285.98
394.83	346.84
395.276	297.69
395.723	323.43
396.169	290.67
396.616	234.49
397.062	316.41
397.508	403.01
397.954	374.92
398.401	349.18
398.847	335.14
399.293	328.11
399.739	372.58
400.185	363.22
400.631	269.6
401.076	318.75
401.522	353.86
401.968	351.52
402.414	342.16
402.859	379.61
403.305	321.09
403.75	412.37
404.196	351.52
404.641	323.43
405.086	346.84
405.532	349.18
405.977	302.37
406.422	323.43
406.867	309.39
407.312	311.73
407.757	386.63
408.202	363.22
408.647	323.43
409.092	349.18
409.537	288.32
409.982	358.54
410.426	342.16
410.871	398.33
411.316	311.73
411.76	356.2
412.205	316.41
412.649	356.2
413.093	360.88
413.538	335.14
413.982	321.09
414.426	360.88
414.87	330.45
415.314	351.52
415.758	267.26
416.202	307.05
416.646	365.56
417.09	349.18
417.534	314.07
417.978	351.52
418.421	370.24
418.865	264.92
419.309	349.18
419.752	370.24
420.196	360.88
420.639	309.39
421.083	302.37
421.526	260.24
421.969	318.75
422.412	337.48
422.856	335.14
423.299	349.18
423.742	281.3
424.185	358.54
424.628	353.86
425.071	323.43
425.513	236.83
425.956	335.14
426.399	335.14
426.842	360.88
427.284	346.84
427.727	250.88
428.169	332.79
428.612	323.43
429.054	332.79
429.497	330.45
429.939	332.79
430.381	318.75
430.823	342.16
431.265	337.48
431.707	302.37
432.149	318.75
432.591	274.28
433.033	271.94
433.475	274.28
433.917	325.77
434.359	353.86
434.8	288.32
435.242	330.45
435.684	367.9
436.125	384.29
436.567	257.9
437.008	379.61
437.449	311.73
437.891	358.54
438.332	344.5
438.773	309.39
439.214	285.98
439.656	264.92
440.097	335.14
440.538	360.88
440.978	325.77
441.419	243.85
441.86	344.5
442.301	412.37
442.742	262.58
443.182	300.03
443.623	288.32
444.063	304.71
444.504	335.14
444.944	288.32
445.385	391.31
445.825	398.33
446.265	398.33
446.706	323.43
447.146	290.67
447.586	351.52
448.026	337.48
448.466	271.94
448.906	342.16
449.346	344.5
449.786	285.98
450.225	321.09
450.665	391.31
451.105	332.79
451.544	365.56
451.984	285.98
452.424	293.01
452.863	332.79
453.302	295.35
453.742	307.05
454.181	257.9
454.62	395.99
455.059	365.56
455.499	318.75
455.938	346.84
456.377	337.48
456.816	297.69
457.254	330.45
457.693	353.86
458.132	358.54
458.571	283.64
459.01	351.52
459.448	297.69
459.887	314.07
460.325	302.37
460.764	349.18
461.202	403.01
461.641	337.48
462.079	454.5
462.517	325.77
462.955	274.28
463.393	297.69
463.832	321.09
464.27	323.43
464.708	332.79
465.145	344.5
465.583	365.56
466.021	414.71
466.459	332.79
466.897	328.11
467.334	332.79
467.772	325.77
468.209	311.73
468.647	318.75
469.084	325.77
469.522	398.33
469.959	295.35
470.396	297.69
470.833	316.41
471.271	346.84
471.708	342.16
472.145	351.52
472.582	337.48
473.019	328.11
473.456	363.22
473.892	295.35
474.329	328.11
474.766	325.77
475.202	335.14
475.639	295.35
476.076	309.39
476.512	293.01
476.949	351.52
477.385	300.03
477.821	318.75
478.258	353.86
478.694	339.82
479.13	285.98
479.566	307.05
480.002	330.45
480.438	356.2
480.874	278.96
481.31	290.67
481.746	290.67
482.181	311.73
482.617	278.96
483.053	356.2
483.488	269.6
483.924	311.73
484.36	395.99
484.795	309.39
485.23	288.32
485.666	360.88
486.101	260.24
486.536	311.73
486.971	339.82
487.407	356.2
487.842	374.92
488.277	309.39
488.712	316.41
489.146	330.45
489.581	358.54
490.016	353.86
490.451	349.18
490.885	337.48
491.32	311.73
491.755	335.14
492.189	332.79
492.624	367.9
493.058	316.41
493.492	269.6
493.927	290.67
494.361	323.43
494.795	344.5
495.229	323.43
495.663	295.35
496.097	278.96
496.531	304.71
496.965	304.71
497.399	328.11
497.833	374.92
498.266	295.35
498.7	337.48
499.134	262.58
499.567	395.99
500.001	330.45
500.434	356.2
500.868	335.14
501.301	297.69
501.734	297.69
502.168	330.45
502.601	367.9
503.034	318.75
503.467	318.75
503.9	318.75
504.333	358.54
504.766	353.86
505.199	349.18
505.632	386.63
506.064	330.45
506.497	321.09
506.93	323.43
507.362	325.77
507.795	339.82
508.227	264.92
508.66	414.71
509.092	285.98
509.524	356.2
509.956	349.18
510.389	335.14
510.821	372.58
511.253	295.35
511.685	335.14
512.117	344.5
512.549	295.35
512.981	281.3
513.412	309.39
513.844	309.39
514.276	351.52
514.707	328.11
515.139	339.82
515.571	372.58
516.002	311.73
516.433	398.33
516.865	400.67
517.296	293.01
517.727	323.43
518.159	363.22
518.59	342.16
519.021	393.65
519.452	349.18
519.883	271.94
520.314	332.79
520.744	314.07
521.175	358.54
521.606	358.54
522.037	302.37
522.467	295.35
522.898	342.16
523.328	241.51
523.759	335.14
524.189	274.28
524.62	356.2
525.05	309.39
525.48	300.03
525.91	304.71
526.341	349.18
526.771	358.54
527.201	321.09
527.631	339.82
528.061	295.35
528.49	335.14
528.92	335.14
529.35	325.77
529.78	288.32
530.209	304.71
530.639	318.75
531.068	351.52
531.498	332.79
531.927	295.35
532.357	295.35
532.786	307.05
533.215	365.56
533.644	295.35
534.074	351.52
534.503	323.43
534.932	328.11
535.361	344.5
535.79	328.11
536.218	346.84
536.647	342.16
537.076	311.73
537.505	314.07
537.933	344.5
538.362	316.41
538.79	271.94
539.219	274.28
539.647	356.2
540.076	332.79
540.504	384.29
540.932	330.45
541.36	372.58
541.788	293.01
542.217	271.94
542.645	391.31
543.073	293.01
543.5	356.2
543.928	325.77
544.356	316.41
544.784	309.39
545.211	335.14
545.639	349.18
546.067	374.92
546.494	356.2
546.922	297.69
547.349	300.03
547.776	335.14
548.204	372.58
548.631	316.41
549.058	323.43
549.485	278.96
549.912	337.48
550.339	328.11
550.766	356.2
551.193	328.11
551.62	318.75
552.047	311.73
552.474	321.09
552.9	321.09
553.327	330.45
553.754	307.05
554.18	302.37
554.607	367.9
555.033	335.14
555.459	330.45
555.886	285.98
556.312	344.5
556.738	405.35
557.164	342.16
557.59	339.82
558.016	323.43
558.442	309.39
558.868	330.45
559.294	323.43
559.72	278.96
560.145	323.43
560.571	311.73
560.997	330.45
561.422	281.3
561.848	318.75
562.273	337.48
562.699	367.9
563.124	316.41
563.549	358.54
563.974	330.45
564.4	330.45
564.825	367.9
565.25	351.52
565.675	302.37
566.1	321.09
566.525	358.54
566.95	297.69
567.374	342.16
567.799	316.41
568.224	311.73
568.648	302.37
569.073	304.71
569.497	295.35
569.922	304.71
570.346	307.05
570.771	278.96
571.195	346.84
571.619	328.11
572.043	346.84
572.467	276.62
572.891	328.11
573.315	302.37
573.739	353.86
574.163	349.18
574.587	323.43
575.011	311.73
575.435	339.82
575.858	388.97
576.282	269.6
576.705	295.35
577.129	325.77
577.552	344.5
577.976	323.43
578.399	309.39
578.822	388.97
579.245	360.88
579.669	300.03
580.092	328.11
580.515	363.22
580.938	314.07
581.361	370.24
581.784	353.86
582.206	293.01
582.629	356.2
583.052	365.56
583.474	262.58
583.897	304.71
584.32	344.5
584.742	358.54
585.165	293.01
585.587	316.41
586.009	276.62
586.431	318.75
586.854	321.09
587.276	377.27
587.698	351.52
588.12	328.11
588.542	349.18
588.964	386.63
589.386	325.77
589.807	374.92
590.229	381.95
590.651	269.6
591.073	311.73
591.494	295.35
591.916	325.77
592.337	342.16
592.759	384.29
593.18	353.86
593.601	332.79
594.022	318.75
594.444	304.71
594.865	349.18
595.286	370.24
595.707	337.48
596.128	269.6
596.549	332.79
596.97	307.05
597.39	337.48
597.811	367.9
598.232	360.88
598.652	360.88
599.073	318.75
599.494	307.05
599.914	349.18
600.334	374.92
600.755	281.3
601.175	339.82
601.595	332.79
602.015	372.58
602.436	330.45
602.856	414.71
603.276	349.18
603.696	318.75
604.115	314.07
604.535	297.69
604.955	353.86
605.375	307.05
605.794	358.54
606.214	360.88
606.634	342.16
607.053	314.07
607.473	337.48
607.892	353.86
608.311	365.56
608.731	337.48
609.15	285.98
609.569	330.45
609.988	342.16
610.407	349.18
610.826	278.96
611.245	342.16
611.664	349.18
612.083	332.79
612.501	297.69
612.92	290.67
613.339	276.62
613.757	325.77
614.176	304.71
614.594	346.84
615.013	344.5
615.431	346.84
615.85	384.29
616.268	323.43
616.686	297.69
617.104	346.84
617.522	391.31
617.94	321.09
618.358	365.56
618.776	243.85
619.194	307.05
619.612	407.69
620.03	353.86
620.447	358.54
620.865	330.45
621.282	290.67
621.7	309.39
622.117	337.48
622.535	302.37
622.952	349.18
623.369	335.14
623.787	307.05
624.204	386.63
624.621	381.95
625.038	321.09
625.455	337.48
625.872	342.16
626.289	321.09
626.706	337.48
627.123	316.41
627.539	349.18
627.956	332.79
628.373	353.86
628.789	297.69
629.206	332.79
629.622	307.05
630.038	360.88
630.455	360.88
630.871	393.65
631.287	318.75
631.703	300.03
632.12	253.22
632.536	332.79
632.952	344.5
633.368	311.73
633.783	367.9
634.199	353.86
634.615	290.67
635.031	281.3
635.446	330.45
635.862	339.82
636.277	328.11
636.693	321.09
637.108	297.69
637.524	349.18
637.939	381.95
638.354	321.09
638.77	293.01
639.185	290.67
639.6	330.45
640.015	314.07
640.43	353.86
640.845	325.77
641.259	367.9
641.674	297.69
642.089	323.43
642.504	281.3
642.918	388.97
643.333	358.54
643.747	356.2
644.162	356.2
644.576	325.77
644.991	309.39
645.405	311.73
645.819	311.73
646.233	353.86
646.647	328.11
647.061	297.69
647.475	307.05
647.889	330.45
648.303	323.43
648.717	330.45
649.131	351.52
649.545	398.33
649.958	363.22
650.372	314.07
650.785	339.82
651.199	337.48
651.612	318.75
652.026	318.75
652.439	323.43
652.852	274.28
653.266	353.86
653.679	363.22
654.092	321.09
654.505	328.11
654.918	335.14
655.331	351.52
655.744	318.75
656.156	344.5
656.569	311.73
656.982	300.03
657.394	328.11
657.807	344.5
658.22	370.24
658.632	349.18
659.044	269.6
659.457	330.45
659.869	332.79
660.281	360.88
660.693	316.41
661.106	309.39
661.518	278.96
661.93	346.84
662.342	295.35
662.754	328.11
663.165	311.73
663.577	332.79
663.989	330.45
664.401	285.98
664.812	330.45
665.224	330.45
665.635	360.88
666.047	367.9
666.458	323.43
666.869	297.69
667.281	353.86
667.692	300.03
668.103	274.28
668.514	304.71
668.925	351.52
669.336	356.2
669.747	269.6
670.158	297.69
670.569	365.56
670.979	304.71
671.39	400.67
671.801	332.79
672.211	318.75
672.622	377.27
673.032	290.67
673.443	295.35
673.853	248.54
674.263	274.28
674.674	349.18
675.084	358.54
675.494	276.62
675.904	318.75
676.314	353.86
676.724	316.41
677.134	325.77
677.544	328.11
677.953	316.41
678.363	318.75
678.773	309.39
679.182	356.2
679.592	349.18
680.001	290.67
680.411	367.9
680.82	260.24
681.23	307.05
681.639	353.86
682.048	278.96
682.457	335.14
682.866	276.62
683.275	309.39
683.684	267.26
684.093	351.52
684.502	370.24
684.911	300.03
685.32	307.05
685.728	262.58
686.137	360.88
686.546	360.88
686.954	349.18
687.363	314.07
687.771	302.37
688.179	314.07
688.588	271.94
688.996	311.73
689.404	431.1
689.812	269.6
690.22	342.16
690.628	288.32
691.036	414.71
691.444	349.18
691.852	309.39
692.26	304.71
692.667	384.29
693.075	339.82
693.483	381.95
693.89	316.41
694.298	262.58
694.705	363.22
695.112	307.05
695.52	328.11
695.927	346.84
696.334	311.73
696.741	360.88
697.148	323.43
697.555	297.69
697.962	321.09
698.369	344.5
698.776	323.43
699.183	332.79
699.59	295.35
699.996	335.14
700.403	323.43
700.81	304.71
701.216	370.24
701.623	318.75
702.029	300.03
702.435	337.48
702.842	323.43
703.248	271.94
703.654	330.45
704.06	349.18
704.466	349.18
704.872	314.07
705.278	344.5
705.684	325.77
706.09	344.5
706.496	335.14
706.901	314.07
707.307	337.48
707.712	309.39
708.118	285.98
708.523	281.3
708.929	309.39
709.334	293.01
709.74	255.56
710.145	309.39
710.55	297.69
710.955	325.77
711.36	344.5
711.765	372.58
712.17	283.64
712.575	318.75
712.98	950.7
713.385	300.03
713.789	323.43
714.194	353.86
714.599	307.05
715.003	365.56
715.408	386.63
715.812	318.75
716.217	323.43
716.621	351.52
717.025	349.18
717.429	302.37
717.833	274.28
718.238	342.16
718.642	309.39
719.046	330.45
719.449	363.22
719.853	307.05
720.257	370.24
720.661	321.09
721.065	325.77
721.468	342.16
721.872	309.39
722.275	318.75
722.679	297.69
723.082	356.2
723.485	304.71
723.889	335.14
724.292	297.69
724.695	351.52
725.098	288.32
725.501	342.16
725.904	300.03
726.307	398.33
726.71	295.35
727.113	342.16
727.516	365.56
727.918	386.63
728.321	309.39
728.724	351.52
729.126	304.71
729.529	353.86
729.931	367.9
730.333	377.27
730.736	262.58
731.138	295.35
731.54	328.11
731.942	283.64
732.344	410.03
732.746	358.54
733.148	323.43
733.55	321.09
733.952	330.45
734.354	346.84
734.756	344.5
735.157	262.58
735.559	358.54
735.96	269.6
736.362	325.77
736.763	295.35
737.165	325.77
737.566	353.86
737.967	304.71
738.368	257.9
738.77	360.88
739.171	267.26
739.572	267.26
739.973	323.43
740.374	328.11
740.774	384.29
741.175	290.67
741.576	337.48
741.977	332.79
742.377	344.5
742.778	302.37
743.178	353.86
743.579	353.86
743.979	318.75
744.379	262.58
744.78	302.37
745.18	314.07
745.58	276.62
745.98	339.82
746.38	208.75
746.78	302.37
747.18	356.2
747.58	309.39
747.98	339.82
748.38	386.63
748.779	302.37
749.179	325.77
749.578	335.14
749.978	363.22
750.377	293.01
750.777	307.05
751.176	323.43
751.575	374.92
751.975	300.03
752.374	321.09
752.773	281.3
753.172	314.07
753.571	250.88
753.97	307.05
754.369	344.5
754.768	358.54
755.166	239.17
755.565	323.43
755.964	328.11
756.362	346.84
756.761	274.28
757.159	271.94
757.558	309.39
757.956	325.77
758.354	316.41
758.753	307.05
759.151	307.05
759.549	377.27
759.947	337.48
760.345	365.56
760.743	267.26
761.141	342.16
761.539	330.45
761.936	260.24
762.334	363.22
762.732	323.43
763.129	337.48
763.527	325.77
763.924	337.48
764.322	309.39
764.719	290.67
