Data from Al_FLMS009871__1094__16-29-43-105.txt Node

Date: Fri Mar 08 16:29:43 CST 2024
User: pe5414po
Spectrometer: FLMS00987
Trigger mode: 0
Integration Time (sec): 1.000000E-1
Scans to average: 1
Electric dark correction enabled: true
Nonlinearity correction enabled: false
Boxcar width: 0
XAxis mode: Wavelengths
Number of Pixels in Spectrum: 2048
>>>>>Begin Spectral Data<<<<<
188.938	-44.47
189.409	-44.47
189.879	-44.47
190.349	-117.03
190.819	-105.32
191.29	-100.64
191.76	-100.64
192.23	-79.58
192.7	-91.28
193.17	-74.9
193.64	-35.11
194.109	-77.24
194.579	-16.38
195.049	2.34
195.519	23.41
195.988	105.32
196.458	51.49
196.927	72.56
197.397	114.69
197.866	91.28
198.336	114.69
198.805	124.05
199.274	117.03
199.744	161.5
200.213	191.92
200.682	212.99
201.151	217.67
201.62	180.22
202.089	212.99
202.558	245.76
203.027	318.31
203.495	236.39
203.964	353.42
204.433	238.73
204.902	292.57
205.37	327.67
205.839	292.57
206.307	262.14
206.776	250.44
207.244	301.93
207.712	290.23
208.181	283.2
208.649	313.63
209.117	290.23
209.585	245.76
210.053	290.23
210.521	203.63
210.989	217.67
211.457	224.69
211.925	259.8
212.393	234.05
212.861	234.05
213.328	264.48
213.796	266.82
214.264	266.82
214.731	294.91
215.199	290.23
215.666	297.25
216.133	231.71
216.601	236.39
217.068	241.08
217.535	271.5
218.003	318.31
218.47	201.29
218.937	269.16
219.404	215.33
219.871	280.86
220.338	322.99
220.805	381.51
221.271	280.86
221.738	262.14
222.205	299.59
222.671	264.48
223.138	243.42
223.605	257.46
224.071	220.01
224.538	266.82
225.004	315.97
225.47	210.65
225.937	217.67
226.403	227.03
226.869	255.12
227.335	280.86
227.801	278.52
228.267	245.76
228.733	330.02
229.199	250.44
229.665	243.42
230.131	276.18
230.597	227.03
231.062	231.71
231.528	299.59
231.994	332.36
232.459	250.44
232.925	283.2
233.39	290.23
233.856	248.1
234.321	222.35
234.786	220.01
235.252	283.2
235.717	243.42
236.182	184.9
236.647	257.46
237.112	259.8
237.577	236.39
238.042	229.37
238.507	252.78
238.972	273.84
239.436	262.14
239.901	301.93
240.366	315.97
240.83	238.73
241.295	269.16
241.76	238.73
242.224	306.61
242.688	271.5
243.153	301.93
243.617	304.27
244.081	301.93
244.545	248.1
245.01	294.91
245.474	259.8
245.938	241.08
246.402	273.84
246.866	334.7
247.33	278.52
247.793	210.65
248.257	327.67
248.721	222.35
249.185	224.69
249.648	220.01
250.112	217.67
250.575	332.36
251.039	257.46
251.502	332.36
251.965	264.48
252.429	320.65
252.892	269.16
253.355	287.89
253.818	283.2
254.281	236.39
254.744	334.7
255.207	318.31
255.67	294.91
256.133	255.12
256.596	250.44
257.059	243.42
257.522	252.78
257.984	278.52
258.447	287.89
258.909	280.86
259.372	294.91
259.834	294.91
260.297	304.27
260.759	238.73
261.221	290.23
261.684	194.26
262.146	325.33
262.608	250.44
263.07	301.93
263.532	248.1
263.994	271.5
264.456	313.63
264.918	252.78
265.38	283.2
265.842	250.44
266.303	229.37
266.765	297.25
267.227	285.55
267.688	283.2
268.15	234.05
268.611	315.97
269.072	252.78
269.534	292.57
269.995	292.57
270.456	248.1
270.918	280.86
271.379	257.46
271.84	273.84
272.301	245.76
272.762	278.52
273.223	266.82
273.684	320.65
274.144	306.61
274.605	241.08
275.066	322.99
275.527	330.02
275.987	311.29
276.448	276.18
276.908	313.63
277.369	348.74
277.829	297.25
278.289	231.71
278.75	320.65
279.21	311.29
279.67	273.84
280.13	276.18
280.59	304.27
281.05	320.65
281.51	297.25
281.97	250.44
282.43	264.48
282.89	283.2
283.35	315.97
283.809	243.42
284.269	318.31
284.729	311.29
285.188	278.52
285.648	322.99
286.107	257.46
286.567	271.5
287.026	362.78
287.485	280.86
287.944	301.93
288.404	339.38
288.863	271.5
289.322	285.55
289.781	313.63
290.24	353.42
290.699	222.35
291.158	252.78
291.616	273.84
292.075	339.38
292.534	243.42
292.992	294.91
293.451	280.86
293.91	339.38
294.368	339.38
294.827	266.82
295.285	269.16
295.743	257.46
296.202	259.8
296.66	325.33
297.118	273.84
297.576	285.55
298.034	273.84
298.492	351.08
298.95	327.67
299.408	353.42
299.866	278.52
300.324	334.7
300.781	330.02
301.239	322.99
301.697	238.73
302.154	397.89
302.612	290.23
303.069	334.7
303.527	292.57
303.984	273.84
304.441	231.71
304.899	294.91
305.356	332.36
305.813	315.97
306.27	292.57
306.727	318.31
307.184	353.42
307.641	320.65
308.098	341.72
308.555	269.16
309.012	322.99
309.468	332.36
309.925	348.74
310.382	231.71
310.838	238.73
311.295	292.57
311.751	301.93
312.208	353.42
312.664	248.1
313.12	283.2
313.577	278.52
314.033	264.48
314.489	318.31
314.945	315.97
315.401	325.33
315.857	262.14
316.313	297.25
316.769	304.27
317.225	262.14
317.681	271.5
318.136	313.63
318.592	262.14
319.048	231.71
319.503	299.59
319.959	322.99
320.414	255.12
320.869	318.31
321.325	290.23
321.78	294.91
322.235	283.2
322.691	297.25
323.146	299.59
323.601	215.33
324.056	250.44
324.511	292.57
324.966	299.59
325.421	257.46
325.875	290.23
326.33	308.95
326.785	292.57
327.24	271.5
327.694	278.52
328.149	327.67
328.603	346.4
329.058	297.25
329.512	294.91
329.966	266.82
330.421	332.36
330.875	308.95
331.329	304.27
331.783	344.06
332.237	348.74
332.691	315.97
333.145	294.91
333.599	292.57
334.053	262.14
334.507	320.65
334.96	299.59
335.414	330.02
335.868	292.57
336.321	290.23
336.775	344.06
337.228	271.5
337.682	306.61
338.135	339.38
338.588	262.14
339.042	318.31
339.495	360.44
339.948	285.55
340.401	311.29
340.854	294.91
341.307	346.4
341.76	320.65
342.213	273.84
342.666	367.46
343.119	292.57
343.571	355.76
344.024	287.89
344.477	269.16
344.929	283.2
345.382	339.38
345.834	290.23
346.287	271.5
346.739	257.46
347.191	358.1
347.644	278.52
348.096	322.99
348.548	299.59
349	297.25
349.452	278.52
349.904	294.91
350.356	273.84
350.808	271.5
351.26	276.18
351.711	308.95
352.163	297.25
352.615	189.58
353.066	327.67
353.518	320.65
353.969	379.17
354.421	266.82
354.872	301.93
355.324	313.63
355.775	241.08
356.226	320.65
356.677	259.8
357.128	273.84
357.579	278.52
358.03	280.86
358.481	395.55
358.932	262.14
359.383	255.12
359.834	294.91
360.285	360.44
360.735	269.16
361.186	337.04
361.637	273.84
362.087	315.97
362.538	297.25
362.988	318.31
363.438	332.36
363.889	269.16
364.339	369.8
364.789	280.86
365.239	271.5
365.689	330.02
366.139	224.69
366.589	283.2
367.039	266.82
367.489	285.55
367.939	278.52
368.389	308.95
368.839	269.16
369.288	264.48
369.738	297.25
370.187	294.91
370.637	313.63
371.086	294.91
371.536	259.8
371.985	271.5
372.434	325.33
372.884	283.2
373.333	245.76
373.782	327.67
374.231	220.01
374.68	294.91
375.129	250.44
375.578	325.33
376.027	299.59
376.475	236.39
376.924	287.89
377.373	313.63
377.822	351.08
378.27	294.91
378.719	292.57
379.167	313.63
379.616	315.97
380.064	245.76
380.512	297.25
380.961	358.1
381.409	283.2
381.857	322.99
382.305	320.65
382.753	294.91
383.201	236.39
383.649	381.51
384.097	381.51
384.545	259.8
384.992	241.08
385.44	330.02
385.888	341.72
386.335	313.63
386.783	299.59
387.231	351.08
387.678	287.89
388.125	301.93
388.573	297.25
389.02	318.31
389.467	273.84
389.914	280.86
390.362	301.93
390.809	276.18
391.256	299.59
391.703	339.38
392.15	327.67
392.596	315.97
393.043	353.42
393.49	322.99
393.937	273.84
394.383	332.36
394.83	308.95
395.276	322.99
395.723	273.84
396.169	245.76
396.616	339.38
397.062	346.4
397.508	283.2
397.954	311.29
398.401	227.03
398.847	287.89
399.293	308.95
399.739	315.97
400.185	348.74
400.631	325.33
401.076	280.86
401.522	318.31
401.968	313.63
402.414	297.25
402.859	266.82
403.305	304.27
403.75	341.72
404.196	320.65
404.641	322.99
405.086	325.33
405.532	250.44
405.977	320.65
406.422	344.06
406.867	283.2
407.312	308.95
407.757	327.67
408.202	311.29
408.647	257.46
409.092	292.57
409.537	313.63
409.982	276.18
410.426	278.52
410.871	278.52
411.316	330.02
411.76	283.2
412.205	269.16
412.649	266.82
413.093	262.14
413.538	264.48
413.982	306.61
414.426	318.31
414.87	245.76
415.314	313.63
415.758	278.52
416.202	318.31
416.646	294.91
417.09	320.65
417.534	278.52
417.978	299.59
418.421	313.63
418.865	330.02
419.309	306.61
419.752	355.76
420.196	266.82
420.639	320.65
421.083	278.52
421.526	257.46
421.969	327.67
422.412	344.06
422.856	320.65
423.299	322.99
423.742	386.19
424.185	290.23
424.628	262.14
425.071	255.12
425.513	344.06
425.956	292.57
426.399	299.59
426.842	257.46
427.284	325.33
427.727	341.72
428.169	287.89
428.612	313.63
429.054	315.97
429.497	322.99
429.939	297.25
430.381	257.46
430.823	297.25
431.265	318.31
431.707	301.93
432.149	355.76
432.591	287.89
433.033	332.36
433.475	332.36
433.917	311.29
434.359	304.27
434.8	318.31
435.242	344.06
435.684	283.2
436.125	348.74
436.567	339.38
437.008	285.55
437.449	360.44
437.891	330.02
438.332	245.76
438.773	339.38
439.214	283.2
439.656	339.38
440.097	339.38
440.538	245.76
440.978	297.25
441.419	315.97
441.86	334.7
442.301	306.61
442.742	297.25
443.182	248.1
443.623	276.18
444.063	337.04
444.504	322.99
444.944	229.37
445.385	250.44
445.825	283.2
446.265	360.44
446.706	259.8
447.146	344.06
447.586	280.86
448.026	353.42
448.466	278.52
448.906	365.12
449.346	299.59
449.786	337.04
450.225	299.59
450.665	351.08
451.105	313.63
451.544	285.55
451.984	280.86
452.424	280.86
452.863	273.84
453.302	376.83
453.742	278.52
454.181	337.04
454.62	243.42
455.059	306.61
455.499	315.97
455.938	280.86
456.377	355.76
456.816	238.73
457.254	313.63
457.693	327.67
458.132	327.67
458.571	337.04
459.01	315.97
459.448	259.8
459.887	327.67
460.325	369.8
460.764	276.18
461.202	341.72
461.641	313.63
462.079	332.36
462.517	315.97
462.955	236.39
463.393	297.25
463.832	367.46
464.27	330.02
464.708	299.59
465.145	372.15
465.583	299.59
466.021	278.52
466.459	292.57
466.897	332.36
467.334	234.05
467.772	276.18
468.209	285.55
468.647	325.33
469.084	269.16
469.522	290.23
469.959	283.2
470.396	301.93
470.833	248.1
471.271	337.04
471.708	318.31
472.145	264.48
472.582	269.16
473.019	255.12
473.456	313.63
473.892	337.04
474.329	325.33
474.766	266.82
475.202	273.84
475.639	334.7
476.076	322.99
476.512	294.91
476.949	381.51
477.385	325.33
477.821	346.4
478.258	315.97
478.694	292.57
479.13	257.46
479.566	285.55
480.002	332.36
480.438	379.17
480.874	395.55
481.31	301.93
481.746	297.25
482.181	297.25
482.617	330.02
483.053	269.16
483.488	287.89
483.924	276.18
484.36	299.59
484.795	311.29
485.23	355.76
485.666	318.31
486.101	344.06
486.536	374.49
486.971	320.65
487.407	294.91
487.842	280.86
488.277	304.27
488.712	294.91
489.146	283.2
489.581	297.25
490.016	337.04
490.451	278.52
490.885	269.16
491.32	311.29
491.755	322.99
492.189	308.95
492.624	280.86
493.058	271.5
493.492	287.89
493.927	344.06
494.361	360.44
494.795	322.99
495.229	280.86
495.663	266.82
496.097	318.31
496.531	292.57
496.965	301.93
497.399	262.14
497.833	259.8
498.266	318.31
498.7	283.2
499.134	348.74
499.567	332.36
500.001	313.63
500.434	308.95
500.868	273.84
501.301	376.83
501.734	325.33
502.168	339.38
502.601	294.91
503.034	287.89
503.467	334.7
503.9	369.8
504.333	358.1
504.766	269.16
505.199	365.12
505.632	322.99
506.064	301.93
506.497	250.44
506.93	318.31
507.362	285.55
507.795	245.76
508.227	414.27
508.66	313.63
509.092	294.91
509.524	306.61
509.956	311.29
510.389	269.16
510.821	344.06
511.253	287.89
511.685	299.59
512.117	278.52
512.549	337.04
512.981	276.18
513.412	308.95
513.844	294.91
514.276	262.14
514.707	360.44
515.139	287.89
515.571	294.91
516.002	362.78
516.433	304.27
516.865	306.61
517.296	285.55
517.727	264.48
518.159	299.59
518.59	297.25
519.021	332.36
519.452	297.25
519.883	311.29
520.314	308.95
520.744	294.91
521.175	353.42
521.606	337.04
522.037	315.97
522.467	341.72
522.898	325.33
523.328	322.99
523.759	276.18
524.189	294.91
524.62	320.65
525.05	313.63
525.48	330.02
525.91	330.02
526.341	311.29
526.771	358.1
527.201	306.61
527.631	269.16
528.061	255.12
528.49	306.61
528.92	353.42
529.35	360.44
529.78	285.55
530.209	301.93
530.639	257.46
531.068	327.67
531.498	330.02
531.927	320.65
532.357	287.89
532.786	339.38
533.215	280.86
533.644	339.38
534.074	287.89
534.503	299.59
534.932	315.97
535.361	327.67
535.79	297.25
536.218	290.23
536.647	304.27
537.076	276.18
537.505	280.86
537.933	327.67
538.362	365.12
538.79	278.52
539.219	311.29
539.647	294.91
540.076	280.86
540.504	294.91
540.932	290.23
541.36	315.97
541.788	306.61
542.217	355.76
542.645	283.2
543.073	360.44
543.5	257.46
543.928	337.04
544.356	322.99
544.784	334.7
545.211	259.8
545.639	306.61
546.067	313.63
546.494	376.83
546.922	365.12
547.349	313.63
547.776	285.55
548.204	325.33
548.631	292.57
549.058	351.08
549.485	315.97
549.912	315.97
550.339	341.72
550.766	353.42
551.193	311.29
551.62	280.86
552.047	322.99
552.474	301.93
552.9	332.36
553.327	320.65
553.754	290.23
554.18	255.12
554.607	278.52
555.033	292.57
555.459	292.57
555.886	332.36
556.312	334.7
556.738	355.76
557.164	353.42
557.59	241.08
558.016	334.7
558.442	262.14
558.868	308.95
559.294	332.36
559.72	299.59
560.145	318.31
560.571	285.55
560.997	313.63
561.422	358.1
561.848	224.69
562.273	332.36
562.699	278.52
563.124	292.57
563.549	325.33
563.974	360.44
564.4	301.93
564.825	327.67
565.25	358.1
565.675	285.55
566.1	311.29
566.525	245.76
566.95	318.31
567.374	297.25
567.799	334.7
568.224	250.44
568.648	367.46
569.073	318.31
569.497	346.4
569.922	280.86
570.346	304.27
570.771	301.93
571.195	294.91
571.619	355.76
572.043	304.27
572.467	283.2
572.891	292.57
573.315	264.48
573.739	290.23
574.163	297.25
574.587	372.15
575.011	306.61
575.435	339.38
575.858	308.95
576.282	276.18
576.705	322.99
577.129	285.55
577.552	259.8
577.976	294.91
578.399	222.35
578.822	325.33
579.245	330.02
579.669	351.08
580.092	311.29
580.515	332.36
580.938	276.18
581.361	259.8
581.784	306.61
582.206	348.74
582.629	306.61
583.052	311.29
583.474	285.55
583.897	285.55
584.32	306.61
584.742	332.36
585.165	315.97
585.587	320.65
586.009	325.33
586.431	332.36
586.854	301.93
587.276	308.95
587.698	264.48
588.12	346.4
588.542	250.44
588.964	320.65
589.386	276.18
589.807	334.7
590.229	318.31
590.651	332.36
591.073	301.93
591.494	297.25
591.916	337.04
592.337	266.82
592.759	259.8
593.18	320.65
593.601	388.53
594.022	327.67
594.444	311.29
594.865	304.27
595.286	330.02
595.707	330.02
596.128	365.12
596.549	297.25
596.97	278.52
597.39	283.2
597.811	334.7
598.232	346.4
598.652	304.27
599.073	308.95
599.494	236.39
599.914	271.5
600.334	285.55
600.755	278.52
601.175	341.72
601.595	315.97
602.015	234.05
602.436	292.57
602.856	402.57
603.276	344.06
603.696	290.23
604.115	262.14
604.535	273.84
604.955	337.04
605.375	322.99
605.794	332.36
606.214	294.91
606.634	320.65
607.053	355.76
607.473	362.78
607.892	344.06
608.311	269.16
608.731	320.65
609.15	322.99
609.569	266.82
609.988	313.63
610.407	257.46
610.826	348.74
611.245	306.61
611.664	334.7
612.083	241.08
612.501	306.61
612.92	301.93
613.339	337.04
613.757	210.65
614.176	271.5
614.594	332.36
615.013	278.52
615.431	285.55
615.85	278.52
616.268	332.36
616.686	273.84
617.104	351.08
617.522	306.61
617.94	322.99
618.358	301.93
618.776	395.55
619.194	325.33
619.612	280.86
620.03	381.51
620.447	320.65
620.865	330.02
621.282	266.82
621.7	271.5
622.117	341.72
622.535	287.89
622.952	264.48
623.369	301.93
623.787	313.63
624.204	301.93
624.621	313.63
625.038	339.38
625.455	330.02
625.872	231.71
626.289	273.84
626.706	311.29
627.123	362.78
627.539	297.25
627.956	304.27
628.373	236.39
628.789	395.55
629.206	351.08
629.622	332.36
630.038	348.74
630.455	320.65
630.871	330.02
631.287	306.61
631.703	301.93
632.12	367.46
632.536	315.97
632.952	339.38
633.368	318.31
633.783	315.97
634.199	306.61
634.615	308.95
635.031	292.57
635.446	252.78
635.862	327.67
636.277	308.95
636.693	266.82
637.108	297.25
637.524	388.53
637.939	332.36
638.354	271.5
638.77	297.25
639.185	308.95
639.6	362.78
640.015	297.25
640.43	322.99
640.845	271.5
641.259	308.95
641.674	299.59
642.089	271.5
642.504	339.38
642.918	337.04
643.333	248.1
643.747	262.14
644.162	285.55
644.576	325.33
644.991	280.86
645.405	339.38
645.819	304.27
646.233	315.97
646.647	304.27
647.061	262.14
647.475	297.25
647.889	358.1
648.303	294.91
648.717	259.8
649.131	308.95
649.545	266.82
649.958	259.8
650.372	315.97
650.785	322.99
651.199	271.5
651.612	236.39
652.026	290.23
652.439	313.63
652.852	292.57
653.266	313.63
653.679	273.84
654.092	355.76
654.505	278.52
654.918	292.57
655.331	315.97
655.744	306.61
656.156	313.63
656.569	346.4
656.982	297.25
657.394	332.36
657.807	402.57
658.22	301.93
658.632	299.59
659.044	308.95
659.457	297.25
659.869	355.76
660.281	297.25
660.693	257.46
661.106	332.36
661.518	294.91
661.93	327.67
662.342	304.27
662.754	390.87
663.165	301.93
663.577	330.02
663.989	262.14
664.401	297.25
664.812	280.86
665.224	334.7
665.635	306.61
666.047	205.97
666.458	402.57
666.869	308.95
667.281	332.36
667.692	238.73
668.103	252.78
668.514	285.55
668.925	308.95
669.336	353.42
669.747	245.76
670.158	285.55
670.569	320.65
670.979	285.55
671.39	290.23
671.801	236.39
672.211	273.84
672.622	325.33
673.032	287.89
673.443	322.99
673.853	236.39
674.263	362.78
674.674	337.04
675.084	299.59
675.494	287.89
675.904	297.25
676.314	332.36
676.724	313.63
677.134	280.86
677.544	318.31
677.953	304.27
678.363	325.33
678.773	362.78
679.182	351.08
679.592	257.46
680.001	362.78
680.411	285.55
680.82	252.78
681.23	241.08
681.639	287.89
682.048	322.99
682.457	344.06
682.866	285.55
683.275	299.59
683.684	285.55
684.093	217.67
684.502	318.31
684.911	315.97
685.32	294.91
685.728	320.65
686.137	297.25
686.546	341.72
686.954	308.95
687.363	344.06
687.771	334.7
688.179	243.42
688.588	301.93
688.996	299.59
689.404	243.42
689.812	304.27
690.22	299.59
690.628	283.2
691.036	313.63
691.444	271.5
691.852	367.46
692.26	313.63
692.667	386.19
693.075	306.61
693.483	318.31
693.89	339.38
694.298	325.33
694.705	292.57
695.112	308.95
695.52	337.04
695.927	208.31
696.334	318.31
696.741	330.02
697.148	280.86
697.555	285.55
697.962	306.61
698.369	327.67
698.776	297.25
699.183	327.67
699.59	283.2
699.996	280.86
700.403	299.59
700.81	299.59
701.216	374.49
701.623	264.48
702.029	313.63
702.435	276.18
702.842	327.67
703.248	299.59
703.654	245.76
704.06	301.93
704.466	297.25
704.872	318.31
705.278	308.95
705.684	301.93
706.09	292.57
706.496	294.91
706.901	304.27
707.307	327.67
707.712	348.74
708.118	315.97
708.523	292.57
708.929	306.61
709.334	308.95
709.74	273.84
710.145	280.86
710.55	283.2
710.955	276.18
711.36	407.25
711.765	301.93
712.17	294.91
712.575	334.7
712.98	929.19
713.385	372.15
713.789	311.29
714.194	348.74
714.599	257.46
715.003	283.2
715.408	313.63
715.812	306.61
716.217	283.2
716.621	278.52
717.025	311.29
717.429	255.12
717.833	257.46
718.238	306.61
718.642	337.04
719.046	287.89
719.449	273.84
719.853	287.89
720.257	304.27
720.661	243.42
721.065	271.5
721.468	273.84
721.872	299.59
722.275	292.57
722.679	285.55
723.082	252.78
723.485	273.84
723.889	280.86
724.292	278.52
724.695	273.84
725.098	271.5
725.501	255.12
725.904	266.82
726.307	327.67
726.71	320.65
727.113	248.1
727.516	320.65
727.918	301.93
728.321	313.63
728.724	259.8
729.126	273.84
729.529	320.65
729.931	325.33
730.333	297.25
730.736	252.78
731.138	273.84
731.54	334.7
731.942	280.86
732.344	271.5
732.746	322.99
733.148	306.61
733.55	299.59
733.952	365.12
734.354	341.72
734.756	278.52
735.157	308.95
735.559	308.95
735.96	280.86
736.362	320.65
736.763	299.59
737.165	290.23
737.566	313.63
737.967	271.5
738.368	344.06
738.77	252.78
739.171	266.82
739.572	330.02
739.973	304.27
740.374	290.23
740.774	308.95
741.175	330.02
741.576	264.48
741.977	325.33
742.377	290.23
742.778	304.27
743.178	320.65
743.579	297.25
743.979	308.95
744.379	257.46
744.78	353.42
745.18	320.65
745.58	252.78
745.98	290.23
746.38	259.8
746.78	346.4
747.18	241.08
747.58	322.99
747.98	220.01
748.38	351.08
748.779	294.91
749.179	304.27
749.578	301.93
749.978	315.97
750.377	311.29
750.777	287.89
751.176	283.2
751.575	353.42
751.975	304.27
752.374	334.7
752.773	285.55
753.172	269.16
753.571	318.31
753.97	264.48
754.369	388.53
754.768	315.97
755.166	294.91
755.565	299.59
755.964	212.99
756.362	283.2
756.761	238.73
757.159	320.65
757.558	327.67
757.956	318.31
758.354	287.89
758.753	180.22
759.151	287.89
759.549	285.55
759.947	266.82
760.345	257.46
760.743	292.57
761.141	276.18
761.539	301.93
761.936	320.65
762.334	334.7
762.732	344.06
763.129	273.84
763.527	334.7
763.924	297.25
764.322	313.63
764.719	243.42
