Data from Al_FLMS009871__1081__16-29-41-805.txt Node

Date: Fri Mar 08 16:29:41 CST 2024
User: pe5414po
Spectrometer: FLMS00987
Trigger mode: 0
Integration Time (sec): 1.000000E-1
Scans to average: 1
Electric dark correction enabled: true
Nonlinearity correction enabled: false
Boxcar width: 0
XAxis mode: Wavelengths
Number of Pixels in Spectrum: 2048
>>>>>Begin Spectral Data<<<<<
188.938	-59.54
189.409	-59.54
189.879	-59.54
190.349	-78.26
190.819	-94.65
191.29	-118.05
191.76	-64.22
192.23	-106.35
192.7	-57.2
193.17	-64.22
193.64	-57.2
194.109	6
194.579	-5.71
195.049	-22.09
195.519	34.08
195.988	34.08
196.458	8.34
196.927	55.15
197.397	73.87
197.866	125.36
198.336	158.13
198.805	141.75
199.274	160.47
199.744	235.37
200.213	181.54
200.682	188.56
201.151	244.73
201.62	296.22
202.089	249.41
202.558	256.43
203.027	211.96
203.495	216.65
203.964	256.43
204.433	303.25
204.902	331.33
205.37	321.97
205.839	328.99
206.307	307.93
206.776	368.78
207.244	321.97
207.712	284.52
208.181	268.14
208.649	319.63
209.117	317.29
209.585	312.61
210.053	364.1
210.521	293.88
210.989	272.82
211.457	291.54
211.925	270.48
212.393	296.22
212.861	303.25
213.328	310.27
213.796	343.03
214.264	263.46
214.731	298.56
215.199	293.88
215.666	263.46
216.133	284.52
216.601	333.67
217.068	319.63
217.535	284.52
218.003	286.86
218.47	270.48
218.937	256.43
219.404	314.95
219.871	223.67
220.338	270.48
220.805	352.4
221.271	275.16
221.738	251.75
222.205	324.31
222.671	277.5
223.138	247.07
223.605	251.75
224.071	263.46
224.538	247.07
225.004	298.56
225.47	233.03
225.937	328.99
226.403	277.5
226.869	242.39
227.335	310.27
227.801	300.91
228.267	291.54
228.733	233.03
229.199	291.54
229.665	244.73
230.131	319.63
230.597	258.78
231.062	357.08
231.528	277.5
231.994	328.99
232.459	291.54
232.925	336.01
233.39	324.31
233.856	284.52
234.321	305.59
234.786	291.54
235.252	272.82
235.717	317.29
236.182	284.52
236.647	340.69
237.112	272.82
237.577	282.18
238.042	277.5
238.507	336.01
238.972	223.67
239.436	282.18
239.901	263.46
240.366	307.93
240.83	258.78
241.295	291.54
241.76	277.5
242.224	296.22
242.688	272.82
243.153	284.52
243.617	258.78
244.081	284.52
244.545	340.69
245.01	286.86
245.474	312.61
245.938	350.06
246.402	284.52
246.866	256.43
247.33	279.84
247.793	303.25
248.257	317.29
248.721	233.03
249.185	326.65
249.648	286.86
250.112	326.65
250.575	244.73
251.039	314.95
251.502	338.35
251.965	265.8
252.429	300.91
252.892	310.27
253.355	345.38
253.818	310.27
254.281	321.97
254.744	263.46
255.207	319.63
255.67	272.82
256.133	310.27
256.596	373.46
257.059	357.08
257.522	324.31
257.984	235.37
258.447	324.31
258.909	282.18
259.372	277.5
259.834	256.43
260.297	300.91
260.759	279.84
261.221	291.54
261.684	326.65
262.146	293.88
262.608	249.41
263.07	328.99
263.532	314.95
263.994	338.35
264.456	284.52
264.918	345.38
265.38	282.18
265.842	331.33
266.303	310.27
266.765	345.38
267.227	291.54
267.688	296.22
268.15	251.75
268.611	305.59
269.072	296.22
269.534	296.22
269.995	336.01
270.456	300.91
270.918	293.88
271.379	368.78
271.84	317.29
272.301	286.86
272.762	268.14
273.223	336.01
273.684	326.65
274.144	296.22
274.605	312.61
275.066	321.97
275.527	272.82
275.987	291.54
276.448	279.84
276.908	289.2
277.369	312.61
277.829	305.59
278.289	338.35
278.75	305.59
279.21	338.35
279.67	312.61
280.13	247.07
280.59	277.5
281.05	317.29
281.51	352.4
281.97	345.38
282.43	251.75
282.89	279.84
283.35	254.09
283.809	340.69
284.269	328.99
284.729	314.95
285.188	249.41
285.648	296.22
286.107	303.25
286.567	305.59
287.026	307.93
287.485	293.88
287.944	303.25
288.404	345.38
288.863	270.48
289.322	277.5
289.781	312.61
290.24	336.01
290.699	305.59
291.158	343.03
291.616	317.29
292.075	312.61
292.534	272.82
292.992	331.33
293.451	289.2
293.91	333.67
294.368	345.38
294.827	286.86
295.285	307.93
295.743	352.4
296.202	336.01
296.66	282.18
297.118	321.97
297.576	338.35
298.034	270.48
298.492	403.89
298.95	296.22
299.408	336.01
299.866	286.86
300.324	347.72
300.781	319.63
301.239	270.48
301.697	272.82
302.154	345.38
302.612	305.59
303.069	352.4
303.527	333.67
303.984	324.31
304.441	240.05
304.899	340.69
305.356	303.25
305.813	312.61
306.27	312.61
306.727	326.65
307.184	326.65
307.641	289.2
308.098	251.75
308.555	256.43
309.012	305.59
309.468	282.18
309.925	314.95
310.382	389.85
310.838	298.56
311.295	340.69
311.751	244.73
312.208	289.2
312.664	275.16
313.12	286.86
313.577	340.69
314.033	328.99
314.489	338.35
314.945	326.65
315.401	289.2
315.857	326.65
316.313	300.91
316.769	436.66
317.225	361.76
317.681	305.59
318.136	282.18
318.592	296.22
319.048	321.97
319.503	270.48
319.959	289.2
320.414	282.18
320.869	336.01
321.325	326.65
321.78	361.76
322.235	347.72
322.691	300.91
323.146	361.76
323.601	361.76
324.056	331.33
324.511	286.86
324.966	277.5
325.421	317.29
325.875	317.29
326.33	345.38
326.785	293.88
327.24	359.42
327.694	286.86
328.149	286.86
328.603	244.73
329.058	336.01
329.512	373.46
329.966	312.61
330.421	359.42
330.875	216.65
331.329	338.35
331.783	296.22
332.237	401.55
332.691	373.46
333.145	272.82
333.599	305.59
334.053	312.61
334.507	291.54
334.96	291.54
335.414	333.67
335.868	256.43
336.321	284.52
336.775	296.22
337.228	305.59
337.682	303.25
338.135	364.1
338.588	331.33
339.042	331.33
339.495	340.69
339.948	275.16
340.401	352.4
340.854	336.01
341.307	321.97
341.76	317.29
342.213	336.01
342.666	336.01
343.119	324.31
343.571	331.33
344.024	305.59
344.477	328.99
344.929	343.03
345.382	336.01
345.834	303.25
346.287	340.69
346.739	310.27
347.191	373.46
347.644	347.72
348.096	359.42
348.548	336.01
349	319.63
349.452	305.59
349.904	338.35
350.356	298.56
350.808	324.31
351.26	300.91
351.711	368.78
352.163	291.54
352.615	314.95
353.066	378.14
353.518	305.59
353.969	284.52
354.421	343.03
354.872	354.74
355.324	312.61
355.775	303.25
356.226	336.01
356.677	345.38
357.128	296.22
357.579	350.06
358.03	321.97
358.481	244.73
358.932	300.91
359.383	364.1
359.834	270.48
360.285	354.74
360.735	357.08
361.186	394.53
361.637	268.14
362.087	296.22
362.538	352.4
362.988	357.08
363.438	380.48
363.889	279.84
364.339	345.38
364.789	368.78
365.239	394.53
365.689	345.38
366.139	300.91
366.589	343.03
367.039	326.65
367.489	352.4
367.939	352.4
368.389	286.86
368.839	303.25
369.288	258.78
369.738	345.38
370.187	317.29
370.637	401.55
371.086	317.29
371.536	331.33
371.985	343.03
372.434	268.14
372.884	343.03
373.333	375.8
373.782	293.88
374.231	373.46
374.68	317.29
375.129	354.74
375.578	291.54
376.027	331.33
376.475	343.03
376.924	357.08
377.373	277.5
377.822	328.99
378.27	312.61
378.719	326.65
379.167	300.91
379.616	284.52
380.064	240.05
380.512	303.25
380.961	338.35
381.409	324.31
381.857	350.06
382.305	378.14
382.753	270.48
383.201	314.95
383.649	289.2
384.097	359.42
384.545	279.84
384.992	314.95
385.44	364.1
385.888	314.95
386.335	359.42
386.783	226.01
387.231	307.93
387.678	305.59
388.125	303.25
388.573	321.97
389.02	263.46
389.467	310.27
389.914	284.52
390.362	303.25
390.809	312.61
391.256	328.99
391.703	385.16
392.15	321.97
392.596	378.14
393.043	364.1
393.49	324.31
393.937	277.5
394.383	387.5
394.83	265.8
395.276	324.31
395.723	406.23
396.169	317.29
396.616	270.48
397.062	368.78
397.508	373.46
397.954	378.14
398.401	268.14
398.847	380.48
399.293	331.33
399.739	310.27
400.185	368.78
400.631	321.97
401.076	265.8
401.522	340.69
401.968	385.16
402.414	284.52
402.859	345.38
403.305	345.38
403.75	373.46
404.196	343.03
404.641	336.01
405.086	375.8
405.532	291.54
405.977	371.12
406.422	359.42
406.867	403.89
407.312	366.44
407.757	361.76
408.202	317.29
408.647	321.97
409.092	338.35
409.537	286.86
409.982	279.84
410.426	291.54
410.871	331.33
411.316	282.18
411.76	228.35
412.205	347.72
412.649	361.76
413.093	345.38
413.538	380.48
413.982	321.97
414.426	310.27
414.87	336.01
415.314	277.5
415.758	275.16
416.202	359.42
416.646	328.99
417.09	296.22
417.534	392.19
417.978	317.29
418.421	350.06
418.865	296.22
419.309	293.88
419.752	296.22
420.196	310.27
420.639	336.01
421.083	317.29
421.526	265.8
421.969	378.14
422.412	324.31
422.856	286.86
423.299	389.85
423.742	410.91
424.185	326.65
424.628	293.88
425.071	373.46
425.513	396.87
425.956	258.78
426.399	268.14
426.842	279.84
427.284	333.67
427.727	270.48
428.169	270.48
428.612	331.33
429.054	324.31
429.497	392.19
429.939	305.59
430.381	286.86
430.823	340.69
431.265	303.25
431.707	314.95
432.149	209.62
432.591	345.38
433.033	364.1
433.475	331.33
433.917	359.42
434.359	317.29
434.8	272.82
435.242	343.03
435.684	345.38
436.125	321.97
436.567	361.76
437.008	300.91
437.449	312.61
437.891	375.8
438.332	345.38
438.773	312.61
439.214	282.18
439.656	317.29
440.097	347.72
440.538	389.85
440.978	270.48
441.419	328.99
441.86	347.72
442.301	380.48
442.742	303.25
443.182	291.54
443.623	343.03
444.063	347.72
444.504	312.61
444.944	270.48
445.385	319.63
445.825	284.52
446.265	291.54
446.706	354.74
447.146	375.8
447.586	305.59
448.026	251.75
448.466	375.8
448.906	347.72
449.346	328.99
449.786	350.06
450.225	333.67
450.665	347.72
451.105	338.35
451.544	296.22
451.984	396.87
452.424	293.88
452.863	347.72
453.302	328.99
453.742	350.06
454.181	359.42
454.62	340.69
455.059	310.27
455.499	394.53
455.938	336.01
456.377	392.19
456.816	350.06
457.254	371.12
457.693	338.35
458.132	310.27
458.571	296.22
459.01	317.29
459.448	331.33
459.887	296.22
460.325	385.16
460.764	312.61
461.202	385.16
461.641	350.06
462.079	303.25
462.517	343.03
462.955	284.52
463.393	282.18
463.832	303.25
464.27	303.25
464.708	331.33
465.145	359.42
465.583	333.67
466.021	326.65
466.459	415.59
466.897	368.78
467.334	289.2
467.772	340.69
468.209	347.72
468.647	326.65
469.084	303.25
469.522	310.27
469.959	354.74
470.396	310.27
470.833	361.76
471.271	359.42
471.708	235.37
472.145	343.03
472.582	375.8
473.019	284.52
473.456	364.1
473.892	319.63
474.329	350.06
474.766	319.63
475.202	317.29
475.639	324.31
476.076	300.91
476.512	317.29
476.949	300.91
477.385	254.09
477.821	284.52
478.258	328.99
478.694	347.72
479.13	226.01
479.566	319.63
480.002	303.25
480.438	324.31
480.874	333.67
481.31	310.27
481.746	300.91
482.181	303.25
482.617	368.78
483.053	378.14
483.488	357.08
483.924	338.35
484.36	317.29
484.795	364.1
485.23	392.19
485.666	347.72
486.101	366.44
486.536	324.31
486.971	300.91
487.407	314.95
487.842	328.99
488.277	310.27
488.712	350.06
489.146	338.35
489.581	284.52
490.016	305.59
490.451	380.48
490.885	256.43
491.32	324.31
491.755	279.84
492.189	331.33
492.624	331.33
493.058	359.42
493.492	331.33
493.927	314.95
494.361	326.65
494.795	298.56
495.229	345.38
495.663	298.56
496.097	312.61
496.531	366.44
496.965	249.41
497.399	286.86
497.833	357.08
498.266	345.38
498.7	366.44
499.134	321.97
499.567	317.29
500.001	324.31
500.434	357.08
500.868	300.91
501.301	331.33
501.734	310.27
502.168	317.29
502.601	352.4
503.034	319.63
503.467	270.48
503.9	343.03
504.333	408.57
504.766	359.42
505.199	366.44
505.632	305.59
506.064	279.84
506.497	293.88
506.93	382.82
507.362	375.8
507.795	247.07
508.227	333.67
508.66	359.42
509.092	357.08
509.524	380.48
509.956	359.42
510.389	326.65
510.821	373.46
511.253	291.54
511.685	373.46
512.117	326.65
512.549	272.82
512.981	263.46
513.412	291.54
513.844	352.4
514.276	286.86
514.707	361.76
515.139	347.72
515.571	333.67
516.002	284.52
516.433	415.59
516.865	345.38
517.296	394.53
517.727	350.06
518.159	321.97
518.59	368.78
519.021	357.08
519.452	385.16
519.883	307.93
520.314	256.43
520.744	359.42
521.175	403.89
521.606	328.99
522.037	244.73
522.467	336.01
522.898	270.48
523.328	352.4
523.759	361.76
524.189	361.76
524.62	371.12
525.05	357.08
525.48	298.56
525.91	321.97
526.341	396.87
526.771	350.06
527.201	366.44
527.631	268.14
528.061	303.25
528.49	275.16
528.92	293.88
529.35	240.05
529.78	275.16
530.209	312.61
530.639	326.65
531.068	265.8
531.498	321.97
531.927	307.93
532.357	392.19
532.786	324.31
533.215	359.42
533.644	387.5
534.074	310.27
534.503	305.59
534.932	359.42
535.361	326.65
535.79	303.25
536.218	324.31
536.647	312.61
537.076	336.01
537.505	300.91
537.933	359.42
538.362	298.56
538.79	317.29
539.219	282.18
539.647	347.72
540.076	284.52
540.504	357.08
540.932	310.27
541.36	310.27
541.788	343.03
542.217	354.74
542.645	277.5
543.073	249.41
543.5	389.85
543.928	317.29
544.356	319.63
544.784	289.2
545.211	345.38
545.639	261.12
546.067	277.5
546.494	361.76
546.922	258.78
547.349	347.72
547.776	282.18
548.204	364.1
548.631	359.42
549.058	289.2
549.485	314.95
549.912	310.27
550.339	347.72
550.766	359.42
551.193	314.95
551.62	270.48
552.047	343.03
552.474	366.44
552.9	312.61
553.327	321.97
553.754	352.4
554.18	331.33
554.607	291.54
555.033	336.01
555.459	331.33
555.886	293.88
556.312	350.06
556.738	343.03
557.164	314.95
557.59	293.88
558.016	284.52
558.442	326.65
558.868	331.33
559.294	396.87
559.72	307.93
560.145	326.65
560.571	352.4
560.997	298.56
561.422	298.56
561.848	286.86
562.273	361.76
562.699	345.38
563.124	277.5
563.549	282.18
563.974	359.42
564.4	312.61
564.825	385.16
565.25	340.69
565.675	286.86
566.1	317.29
566.525	345.38
566.95	310.27
567.374	261.12
567.799	359.42
568.224	347.72
568.648	300.91
569.073	385.16
569.497	314.95
569.922	317.29
570.346	347.72
570.771	366.44
571.195	300.91
571.619	378.14
572.043	338.35
572.467	291.54
572.891	314.95
573.315	352.4
573.739	336.01
574.163	357.08
574.587	403.89
575.011	382.82
575.435	354.74
575.858	268.14
576.282	277.5
576.705	300.91
577.129	343.03
577.552	291.54
577.976	364.1
578.399	340.69
578.822	333.67
579.245	336.01
579.669	403.89
580.092	305.59
580.515	382.82
580.938	368.78
581.361	328.99
581.784	338.35
582.206	298.56
582.629	268.14
583.052	317.29
583.474	268.14
583.897	314.95
584.32	300.91
584.742	336.01
585.165	305.59
585.587	312.61
586.009	279.84
586.431	291.54
586.854	333.67
587.276	251.75
587.698	410.91
588.12	371.12
588.542	319.63
588.964	359.42
589.386	300.91
589.807	403.89
590.229	331.33
590.651	296.22
591.073	354.74
591.494	371.12
591.916	380.48
592.337	336.01
592.759	303.25
593.18	254.09
593.601	354.74
594.022	303.25
594.444	357.08
594.865	293.88
595.286	347.72
595.707	314.95
596.128	345.38
596.549	328.99
596.97	345.38
597.39	263.46
597.811	326.65
598.232	296.22
598.652	352.4
599.073	347.72
599.494	338.35
599.914	333.67
600.334	364.1
600.755	298.56
601.175	291.54
601.595	319.63
602.015	289.2
602.436	352.4
602.856	441.34
603.276	300.91
603.696	357.08
604.115	296.22
604.535	359.42
604.955	314.95
605.375	333.67
605.794	357.08
606.214	284.52
606.634	326.65
607.053	307.93
607.473	359.42
607.892	371.12
608.311	270.48
608.731	314.95
609.15	385.16
609.569	345.38
609.988	289.2
610.407	296.22
610.826	336.01
611.245	347.72
611.664	324.31
612.083	366.44
612.501	364.1
612.92	314.95
613.339	333.67
613.757	312.61
614.176	371.12
614.594	403.89
615.013	368.78
615.431	317.29
615.85	312.61
616.268	382.82
616.686	319.63
617.104	312.61
617.522	375.8
617.94	364.1
618.358	314.95
618.776	300.91
619.194	312.61
619.612	361.76
620.03	291.54
620.447	242.39
620.865	300.91
621.282	420.27
621.7	336.01
622.117	300.91
622.535	361.76
622.952	296.22
623.369	310.27
623.787	352.4
624.204	347.72
624.621	321.97
625.038	303.25
625.455	343.03
625.872	336.01
626.289	319.63
626.706	354.74
627.123	317.29
627.539	326.65
627.956	347.72
628.373	314.95
628.789	328.99
629.206	310.27
629.622	305.59
630.038	371.12
630.455	317.29
630.871	366.44
631.287	300.91
631.703	293.88
632.12	359.42
632.536	300.91
632.952	310.27
633.368	258.78
633.783	312.61
634.199	336.01
634.615	343.03
635.031	305.59
635.446	331.33
635.862	368.78
636.277	338.35
636.693	307.93
637.108	326.65
637.524	368.78
637.939	354.74
638.354	310.27
638.77	291.54
639.185	277.5
639.6	373.46
640.015	371.12
640.43	389.85
640.845	314.95
641.259	284.52
641.674	319.63
642.089	331.33
642.504	270.48
642.918	387.5
643.333	345.38
643.747	310.27
644.162	279.84
644.576	343.03
644.991	336.01
645.405	277.5
645.819	324.31
646.233	305.59
646.647	265.8
647.061	328.99
647.475	336.01
647.889	256.43
648.303	331.33
648.717	279.84
649.131	352.4
649.545	282.18
649.958	312.61
650.372	336.01
650.785	352.4
651.199	336.01
651.612	249.41
652.026	350.06
652.439	361.76
652.852	307.93
653.266	305.59
653.679	350.06
654.092	307.93
654.505	312.61
654.918	347.72
655.331	340.69
655.744	345.38
656.156	361.76
656.569	293.88
656.982	357.08
657.394	312.61
657.807	338.35
658.22	298.56
658.632	312.61
659.044	361.76
659.457	312.61
659.869	324.31
660.281	324.31
660.693	312.61
661.106	242.39
661.518	350.06
661.93	303.25
662.342	345.38
662.754	298.56
663.165	347.72
663.577	279.84
663.989	312.61
664.401	314.95
664.812	333.67
665.224	343.03
665.635	310.27
666.047	326.65
666.458	364.1
666.869	359.42
667.281	382.82
667.692	310.27
668.103	324.31
668.514	399.21
668.925	317.29
669.336	291.54
669.747	300.91
670.158	331.33
670.569	326.65
670.979	300.91
671.39	319.63
671.801	324.31
672.211	340.69
672.622	375.8
673.032	305.59
673.443	399.21
673.853	340.69
674.263	345.38
674.674	343.03
675.084	368.78
675.494	331.33
675.904	303.25
676.314	310.27
676.724	279.84
677.134	298.56
677.544	303.25
677.953	261.12
678.363	343.03
678.773	427.29
679.182	305.59
679.592	307.93
680.001	338.35
680.411	321.97
680.82	284.52
681.23	331.33
681.639	310.27
682.048	347.72
682.457	345.38
682.866	284.52
683.275	359.42
683.684	310.27
684.093	282.18
684.502	380.48
684.911	251.75
685.32	303.25
685.728	371.12
686.137	333.67
686.546	303.25
686.954	347.72
687.363	350.06
687.771	270.48
688.179	359.42
688.588	378.14
688.996	380.48
689.404	336.01
689.812	352.4
690.22	350.06
690.628	340.69
691.036	275.16
691.444	305.59
691.852	293.88
692.26	350.06
692.667	326.65
693.075	321.97
693.483	326.65
693.89	336.01
694.298	293.88
694.705	272.82
695.112	359.42
695.52	328.99
695.927	333.67
696.334	279.84
696.741	296.22
697.148	303.25
697.555	263.46
697.962	359.42
698.369	258.78
698.776	289.2
699.183	279.84
699.59	305.59
699.996	317.29
700.403	289.2
700.81	300.91
701.216	357.08
701.623	275.16
702.029	282.18
702.435	324.31
702.842	357.08
703.248	375.8
703.654	326.65
704.06	361.76
704.466	303.25
704.872	305.59
705.278	380.48
705.684	296.22
706.09	336.01
706.496	364.1
706.901	326.65
707.307	289.2
707.712	326.65
708.118	333.67
708.523	403.89
708.929	328.99
709.334	413.25
709.74	305.59
710.145	345.38
710.55	305.59
710.955	310.27
711.36	352.4
711.765	321.97
712.17	347.72
712.575	359.42
712.98	932.85
713.385	350.06
713.789	340.69
714.194	338.35
714.599	336.01
715.003	303.25
715.408	350.06
715.812	312.61
716.217	328.99
716.621	300.91
717.025	424.95
717.429	420.27
717.833	317.29
718.238	343.03
718.642	324.31
719.046	317.29
719.449	343.03
719.853	324.31
720.257	350.06
720.661	345.38
721.065	300.91
721.468	336.01
721.872	298.56
722.275	303.25
722.679	282.18
723.082	343.03
723.485	277.5
723.889	357.08
724.292	340.69
724.695	296.22
725.098	321.97
725.501	293.88
725.904	328.99
726.307	336.01
726.71	364.1
727.113	354.74
727.516	387.5
727.918	272.82
728.321	254.09
728.724	310.27
729.126	305.59
729.529	303.25
729.931	324.31
730.333	324.31
730.736	328.99
731.138	303.25
731.54	336.01
731.942	293.88
732.344	336.01
732.746	300.91
733.148	307.93
733.55	300.91
733.952	284.52
734.354	244.73
734.756	352.4
735.157	324.31
735.559	333.67
735.96	289.2
736.362	371.12
736.763	345.38
737.165	345.38
737.566	321.97
737.967	286.86
738.368	293.88
738.77	296.22
739.171	328.99
739.572	312.61
739.973	345.38
740.374	321.97
740.774	350.06
741.175	286.86
741.576	307.93
741.977	324.31
742.377	392.19
742.778	321.97
743.178	307.93
743.579	352.4
743.979	326.65
744.379	258.78
744.78	321.97
745.18	338.35
745.58	303.25
745.98	291.54
746.38	345.38
746.78	312.61
747.18	333.67
747.58	317.29
747.98	324.31
748.38	347.72
748.779	321.97
749.179	331.33
749.578	319.63
749.978	312.61
750.377	249.41
750.777	345.38
751.176	368.78
751.575	408.57
751.975	350.06
752.374	321.97
752.773	240.05
753.172	303.25
753.571	382.82
753.97	354.74
754.369	326.65
754.768	256.43
755.166	261.12
755.565	394.53
755.964	333.67
756.362	338.35
756.761	261.12
757.159	324.31
757.558	296.22
757.956	364.1
758.354	347.72
758.753	291.54
759.151	251.75
759.549	298.56
759.947	347.72
760.345	347.72
760.743	258.78
761.141	310.27
761.539	357.08
761.936	403.89
762.334	286.86
762.732	321.97
763.129	343.03
763.527	305.59
763.924	338.35
764.322	345.38
