Data from Al_FLMS009871__1086__16-29-42-305.txt Node

Date: Fri Mar 08 16:29:42 CST 2024
User: pe5414po
Spectrometer: FLMS00987
Trigger mode: 0
Integration Time (sec): 1.000000E-1
Scans to average: 1
Electric dark correction enabled: true
Nonlinearity correction enabled: false
Boxcar width: 0
XAxis mode: Wavelengths
Number of Pixels in Spectrum: 2048
>>>>>Begin Spectral Data<<<<<
188.938	-103.13
189.409	-103.13
189.879	-103.13
190.349	-110.15
190.819	-140.58
191.29	-103.13
191.76	-86.75
192.23	-128.88
192.7	-98.45
193.17	-98.45
193.64	-32.91
194.109	-35.25
194.579	-14.19
195.049	25.6
195.519	49
195.988	63.05
196.458	41.98
196.927	86.45
197.397	119.22
197.866	88.79
198.336	123.9
198.805	128.58
199.274	163.69
199.744	147.31
200.213	217.52
200.682	191.78
201.151	226.89
201.62	245.61
202.089	217.52
202.558	201.14
203.027	208.16
203.495	201.14
203.964	290.08
204.433	215.18
204.902	278.38
205.37	294.76
205.839	315.83
206.307	285.4
206.776	322.85
207.244	269.02
207.712	269.02
208.181	222.2
208.649	259.65
209.117	278.38
209.585	240.93
210.053	329.87
210.521	254.97
210.989	240.93
211.457	283.06
211.925	222.2
212.393	224.55
212.861	271.36
213.328	250.29
213.796	243.27
214.264	301.78
214.731	238.59
215.199	266.67
215.666	292.42
216.133	252.63
216.601	219.86
217.068	259.65
217.535	278.38
218.003	257.31
218.47	238.59
218.937	297.1
219.404	212.84
219.871	212.84
220.338	198.8
220.805	264.33
221.271	259.65
221.738	278.38
222.205	292.42
222.671	252.63
223.138	219.86
223.605	231.57
224.071	315.83
224.538	238.59
225.004	266.67
225.47	245.61
225.937	269.02
226.403	226.89
226.869	287.74
227.335	273.7
227.801	224.55
228.267	278.38
228.733	294.76
229.199	287.74
229.665	219.86
230.131	201.14
230.597	273.7
231.062	226.89
231.528	250.29
231.994	254.97
232.459	278.38
232.925	233.91
233.39	294.76
233.856	236.25
234.321	243.27
234.786	287.74
235.252	238.59
235.717	254.97
236.182	285.4
236.647	336.89
237.112	292.42
237.577	292.42
238.042	247.95
238.507	250.29
238.972	261.99
239.436	233.91
239.901	266.67
240.366	287.74
240.83	273.7
241.295	299.44
241.76	285.4
242.224	231.57
242.688	254.97
243.153	243.27
243.617	233.91
244.081	264.33
244.545	240.93
245.01	238.59
245.474	261.99
245.938	266.67
246.402	229.23
246.866	311.14
247.33	278.38
247.793	271.36
248.257	273.7
248.721	292.42
249.185	285.4
249.648	273.7
250.112	238.59
250.575	243.27
251.039	266.67
251.502	236.25
251.965	266.67
252.429	254.97
252.892	294.76
253.355	254.97
253.818	318.17
254.281	259.65
254.744	318.17
255.207	273.7
255.67	294.76
256.133	276.04
256.596	325.19
257.059	257.31
257.522	294.76
257.984	226.89
258.447	278.38
258.909	301.78
259.372	264.33
259.834	315.83
260.297	290.08
260.759	292.42
261.221	280.72
261.684	243.27
262.146	320.51
262.608	299.44
263.07	290.08
263.532	280.72
263.994	285.4
264.456	257.31
264.918	219.86
265.38	266.67
265.842	276.04
266.303	254.97
266.765	254.97
267.227	259.65
267.688	269.02
268.15	254.97
268.611	257.31
269.072	308.8
269.534	343.91
269.995	222.2
270.456	257.31
270.918	315.83
271.379	336.89
271.84	278.38
272.301	325.19
272.762	343.91
273.223	287.74
273.684	369.66
274.144	301.78
274.605	236.25
275.066	273.7
275.527	269.02
275.987	287.74
276.448	299.44
276.908	290.08
277.369	266.67
277.829	357.96
278.289	250.29
278.75	294.76
279.21	355.62
279.67	283.06
280.13	332.21
280.59	320.51
281.05	297.1
281.51	318.17
281.97	313.49
282.43	325.19
282.89	280.72
283.35	315.83
283.809	276.04
284.269	320.51
284.729	301.78
285.188	299.44
285.648	339.23
286.107	311.14
286.567	276.04
287.026	271.36
287.485	304.12
287.944	285.4
288.404	261.99
288.863	212.84
289.322	332.21
289.781	264.33
290.24	240.93
290.699	285.4
291.158	301.78
291.616	311.14
292.075	252.63
292.534	259.65
292.992	259.65
293.451	341.57
293.91	285.4
294.368	276.04
294.827	348.59
295.285	283.06
295.743	269.02
296.202	334.55
296.66	264.33
297.118	313.49
297.576	308.8
298.034	297.1
298.492	325.19
298.95	285.4
299.408	306.46
299.866	313.49
300.324	353.27
300.781	334.55
301.239	315.83
301.697	301.78
302.154	264.33
302.612	329.87
303.069	301.78
303.527	273.7
303.984	294.76
304.441	304.12
304.899	308.8
305.356	290.08
305.813	304.12
306.27	367.32
306.727	297.1
307.184	304.12
307.641	364.98
308.098	236.25
308.555	276.04
309.012	236.25
309.468	334.55
309.925	332.21
310.382	276.04
310.838	269.02
311.295	350.93
311.751	311.14
312.208	245.61
312.664	339.23
313.12	306.46
313.577	287.74
314.033	280.72
314.489	271.36
314.945	285.4
315.401	273.7
315.857	372
316.313	313.49
316.769	318.17
317.225	287.74
317.681	266.67
318.136	273.7
318.592	306.46
319.048	266.67
319.503	273.7
319.959	287.74
320.414	336.89
320.869	278.38
321.325	259.65
321.78	299.44
322.235	292.42
322.691	290.08
323.146	320.51
323.601	245.61
324.056	322.85
324.511	299.44
324.966	304.12
325.421	238.59
325.875	290.08
326.33	250.29
326.785	266.67
327.24	269.02
327.694	250.29
328.149	247.95
328.603	297.1
329.058	287.74
329.512	287.74
329.966	325.19
330.421	320.51
330.875	226.89
331.329	325.19
331.783	297.1
332.237	339.23
332.691	261.99
333.145	304.12
333.599	306.46
334.053	292.42
334.507	322.85
334.96	327.53
335.414	287.74
335.868	306.46
336.321	332.21
336.775	325.19
337.228	318.17
337.682	297.1
338.135	297.1
338.588	325.19
339.042	240.93
339.495	341.57
339.948	306.46
340.401	301.78
340.854	273.7
341.307	297.1
341.76	283.06
342.213	325.19
342.666	299.44
343.119	360.3
343.571	339.23
344.024	360.3
344.477	315.83
344.929	299.44
345.382	339.23
345.834	304.12
346.287	339.23
346.739	343.91
347.191	327.53
347.644	322.85
348.096	315.83
348.548	271.36
349	325.19
349.452	332.21
349.904	334.55
350.356	273.7
350.808	355.62
351.26	315.83
351.711	287.74
352.163	320.51
352.615	327.53
353.066	299.44
353.518	292.42
353.969	357.96
354.421	341.57
354.872	294.76
355.324	308.8
355.775	229.23
356.226	304.12
356.677	273.7
357.128	348.59
357.579	336.89
358.03	240.93
358.481	278.38
358.932	294.76
359.383	247.95
359.834	299.44
360.285	320.51
360.735	357.96
361.186	297.1
361.637	301.78
362.087	322.85
362.538	299.44
362.988	308.8
363.438	287.74
363.889	313.49
364.339	301.78
364.789	290.08
365.239	247.95
365.689	306.46
366.139	334.55
366.589	294.76
367.039	327.53
367.489	311.14
367.939	264.33
368.389	329.87
368.839	348.59
369.288	229.23
369.738	261.99
370.187	336.89
370.637	336.89
371.086	327.53
371.536	334.55
371.985	271.36
372.434	327.53
372.884	332.21
373.333	369.66
373.782	348.59
374.231	266.67
374.68	355.62
375.129	269.02
375.578	292.42
376.027	393.06
376.475	334.55
376.924	327.53
377.373	376.68
377.822	327.53
378.27	304.12
378.719	259.65
379.167	364.98
379.616	322.85
380.064	294.76
380.512	339.23
380.961	343.91
381.409	299.44
381.857	250.29
382.305	343.91
382.753	294.76
383.201	254.97
383.649	322.85
384.097	250.29
384.545	357.96
384.992	264.33
385.44	346.25
385.888	297.1
386.335	343.91
386.783	350.93
387.231	294.76
387.678	327.53
388.125	301.78
388.573	339.23
389.02	372
389.467	325.19
389.914	341.57
390.362	313.49
390.809	294.76
391.256	339.23
391.703	311.14
392.15	287.74
392.596	348.59
393.043	404.77
393.49	285.4
393.937	341.57
394.383	269.02
394.83	243.27
395.276	299.44
395.723	329.87
396.169	292.42
396.616	301.78
397.062	360.3
397.508	308.8
397.954	243.27
398.401	290.08
398.847	290.08
399.293	283.06
399.739	308.8
400.185	294.76
400.631	322.85
401.076	299.44
401.522	336.89
401.968	313.49
402.414	362.64
402.859	259.65
403.305	350.93
403.75	243.27
404.196	329.87
404.641	311.14
405.086	273.7
405.532	320.51
405.977	294.76
406.422	257.31
406.867	290.08
407.312	341.57
407.757	313.49
408.202	357.96
408.647	306.46
409.092	285.4
409.537	325.19
409.982	357.96
410.426	308.8
410.871	353.27
411.316	292.42
411.76	259.65
412.205	308.8
412.649	290.08
413.093	325.19
413.538	280.72
413.982	292.42
414.426	346.25
414.87	313.49
415.314	297.1
415.758	327.53
416.202	327.53
416.646	397.74
417.09	278.38
417.534	297.1
417.978	332.21
418.421	322.85
418.865	343.91
419.309	292.42
419.752	283.06
420.196	301.78
420.639	306.46
421.083	315.83
421.526	252.63
421.969	290.08
422.412	304.12
422.856	315.83
423.299	287.74
423.742	332.21
424.185	336.89
424.628	329.87
425.071	320.51
425.513	325.19
425.956	273.7
426.399	322.85
426.842	364.98
427.284	318.17
427.727	325.19
428.169	360.3
428.612	372
429.054	374.34
429.497	327.53
429.939	283.06
430.381	339.23
430.823	292.42
431.265	322.85
431.707	327.53
432.149	285.4
432.591	318.17
433.033	280.72
433.475	315.83
433.917	336.89
434.359	264.33
434.8	327.53
435.242	252.63
435.684	297.1
436.125	383.7
436.567	327.53
437.008	369.66
437.449	360.3
437.891	311.14
438.332	299.44
438.773	271.36
439.214	301.78
439.656	292.42
440.097	313.49
440.538	304.12
440.978	336.89
441.419	276.04
441.86	336.89
442.301	339.23
442.742	334.55
443.182	322.85
443.623	353.27
444.063	294.76
444.504	355.62
444.944	381.36
445.385	264.33
445.825	334.55
446.265	372
446.706	285.4
447.146	329.87
447.586	360.3
448.026	367.32
448.466	348.59
448.906	306.46
449.346	313.49
449.786	395.4
450.225	308.8
450.665	238.59
451.105	343.91
451.544	311.14
451.984	322.85
452.424	276.04
452.863	348.59
453.302	320.51
453.742	285.4
454.181	311.14
454.62	315.83
455.059	290.08
455.499	383.7
455.938	306.46
456.377	290.08
456.816	320.51
457.254	257.31
457.693	261.99
458.132	315.83
458.571	332.21
459.01	336.89
459.448	212.84
459.887	280.72
460.325	287.74
460.764	311.14
461.202	266.67
461.641	418.81
462.079	407.11
462.517	362.64
462.955	308.8
463.393	400.09
463.832	315.83
464.27	292.42
464.708	283.06
465.145	304.12
465.583	306.46
466.021	306.46
466.459	276.04
466.897	322.85
467.334	306.46
467.772	339.23
468.209	343.91
468.647	278.38
469.084	306.46
469.522	339.23
469.959	290.08
470.396	311.14
470.833	339.23
471.271	287.74
471.708	308.8
472.145	360.3
472.582	346.25
473.019	304.12
473.456	362.64
473.892	304.12
474.329	292.42
474.766	285.4
475.202	226.89
475.639	311.14
476.076	334.55
476.512	322.85
476.949	334.55
477.385	383.7
477.821	360.3
478.258	353.27
478.694	292.42
479.13	357.96
479.566	318.17
480.002	301.78
480.438	297.1
480.874	374.34
481.31	313.49
481.746	383.7
482.181	327.53
482.617	301.78
483.053	379.02
483.488	329.87
483.924	327.53
484.36	304.12
484.795	318.17
485.23	353.27
485.666	332.21
486.101	318.17
486.536	357.96
486.971	336.89
487.407	353.27
487.842	390.72
488.277	313.49
488.712	355.62
489.146	327.53
489.581	325.19
490.016	311.14
490.451	315.83
490.885	290.08
491.32	346.25
491.755	306.46
492.189	336.89
492.624	292.42
493.058	285.4
493.492	322.85
493.927	315.83
494.361	285.4
494.795	336.89
495.229	315.83
495.663	315.83
496.097	348.59
496.531	320.51
496.965	280.72
497.399	292.42
497.833	311.14
498.266	346.25
498.7	346.25
499.134	313.49
499.567	350.93
500.001	308.8
500.434	261.99
500.868	313.49
501.301	334.55
501.734	362.64
502.168	294.76
502.601	285.4
503.034	292.42
503.467	283.06
503.9	325.19
504.333	301.78
504.766	400.09
505.199	360.3
505.632	266.67
506.064	348.59
506.497	374.34
506.93	381.36
507.362	306.46
507.795	325.19
508.227	276.04
508.66	308.8
509.092	301.78
509.524	231.57
509.956	292.42
510.389	259.65
510.821	327.53
511.253	299.44
511.685	315.83
512.117	313.49
512.549	264.33
512.981	355.62
513.412	304.12
513.844	353.27
514.276	339.23
514.707	313.49
515.139	252.63
515.571	311.14
516.002	311.14
516.433	285.4
516.865	311.14
517.296	308.8
517.727	294.76
518.159	336.89
518.59	301.78
519.021	350.93
519.452	294.76
519.883	329.87
520.314	318.17
520.744	425.83
521.175	343.91
521.606	357.96
522.037	285.4
522.467	252.63
522.898	269.02
523.328	311.14
523.759	238.59
524.189	287.74
524.62	290.08
525.05	315.83
525.48	327.53
525.91	301.78
526.341	269.02
526.771	322.85
527.201	297.1
527.631	322.85
528.061	313.49
528.49	315.83
528.92	329.87
529.35	334.55
529.78	329.87
530.209	381.36
530.639	329.87
531.068	294.76
531.498	334.55
531.927	336.89
532.357	283.06
532.786	308.8
533.215	311.14
533.644	343.91
534.074	276.04
534.503	294.76
534.932	299.44
535.361	332.21
535.79	325.19
536.218	320.51
536.647	301.78
537.076	294.76
537.505	353.27
537.933	297.1
538.362	336.89
538.79	276.04
539.219	320.51
539.647	301.78
540.076	357.96
540.504	280.72
540.932	334.55
541.36	313.49
541.788	318.17
542.217	346.25
542.645	332.21
543.073	329.87
543.5	320.51
543.928	318.17
544.356	261.99
544.784	381.36
545.211	322.85
545.639	313.49
546.067	299.44
546.494	257.31
546.922	329.87
547.349	348.59
547.776	301.78
548.204	369.66
548.631	311.14
549.058	276.04
549.485	252.63
549.912	285.4
550.339	301.78
550.766	336.89
551.193	372
551.62	336.89
552.047	334.55
552.474	313.49
552.9	322.85
553.327	301.78
553.754	313.49
554.18	283.06
554.607	348.59
555.033	264.33
555.459	290.08
555.886	306.46
556.312	402.43
556.738	350.93
557.164	308.8
557.59	327.53
558.016	334.55
558.442	355.62
558.868	301.78
559.294	346.25
559.72	327.53
560.145	343.91
560.571	313.49
560.997	304.12
561.422	261.99
561.848	322.85
562.273	348.59
562.699	357.96
563.124	278.38
563.549	308.8
563.974	269.02
564.4	290.08
564.825	341.57
565.25	273.7
565.675	341.57
566.1	357.96
566.525	308.8
566.95	287.74
567.374	294.76
567.799	269.02
568.224	332.21
568.648	299.44
569.073	315.83
569.497	301.78
569.922	329.87
570.346	311.14
570.771	346.25
571.195	334.55
571.619	346.25
572.043	294.76
572.467	247.95
572.891	332.21
573.315	311.14
573.739	364.98
574.163	320.51
574.587	339.23
575.011	311.14
575.435	327.53
575.858	360.3
576.282	332.21
576.705	318.17
577.129	280.72
577.552	332.21
577.976	339.23
578.399	278.38
578.822	364.98
579.245	350.93
579.669	348.59
580.092	322.85
580.515	320.51
580.938	350.93
581.361	283.06
581.784	285.4
582.206	283.06
582.629	318.17
583.052	367.32
583.474	374.34
583.897	334.55
584.32	341.57
584.742	266.67
585.165	327.53
585.587	336.89
586.009	334.55
586.431	357.96
586.854	287.74
587.276	238.59
587.698	318.17
588.12	311.14
588.542	346.25
588.964	301.78
589.386	357.96
589.807	346.25
590.229	243.27
590.651	261.99
591.073	261.99
591.494	308.8
591.916	379.02
592.337	318.17
592.759	322.85
593.18	318.17
593.601	346.25
594.022	367.32
594.444	252.63
594.865	226.89
595.286	294.76
595.707	322.85
596.128	374.34
596.549	313.49
596.97	276.04
597.39	292.42
597.811	367.32
598.232	332.21
598.652	381.36
599.073	306.46
599.494	341.57
599.914	322.85
600.334	325.19
600.755	334.55
601.175	357.96
601.595	343.91
602.015	320.51
602.436	357.96
602.856	428.17
603.276	374.34
603.696	343.91
604.115	332.21
604.535	318.17
604.955	320.51
605.375	369.66
605.794	306.46
606.214	287.74
606.634	332.21
607.053	318.17
607.473	240.93
607.892	283.06
608.311	264.33
608.731	278.38
609.15	332.21
609.569	306.46
609.988	360.3
610.407	383.7
610.826	287.74
611.245	339.23
611.664	278.38
612.083	334.55
612.501	341.57
612.92	273.7
613.339	304.12
613.757	306.46
614.176	283.06
614.594	334.55
615.013	252.63
615.431	348.59
615.85	222.2
616.268	336.89
616.686	343.91
617.104	336.89
617.522	285.4
617.94	297.1
618.358	290.08
618.776	301.78
619.194	332.21
619.612	376.68
620.03	315.83
620.447	252.63
620.865	336.89
621.282	334.55
621.7	318.17
622.117	264.33
622.535	257.31
622.952	294.76
623.369	278.38
623.787	285.4
624.204	308.8
624.621	372
625.038	343.91
625.455	372
625.872	367.32
626.289	280.72
626.706	329.87
627.123	315.83
627.539	278.38
627.956	280.72
628.373	407.11
628.789	313.49
629.206	301.78
629.622	311.14
630.038	294.76
630.455	343.91
630.871	306.46
631.287	332.21
631.703	360.3
632.12	283.06
632.536	245.61
632.952	334.55
633.368	311.14
633.783	315.83
634.199	294.76
634.615	280.72
635.031	283.06
635.446	308.8
635.862	254.97
636.277	320.51
636.693	299.44
637.108	379.02
637.524	304.12
637.939	304.12
638.354	379.02
638.77	346.25
639.185	315.83
639.6	348.59
640.015	264.33
640.43	353.27
640.845	285.4
641.259	329.87
641.674	336.89
642.089	313.49
642.504	287.74
642.918	320.51
643.333	294.76
643.747	304.12
644.162	254.97
644.576	301.78
644.991	294.76
645.405	306.46
645.819	325.19
646.233	327.53
646.647	252.63
647.061	236.25
647.475	334.55
647.889	283.06
648.303	294.76
648.717	271.36
649.131	341.57
649.545	287.74
649.958	318.17
650.372	278.38
650.785	364.98
651.199	306.46
651.612	348.59
652.026	322.85
652.439	343.91
652.852	313.49
653.266	278.38
653.679	374.34
654.092	372
654.505	320.51
654.918	348.59
655.331	301.78
655.744	318.17
656.156	254.97
656.569	374.34
656.982	388.38
657.394	308.8
657.807	271.36
658.22	327.53
658.632	341.57
659.044	259.65
659.457	322.85
659.869	421.15
660.281	327.53
660.693	320.51
661.106	273.7
661.518	315.83
661.93	308.8
662.342	313.49
662.754	327.53
663.165	322.85
663.577	311.14
663.989	322.85
664.401	273.7
664.812	332.21
665.224	297.1
665.635	341.57
666.047	254.97
666.458	257.31
666.869	259.65
667.281	329.87
667.692	301.78
668.103	318.17
668.514	301.78
668.925	329.87
669.336	299.44
669.747	327.53
670.158	313.49
670.569	308.8
670.979	247.95
671.39	299.44
671.801	280.72
672.211	320.51
672.622	308.8
673.032	329.87
673.443	308.8
673.853	271.36
674.263	294.76
674.674	299.44
675.084	336.89
675.494	341.57
675.904	304.12
676.314	381.36
676.724	355.62
677.134	280.72
677.544	269.02
677.953	372
678.363	325.19
678.773	397.74
679.182	290.08
679.592	353.27
680.001	339.23
680.411	264.33
680.82	325.19
681.23	346.25
681.639	325.19
682.048	276.04
682.457	285.4
682.866	343.91
683.275	224.55
683.684	259.65
684.093	315.83
684.502	334.55
684.911	376.68
685.32	271.36
685.728	329.87
686.137	329.87
686.546	334.55
686.954	327.53
687.363	290.08
687.771	425.83
688.179	299.44
688.588	343.91
688.996	299.44
689.404	285.4
689.812	315.83
690.22	350.93
690.628	339.23
691.036	276.04
691.444	329.87
691.852	278.38
692.26	283.06
692.667	313.49
693.075	325.19
693.483	364.98
693.89	329.87
694.298	336.89
694.705	311.14
695.112	297.1
695.52	364.98
695.927	313.49
696.334	304.12
696.741	322.85
697.148	353.27
697.555	271.36
697.962	301.78
698.369	292.42
698.776	287.74
699.183	311.14
699.59	364.98
699.996	304.12
700.403	327.53
700.81	283.06
701.216	318.17
701.623	318.17
702.029	334.55
702.435	285.4
702.842	364.98
703.248	261.99
703.654	341.57
704.06	329.87
704.466	306.46
704.872	280.72
705.278	276.04
705.684	301.78
706.09	313.49
706.496	357.96
706.901	327.53
707.307	348.59
707.712	327.53
708.118	306.46
708.523	304.12
708.929	276.04
709.334	276.04
709.74	276.04
710.145	329.87
710.55	287.74
710.955	301.78
711.36	311.14
711.765	287.74
712.17	355.62
712.575	278.38
712.98	884.58
713.385	374.34
713.789	357.96
714.194	336.89
714.599	301.78
715.003	329.87
715.408	336.89
715.812	285.4
716.217	299.44
716.621	350.93
717.025	318.17
717.429	355.62
717.833	311.14
718.238	332.21
718.642	287.74
719.046	355.62
719.449	266.67
719.853	327.53
720.257	372
720.661	325.19
721.065	266.67
721.468	273.7
721.872	257.31
722.275	297.1
722.679	226.89
723.082	311.14
723.485	341.57
723.889	297.1
724.292	334.55
724.695	318.17
725.098	257.31
725.501	329.87
725.904	320.51
726.307	315.83
726.71	261.99
727.113	320.51
727.516	355.62
727.918	332.21
728.321	334.55
728.724	290.08
729.126	318.17
729.529	313.49
729.931	292.42
730.333	348.59
730.736	332.21
731.138	332.21
731.54	278.38
731.942	290.08
732.344	322.85
732.746	329.87
733.148	339.23
733.55	339.23
733.952	229.23
734.354	320.51
734.756	332.21
735.157	332.21
735.559	341.57
735.96	325.19
736.362	327.53
736.763	301.78
737.165	367.32
737.566	315.83
737.967	311.14
738.368	285.4
738.77	266.67
739.171	304.12
739.572	306.46
739.973	346.25
740.374	311.14
740.774	311.14
741.175	250.29
741.576	273.7
741.977	322.85
742.377	299.44
742.778	290.08
743.178	334.55
743.579	280.72
743.979	315.83
744.379	336.89
744.78	313.49
745.18	329.87
745.58	336.89
745.98	283.06
746.38	308.8
746.78	306.46
747.18	271.36
747.58	322.85
747.98	299.44
748.38	304.12
748.779	292.42
749.179	261.99
749.578	311.14
749.978	271.36
750.377	334.55
750.777	271.36
751.176	327.53
751.575	313.49
751.975	341.57
752.374	315.83
752.773	374.34
753.172	327.53
753.571	367.32
753.97	320.51
754.369	325.19
754.768	252.63
755.166	304.12
755.565	374.34
755.964	360.3
756.362	311.14
756.761	290.08
757.159	273.7
757.558	318.17
757.956	381.36
758.354	364.98
758.753	313.49
759.151	299.44
759.549	332.21
759.947	297.1
760.345	285.4
760.743	273.7
761.141	346.25
761.539	348.59
761.936	301.78
762.334	311.14
762.732	266.67
763.129	336.89
763.527	294.76
763.924	355.62
764.322	327.53
764.719	273.7
765.117	308.8
765.514	353.27
765.911	280.72
