Data from Al_FLMS009871__1092__16-29-42-905.txt Node

Date: Fri Mar 08 16:29:42 CST 2024
User: pe5414po
Spectrometer: FLMS00987
Trigger mode: 0
Integration Time (sec): 1.000000E-1
Scans to average: 1
Electric dark correction enabled: true
Nonlinearity correction enabled: false
Boxcar width: 0
XAxis mode: Wavelengths
Number of Pixels in Spectrum: 2048
>>>>>Begin Spectral Data<<<<<
188.938	-53.54
189.409	-53.54
189.879	-53.54
190.349	-83.97
190.819	-83.97
191.29	-135.46
191.76	-48.86
192.23	-100.35
192.7	-72.26
193.17	-58.22
193.64	-41.84
194.109	16.68
194.579	-18.43
195.049	-112.05
195.519	26.04
195.988	-4.39
196.458	96.25
196.927	58.81
197.397	63.49
197.866	152.43
198.336	178.17
198.805	248.39
199.274	159.45
199.744	175.83
200.213	215.62
200.682	222.64
201.151	239.03
201.62	175.83
202.089	264.77
202.558	269.45
203.027	227.32
203.495	220.3
203.964	246.05
204.433	318.61
204.902	255.41
205.37	299.88
205.839	285.84
206.307	299.88
206.776	260.09
207.244	262.43
207.712	297.54
208.181	351.37
208.649	260.09
209.117	278.82
209.585	297.54
210.053	274.14
210.521	271.79
210.989	339.67
211.457	260.09
211.925	264.77
212.393	327.97
212.861	306.9
213.328	224.98
213.796	264.77
214.264	271.79
214.731	269.45
215.199	255.41
215.666	288.18
216.133	281.16
216.601	306.9
217.068	320.95
217.535	281.16
218.003	217.96
218.47	306.9
218.937	217.96
219.404	220.3
219.871	288.18
220.338	309.24
220.805	274.14
221.271	299.88
221.738	234.35
222.205	316.26
222.671	250.73
223.138	267.11
223.605	222.64
224.071	232.01
224.538	302.22
225.004	274.14
225.47	239.03
225.937	236.69
226.403	283.5
226.869	309.24
227.335	290.52
227.801	332.65
228.267	243.71
228.733	290.52
229.199	241.37
229.665	227.32
230.131	248.39
230.597	344.35
231.062	274.14
231.528	255.41
231.994	267.11
232.459	262.43
232.925	311.58
233.39	224.98
233.856	323.29
234.321	285.84
234.786	283.5
235.252	290.52
235.717	288.18
236.182	267.11
236.647	323.29
237.112	299.88
237.577	306.9
238.042	339.67
238.507	276.48
238.972	323.29
239.436	269.45
239.901	269.45
240.366	253.07
240.83	239.03
241.295	239.03
241.76	330.31
242.224	288.18
242.688	241.37
243.153	323.29
243.617	327.97
244.081	309.24
244.545	311.58
245.01	260.09
245.474	290.52
245.938	288.18
246.402	264.77
246.866	299.88
247.33	274.14
247.793	203.92
248.257	330.31
248.721	281.16
249.185	372.44
249.648	327.97
250.112	269.45
250.575	262.43
251.039	306.9
251.502	260.09
251.965	344.35
252.429	372.44
252.892	288.18
253.355	292.86
253.818	283.5
254.281	311.58
254.744	283.5
255.207	274.14
255.67	267.11
256.133	271.79
256.596	206.26
257.059	332.65
257.522	281.16
257.984	327.97
258.447	316.26
258.909	288.18
259.372	285.84
259.834	316.26
260.297	283.5
260.759	274.14
261.221	264.77
261.684	257.75
262.146	320.95
262.608	332.65
263.07	285.84
263.532	234.35
263.994	299.88
264.456	346.69
264.918	351.37
265.38	229.67
265.842	217.96
266.303	260.09
266.765	325.63
267.227	313.92
267.688	267.11
268.15	304.56
268.611	278.82
269.072	255.41
269.534	290.52
269.995	257.75
270.456	356.05
270.918	283.5
271.379	271.79
271.84	358.39
272.301	332.65
272.762	302.22
273.223	257.75
273.684	250.73
274.144	281.16
274.605	290.52
275.066	271.79
275.527	309.24
275.987	344.35
276.448	325.63
276.908	260.09
277.369	358.39
277.829	334.99
278.289	278.82
278.75	269.45
279.21	283.5
279.67	337.33
280.13	232.01
280.59	316.26
281.05	325.63
281.51	337.33
281.97	288.18
282.43	339.67
282.89	269.45
283.35	320.95
283.809	278.82
284.269	297.54
284.729	356.05
285.188	311.58
285.648	276.48
286.107	283.5
286.567	283.5
287.026	311.58
287.485	327.97
287.944	220.3
288.404	276.48
288.863	327.97
289.322	290.52
289.781	274.14
290.24	276.48
290.699	281.16
291.158	302.22
291.616	283.5
292.075	323.29
292.534	290.52
292.992	349.03
293.451	271.79
293.91	224.98
294.368	351.37
294.827	344.35
295.285	290.52
295.743	306.9
296.202	325.63
296.66	276.48
297.118	255.41
297.576	316.26
298.034	283.5
298.492	302.22
298.95	295.2
299.408	234.35
299.866	311.58
300.324	299.88
300.781	313.92
301.239	304.56
301.697	302.22
302.154	299.88
302.612	306.9
303.069	257.75
303.527	271.79
303.984	379.46
304.441	311.58
304.899	320.95
305.356	285.84
305.813	363.08
306.27	332.65
306.727	356.05
307.184	290.52
307.641	295.2
308.098	302.22
308.555	332.65
309.012	297.54
309.468	278.82
309.925	304.56
310.382	318.61
310.838	281.16
311.295	320.95
311.751	297.54
312.208	309.24
312.664	316.26
313.12	339.67
313.577	332.65
314.033	363.08
314.489	302.22
314.945	260.09
315.401	342.01
315.857	281.16
316.313	302.22
316.769	290.52
317.225	320.95
317.681	295.2
318.136	325.63
318.592	290.52
319.048	325.63
319.503	243.71
319.959	304.56
320.414	320.95
320.869	339.67
321.325	349.03
321.78	311.58
322.235	285.84
322.691	327.97
323.146	271.79
323.601	384.14
324.056	313.92
324.511	295.2
324.966	316.26
325.421	344.35
325.875	316.26
326.33	271.79
326.785	327.97
327.24	316.26
327.694	339.67
328.149	264.77
328.603	306.9
329.058	297.54
329.512	292.86
329.966	290.52
330.421	290.52
330.875	297.54
331.329	330.31
331.783	360.74
332.237	311.58
332.691	278.82
333.145	334.99
333.599	271.79
334.053	337.33
334.507	318.61
334.96	283.5
335.414	325.63
335.868	325.63
336.321	320.95
336.775	292.86
337.228	239.03
337.682	334.99
338.135	297.54
338.588	332.65
339.042	346.69
339.495	304.56
339.948	320.95
340.401	330.31
340.854	281.16
341.307	278.82
341.76	365.42
342.213	346.69
342.666	281.16
343.119	222.64
343.571	344.35
344.024	339.67
344.477	358.39
344.929	325.63
345.382	339.67
345.834	236.69
346.287	313.92
346.739	318.61
347.191	297.54
347.644	327.97
348.096	299.88
348.548	295.2
349	358.39
349.452	353.71
349.904	330.31
350.356	278.82
350.808	234.35
351.26	281.16
351.711	260.09
352.163	295.2
352.615	255.41
353.066	349.03
353.518	358.39
353.969	306.9
354.421	281.16
354.872	351.37
355.324	304.56
355.775	332.65
356.226	288.18
356.677	316.26
357.128	271.79
357.579	318.61
358.03	332.65
358.481	278.82
358.932	278.82
359.383	330.31
359.834	246.05
360.285	356.05
360.735	311.58
361.186	269.45
361.637	360.74
362.087	290.52
362.538	278.82
362.988	327.97
363.438	283.5
363.889	271.79
364.339	297.54
364.789	274.14
365.239	288.18
365.689	309.24
366.139	344.35
366.589	344.35
367.039	356.05
367.489	302.22
367.939	353.71
368.389	395.84
368.839	264.77
369.288	330.31
369.738	327.97
370.187	320.95
370.637	285.84
371.086	346.69
371.536	243.71
371.985	306.9
372.434	332.65
372.884	365.42
373.333	372.44
373.782	283.5
374.231	311.58
374.68	323.29
375.129	302.22
375.578	349.03
376.027	299.88
376.475	332.65
376.924	398.18
377.373	299.88
377.822	276.48
378.27	306.9
378.719	342.01
379.167	290.52
379.616	316.26
380.064	313.92
380.512	330.31
380.961	257.75
381.409	278.82
381.857	316.26
382.305	299.88
382.753	370.1
383.201	267.11
383.649	320.95
384.097	260.09
384.545	269.45
384.992	388.82
385.44	313.92
385.888	309.24
386.335	311.58
386.783	339.67
387.231	332.65
387.678	398.18
388.125	353.71
388.573	299.88
389.02	346.69
389.467	332.65
389.914	295.2
390.362	297.54
390.809	334.99
391.256	316.26
391.703	356.05
392.15	299.88
392.596	325.63
393.043	297.54
393.49	325.63
393.937	278.82
394.383	297.54
394.83	339.67
395.276	297.54
395.723	367.76
396.169	339.67
396.616	320.95
397.062	290.52
397.508	330.31
397.954	299.88
398.401	327.97
398.847	421.59
399.293	334.99
399.739	224.98
400.185	330.31
400.631	278.82
401.076	306.9
401.522	339.67
401.968	302.22
402.414	332.65
402.859	292.86
403.305	320.95
403.75	248.39
404.196	313.92
404.641	337.33
405.086	370.1
405.532	356.05
405.977	370.1
406.422	356.05
406.867	363.08
407.312	295.2
407.757	306.9
408.202	342.01
408.647	278.82
409.092	320.95
409.537	285.84
409.982	306.9
410.426	323.29
410.871	330.31
411.316	313.92
411.76	253.07
412.205	306.9
412.649	313.92
413.093	332.65
413.538	285.84
413.982	311.58
414.426	363.08
414.87	342.01
415.314	299.88
415.758	281.16
416.202	337.33
416.646	358.39
417.09	295.2
417.534	330.31
417.978	353.71
418.421	334.99
418.865	299.88
419.309	323.29
419.752	342.01
420.196	320.95
420.639	349.03
421.083	409.89
421.526	309.24
421.969	356.05
422.412	276.48
422.856	299.88
423.299	269.45
423.742	292.86
424.185	278.82
424.628	332.65
425.071	250.73
425.513	320.95
425.956	318.61
426.399	297.54
426.842	253.07
427.284	278.82
427.727	290.52
428.169	334.99
428.612	316.26
429.054	306.9
429.497	250.73
429.939	316.26
430.381	311.58
430.823	344.35
431.265	400.52
431.707	353.71
432.149	316.26
432.591	379.46
433.033	292.86
433.475	311.58
433.917	330.31
434.359	288.18
434.8	262.43
435.242	337.33
435.684	318.61
436.125	313.92
436.567	306.9
437.008	320.95
437.449	339.67
437.891	330.31
438.332	351.37
438.773	349.03
439.214	304.56
439.656	304.56
440.097	290.52
440.538	332.65
440.978	313.92
441.419	337.33
441.86	313.92
442.301	353.71
442.742	327.97
443.182	356.05
443.623	302.22
444.063	318.61
444.504	372.44
444.944	306.9
445.385	330.31
445.825	346.69
446.265	349.03
446.706	344.35
447.146	283.5
447.586	356.05
448.026	320.95
448.466	276.48
448.906	339.67
449.346	323.29
449.786	334.99
450.225	323.29
450.665	323.29
451.105	323.29
451.544	313.92
451.984	381.8
452.424	295.2
452.863	337.33
453.302	281.16
453.742	342.01
454.181	283.5
454.62	356.05
455.059	363.08
455.499	349.03
455.938	290.52
456.377	327.97
456.816	278.82
457.254	344.35
457.693	290.52
458.132	274.14
458.571	297.54
459.01	330.31
459.448	353.71
459.887	292.86
460.325	323.29
460.764	334.99
461.202	313.92
461.641	306.9
462.079	351.37
462.517	299.88
462.955	320.95
463.393	304.56
463.832	334.99
464.27	342.01
464.708	288.18
465.145	304.56
465.583	257.75
466.021	377.12
466.459	299.88
466.897	349.03
467.334	295.2
467.772	262.43
468.209	342.01
468.647	241.37
469.084	309.24
469.522	346.69
469.959	264.77
470.396	304.56
470.833	320.95
471.271	306.9
471.708	250.73
472.145	356.05
472.582	318.61
473.019	304.56
473.456	311.58
473.892	274.14
474.329	297.54
474.766	381.8
475.202	313.92
475.639	337.33
476.076	318.61
476.512	311.58
476.949	330.31
477.385	285.84
477.821	274.14
478.258	288.18
478.694	332.65
479.13	356.05
479.566	337.33
480.002	327.97
480.438	316.26
480.874	337.33
481.31	306.9
481.746	372.44
482.181	377.12
482.617	363.08
483.053	325.63
483.488	325.63
483.924	316.26
484.36	346.69
484.795	339.67
485.23	339.67
485.666	311.58
486.101	330.31
486.536	344.35
486.971	318.61
487.407	351.37
487.842	356.05
488.277	304.56
488.712	353.71
489.146	283.5
489.581	318.61
490.016	311.58
490.451	342.01
490.885	395.84
491.32	304.56
491.755	325.63
492.189	304.56
492.624	370.1
493.058	327.97
493.492	276.48
493.927	311.58
494.361	253.07
494.795	318.61
495.229	260.09
495.663	360.74
496.097	365.42
496.531	297.54
496.965	283.5
497.399	292.86
497.833	337.33
498.266	363.08
498.7	325.63
499.134	365.42
499.567	346.69
500.001	311.58
500.434	316.26
500.868	367.76
501.301	325.63
501.734	339.67
502.168	313.92
502.601	311.58
503.034	295.2
503.467	320.95
503.9	276.48
504.333	271.79
504.766	299.88
505.199	299.88
505.632	267.11
506.064	295.2
506.497	292.86
506.93	297.54
507.362	292.86
507.795	281.16
508.227	309.24
508.66	342.01
509.092	274.14
509.524	318.61
509.956	320.95
510.389	372.44
510.821	309.24
511.253	356.05
511.685	358.39
512.117	365.42
512.549	330.31
512.981	311.58
513.412	349.03
513.844	299.88
514.276	334.99
514.707	337.33
515.139	365.42
515.571	318.61
516.002	381.8
516.433	297.54
516.865	349.03
517.296	325.63
517.727	302.22
518.159	311.58
518.59	353.71
519.021	276.48
519.452	377.12
519.883	299.88
520.314	285.84
520.744	316.26
521.175	327.97
521.606	332.65
522.037	297.54
522.467	342.01
522.898	353.71
523.328	334.99
523.759	337.33
524.189	334.99
524.62	313.92
525.05	320.95
525.48	292.86
525.91	264.77
526.341	288.18
526.771	248.39
527.201	290.52
527.631	304.56
528.061	332.65
528.49	367.76
528.92	304.56
529.35	311.58
529.78	313.92
530.209	337.33
530.639	313.92
531.068	304.56
531.498	313.92
531.927	318.61
532.357	344.35
532.786	342.01
533.215	374.78
533.644	342.01
534.074	278.82
534.503	325.63
534.932	253.07
535.361	367.76
535.79	262.43
536.218	320.95
536.647	353.71
537.076	325.63
537.505	295.2
537.933	288.18
538.362	351.37
538.79	311.58
539.219	292.86
539.647	346.69
540.076	320.95
540.504	313.92
540.932	346.69
541.36	318.61
541.788	278.82
542.217	276.48
542.645	426.27
543.073	334.99
543.5	325.63
543.928	292.86
544.356	356.05
544.784	365.42
545.211	339.67
545.639	325.63
546.067	243.71
546.494	330.31
546.922	292.86
547.349	351.37
547.776	353.71
548.204	330.31
548.631	318.61
549.058	271.79
549.485	267.11
549.912	320.95
550.339	304.56
550.766	325.63
551.193	316.26
551.62	309.24
552.047	346.69
552.474	257.75
552.9	288.18
553.327	311.58
553.754	330.31
554.18	283.5
554.607	257.75
555.033	264.77
555.459	304.56
555.886	295.2
556.312	337.33
556.738	393.5
557.164	356.05
557.59	304.56
558.016	309.24
558.442	311.58
558.868	292.86
559.294	306.9
559.72	337.33
560.145	306.9
560.571	327.97
560.997	346.69
561.422	349.03
561.848	288.18
562.273	264.77
562.699	325.63
563.124	349.03
563.549	318.61
563.974	386.48
564.4	276.48
564.825	283.5
565.25	351.37
565.675	306.9
566.1	327.97
566.525	327.97
566.95	318.61
567.374	295.2
567.799	306.9
568.224	311.58
568.648	339.67
569.073	391.16
569.497	346.69
569.922	358.39
570.346	332.65
570.771	299.88
571.195	320.95
571.619	260.09
572.043	281.16
572.467	271.79
572.891	316.26
573.315	299.88
573.739	283.5
574.163	306.9
574.587	302.22
575.011	260.09
575.435	297.54
575.858	290.52
576.282	283.5
576.705	384.14
577.129	330.31
577.552	260.09
577.976	302.22
578.399	313.92
578.822	353.71
579.245	351.37
579.669	306.9
580.092	304.56
580.515	285.84
580.938	260.09
581.361	304.56
581.784	325.63
582.206	351.37
582.629	295.2
583.052	288.18
583.474	285.84
583.897	419.25
584.32	327.97
584.742	313.92
585.165	325.63
585.587	327.97
586.009	358.39
586.431	316.26
586.854	346.69
587.276	344.35
587.698	386.48
588.12	276.48
588.542	358.39
588.964	353.71
589.386	344.35
589.807	379.46
590.229	304.56
590.651	323.29
591.073	288.18
591.494	344.35
591.916	276.48
592.337	267.11
592.759	313.92
593.18	269.45
593.601	320.95
594.022	370.1
594.444	407.55
594.865	257.75
595.286	311.58
595.707	285.84
596.128	351.37
596.549	290.52
596.97	327.97
597.39	299.88
597.811	346.69
598.232	299.88
598.652	288.18
599.073	339.67
599.494	316.26
599.914	278.82
600.334	306.9
600.755	372.44
601.175	342.01
601.595	297.54
602.015	325.63
602.436	325.63
602.856	461.38
603.276	304.56
603.696	288.18
604.115	339.67
604.535	330.31
604.955	276.48
605.375	342.01
605.794	344.35
606.214	253.07
606.634	374.78
607.053	342.01
607.473	351.37
607.892	311.58
608.311	353.71
608.731	339.67
609.15	332.65
609.569	299.88
609.988	351.37
610.407	288.18
610.826	295.2
611.245	248.39
611.664	306.9
612.083	299.88
612.501	241.37
612.92	248.39
613.339	332.65
613.757	274.14
614.176	297.54
614.594	358.39
615.013	281.16
615.431	309.24
615.85	299.88
616.268	316.26
616.686	374.78
617.104	325.63
617.522	278.82
617.94	274.14
618.358	377.12
618.776	320.95
619.194	264.77
619.612	306.9
620.03	337.33
620.447	332.65
620.865	304.56
621.282	253.07
621.7	391.16
622.117	306.9
622.535	346.69
622.952	337.33
623.369	353.71
623.787	302.22
624.204	269.45
624.621	339.67
625.038	297.54
625.455	349.03
625.872	304.56
626.289	311.58
626.706	332.65
627.123	260.09
627.539	299.88
627.956	337.33
628.373	342.01
628.789	243.71
629.206	334.99
629.622	302.22
630.038	306.9
630.455	313.92
630.871	353.71
631.287	297.54
631.703	313.92
632.12	367.76
632.536	276.48
632.952	325.63
633.368	302.22
633.783	337.33
634.199	253.07
634.615	309.24
635.031	274.14
635.446	271.79
635.862	264.77
636.277	278.82
636.693	316.26
637.108	365.42
637.524	372.44
637.939	313.92
638.354	330.31
638.77	302.22
639.185	320.95
639.6	325.63
640.015	290.52
640.43	323.29
640.845	304.56
641.259	318.61
641.674	344.35
642.089	363.08
642.504	332.65
642.918	346.69
643.333	283.5
643.747	372.44
644.162	381.8
644.576	304.56
644.991	334.99
645.405	318.61
645.819	302.22
646.233	316.26
646.647	267.11
647.061	316.26
647.475	334.99
647.889	299.88
648.303	302.22
648.717	346.69
649.131	269.45
649.545	274.14
649.958	325.63
650.372	267.11
650.785	306.9
651.199	325.63
651.612	327.97
652.026	349.03
652.439	309.24
652.852	325.63
653.266	264.77
653.679	339.67
654.092	276.48
654.505	283.5
654.918	330.31
655.331	276.48
655.744	346.69
656.156	337.33
656.569	276.48
656.982	262.43
657.394	309.24
657.807	311.58
658.22	349.03
658.632	323.29
659.044	292.86
659.457	316.26
659.869	271.79
660.281	304.56
660.693	281.16
661.106	327.97
661.518	320.95
661.93	349.03
662.342	323.29
662.754	278.82
663.165	269.45
663.577	276.48
663.989	351.37
664.401	267.11
664.812	334.99
665.224	334.99
665.635	285.84
666.047	267.11
666.458	313.92
666.869	367.76
667.281	334.99
667.692	299.88
668.103	351.37
668.514	309.24
668.925	337.33
669.336	274.14
669.747	302.22
670.158	351.37
670.569	377.12
670.979	297.54
671.39	281.16
671.801	327.97
672.211	281.16
672.622	332.65
673.032	316.26
673.443	334.99
673.853	297.54
674.263	250.73
674.674	379.46
675.084	297.54
675.494	344.35
675.904	339.67
676.314	306.9
676.724	281.16
677.134	302.22
677.544	320.95
677.953	360.74
678.363	292.86
678.773	325.63
679.182	327.97
679.592	388.82
680.001	318.61
680.411	318.61
680.82	344.35
681.23	311.58
681.639	318.61
682.048	311.58
682.457	405.21
682.866	344.35
683.275	285.84
683.684	288.18
684.093	351.37
684.502	360.74
684.911	320.95
685.32	398.18
685.728	349.03
686.137	323.29
686.546	281.16
686.954	299.88
687.363	313.92
687.771	365.42
688.179	309.24
688.588	367.76
688.996	255.41
689.404	304.56
689.812	316.26
690.22	306.9
690.628	360.74
691.036	318.61
691.444	351.37
691.852	367.76
692.26	274.14
692.667	346.69
693.075	297.54
693.483	407.55
693.89	346.69
694.298	360.74
694.705	311.58
695.112	311.58
695.52	346.69
695.927	344.35
696.334	332.65
696.741	342.01
697.148	285.84
697.555	311.58
697.962	344.35
698.369	337.33
698.776	365.42
699.183	281.16
699.59	323.29
699.996	302.22
700.403	288.18
700.81	330.31
701.216	344.35
701.623	346.69
702.029	262.43
702.435	283.5
702.842	304.56
703.248	325.63
703.654	283.5
704.06	250.73
704.466	327.97
704.872	374.78
705.278	367.76
705.684	281.16
706.09	353.71
706.496	302.22
706.901	334.99
707.307	234.35
707.712	363.08
708.118	320.95
708.523	262.43
708.929	316.26
709.334	377.12
709.74	349.03
710.145	262.43
710.55	320.95
710.955	288.18
711.36	356.05
711.765	384.14
712.17	330.31
712.575	313.92
712.98	999.7
713.385	302.22
713.789	372.44
714.194	290.52
714.599	332.65
715.003	330.31
715.408	342.01
715.812	311.58
716.217	349.03
716.621	365.42
717.025	327.97
717.429	323.29
717.833	304.56
718.238	323.29
718.642	325.63
719.046	292.86
719.449	313.92
719.853	299.88
720.257	304.56
720.661	288.18
721.065	327.97
721.468	318.61
721.872	264.77
722.275	360.74
722.679	344.35
723.082	358.39
723.485	320.95
723.889	365.42
724.292	271.79
724.695	302.22
725.098	332.65
725.501	253.07
725.904	363.08
726.307	302.22
726.71	290.52
727.113	327.97
727.516	353.71
727.918	302.22
728.321	313.92
728.724	283.5
729.126	302.22
729.529	363.08
729.931	323.29
730.333	384.14
730.736	327.97
731.138	299.88
731.54	311.58
731.942	332.65
732.344	330.31
732.746	292.86
733.148	269.45
733.55	257.75
733.952	290.52
734.354	285.84
734.756	356.05
735.157	330.31
735.559	313.92
735.96	292.86
736.362	309.24
736.763	278.82
737.165	318.61
737.566	234.35
737.967	276.48
738.368	353.71
738.77	311.58
739.171	316.26
739.572	264.77
739.973	346.69
740.374	306.9
740.774	271.79
741.175	241.37
741.576	285.84
741.977	325.63
742.377	311.58
742.778	325.63
743.178	325.63
743.579	309.24
743.979	353.71
744.379	304.56
744.78	344.35
745.18	316.26
745.58	363.08
745.98	363.08
746.38	257.75
746.78	344.35
747.18	367.76
747.58	344.35
747.98	241.37
748.38	337.33
748.779	269.45
749.179	342.01
749.578	344.35
749.978	311.58
750.377	316.26
750.777	330.31
751.176	356.05
751.575	250.73
751.975	342.01
752.374	297.54
752.773	313.92
753.172	269.45
753.571	274.14
753.97	370.1
754.369	363.08
754.768	313.92
755.166	297.54
755.565	295.2
755.964	271.79
756.362	250.73
756.761	351.37
757.159	344.35
757.558	304.56
757.956	391.16
758.354	320.95
758.753	281.16
759.151	353.71
759.549	318.61
759.947	288.18
760.345	351.37
760.743	320.95
761.141	330.31
761.539	316.26
761.936	325.63
762.334	327.97
762.732	323.29
763.129	332.65
763.527	367.76
763.924	353.71
