Data from Al_FLMS009871__1098__16-29-43-505.txt Node

Date: Fri Mar 08 16:29:43 CST 2024
User: pe5414po
Spectrometer: FLMS00987
Trigger mode: 0
Integration Time (sec): 1.000000E-1
Scans to average: 1
Electric dark correction enabled: true
Nonlinearity correction enabled: false
Boxcar width: 0
XAxis mode: Wavelengths
Number of Pixels in Spectrum: 2048
>>>>>Begin Spectral Data<<<<<
188.938	-85.28
189.409	-85.28
189.879	-85.28
190.349	-120.39
190.819	-164.86
191.29	-85.28
191.76	-106.35
192.23	-66.56
192.7	-115.71
193.17	-31.45
193.64	-89.96
194.109	13.02
194.579	-15.07
195.049	-66.56
195.519	17.7
195.988	10.68
196.458	99.62
196.927	43.45
197.397	97.28
197.866	134.73
198.336	160.47
198.805	111.32
199.274	186.22
199.744	183.88
200.213	230.69
200.682	141.75
201.151	148.77
201.62	204.94
202.089	218.99
202.558	256.43
203.027	258.78
203.495	223.67
203.964	293.88
204.433	291.54
204.902	319.63
205.37	293.88
205.839	265.8
206.307	268.14
206.776	268.14
207.244	314.95
207.712	305.59
208.181	347.72
208.649	293.88
209.117	265.8
209.585	321.97
210.053	237.71
210.521	333.67
210.989	291.54
211.457	268.14
211.925	240.05
212.393	240.05
212.861	275.16
213.328	305.59
213.796	312.61
214.264	233.03
214.731	275.16
215.199	291.54
215.666	298.56
216.133	277.5
216.601	247.07
217.068	244.73
217.535	197.92
218.003	279.84
218.47	293.88
218.937	244.73
219.404	244.73
219.871	240.05
220.338	270.48
220.805	272.82
221.271	268.14
221.738	188.56
222.205	307.93
222.671	228.35
223.138	254.09
223.605	270.48
224.071	263.46
224.538	247.07
225.004	272.82
225.47	183.88
225.937	195.58
226.403	244.73
226.869	202.6
227.335	254.09
227.801	237.71
228.267	237.71
228.733	249.41
229.199	251.75
229.665	263.46
230.131	254.09
230.597	244.73
231.062	279.84
231.528	223.67
231.994	338.35
232.459	254.09
232.925	310.27
233.39	251.75
233.856	242.39
234.321	240.05
234.786	268.14
235.252	291.54
235.717	293.88
236.182	321.97
236.647	270.48
237.112	289.2
237.577	282.18
238.042	211.96
238.507	235.37
238.972	359.42
239.436	321.97
239.901	268.14
240.366	293.88
240.83	254.09
241.295	291.54
241.76	254.09
242.224	279.84
242.688	207.28
243.153	244.73
243.617	254.09
244.081	263.46
244.545	265.8
245.01	286.86
245.474	272.82
245.938	254.09
246.402	291.54
246.866	263.46
247.33	218.99
247.793	296.22
248.257	277.5
248.721	226.01
249.185	240.05
249.648	291.54
250.112	284.52
250.575	233.03
251.039	240.05
251.502	331.33
251.965	268.14
252.429	282.18
252.892	261.12
253.355	279.84
253.818	226.01
254.281	251.75
254.744	221.33
255.207	256.43
255.67	270.48
256.133	258.78
256.596	247.07
257.059	279.84
257.522	258.78
257.984	256.43
258.447	340.69
258.909	230.69
259.372	279.84
259.834	284.52
260.297	221.33
260.759	249.41
261.221	256.43
261.684	270.48
262.146	249.41
262.608	293.88
263.07	321.97
263.532	230.69
263.994	298.56
264.456	298.56
264.918	240.05
265.38	314.95
265.842	251.75
266.303	307.93
266.765	326.65
267.227	317.29
267.688	233.03
268.15	270.48
268.611	284.52
269.072	279.84
269.534	293.88
269.995	214.31
270.456	242.39
270.918	240.05
271.379	307.93
271.84	240.05
272.301	307.93
272.762	214.31
273.223	218.99
273.684	307.93
274.144	331.33
274.605	312.61
275.066	289.2
275.527	221.33
275.987	326.65
276.448	333.67
276.908	333.67
277.369	289.2
277.829	233.03
278.289	289.2
278.75	312.61
279.21	289.2
279.67	265.8
280.13	312.61
280.59	270.48
281.05	291.54
281.51	307.93
281.97	296.22
282.43	240.05
282.89	270.48
283.35	319.63
283.809	298.56
284.269	284.52
284.729	317.29
285.188	298.56
285.648	338.35
286.107	200.26
286.567	286.86
287.026	326.65
287.485	317.29
287.944	305.59
288.404	314.95
288.863	293.88
289.322	214.31
289.781	265.8
290.24	289.2
290.699	345.38
291.158	296.22
291.616	265.8
292.075	258.78
292.534	247.07
292.992	251.75
293.451	303.25
293.91	277.5
294.368	321.97
294.827	272.82
295.285	233.03
295.743	268.14
296.202	312.61
296.66	324.31
297.118	310.27
297.576	275.16
298.034	289.2
298.492	314.95
298.95	331.33
299.408	277.5
299.866	235.37
300.324	237.71
300.781	261.12
301.239	282.18
301.697	265.8
302.154	277.5
302.612	319.63
303.069	312.61
303.527	291.54
303.984	310.27
304.441	237.71
304.899	268.14
305.356	286.86
305.813	263.46
306.27	296.22
306.727	296.22
307.184	293.88
307.641	270.48
308.098	277.5
308.555	331.33
309.012	317.29
309.468	305.59
309.925	247.07
310.382	298.56
310.838	277.5
311.295	317.29
311.751	326.65
312.208	333.67
312.664	326.65
313.12	289.2
313.577	247.07
314.033	270.48
314.489	317.29
314.945	247.07
315.401	275.16
315.857	249.41
316.313	279.84
316.769	317.29
317.225	268.14
317.681	305.59
318.136	251.75
318.592	279.84
319.048	298.56
319.503	326.65
319.959	317.29
320.414	336.01
320.869	326.65
321.325	228.35
321.78	345.38
322.235	298.56
322.691	298.56
323.146	336.01
323.601	328.99
324.056	336.01
324.511	307.93
324.966	307.93
325.421	321.97
325.875	221.33
326.33	237.71
326.785	293.88
327.24	270.48
327.694	286.86
328.149	289.2
328.603	258.78
329.058	268.14
329.512	251.75
329.966	289.2
330.421	223.67
330.875	289.2
331.329	275.16
331.783	317.29
332.237	307.93
332.691	293.88
333.145	307.93
333.599	282.18
334.053	261.12
334.507	307.93
334.96	244.73
335.414	293.88
335.868	268.14
336.321	247.07
336.775	317.29
337.228	277.5
337.682	263.46
338.135	340.69
338.588	314.95
339.042	307.93
339.495	279.84
339.948	296.22
340.401	277.5
340.854	279.84
341.307	293.88
341.76	251.75
342.213	354.74
342.666	176.86
343.119	307.93
343.571	357.08
344.024	378.14
344.477	298.56
344.929	279.84
345.382	247.07
345.834	296.22
346.287	277.5
346.739	303.25
347.191	317.29
347.644	286.86
348.096	237.71
348.548	233.03
349	244.73
349.452	312.61
349.904	289.2
350.356	296.22
350.808	336.01
351.26	310.27
351.711	352.4
352.163	298.56
352.615	321.97
353.066	298.56
353.518	300.91
353.969	293.88
354.421	261.12
354.872	300.91
355.324	289.2
355.775	286.86
356.226	240.05
356.677	317.29
357.128	268.14
357.579	307.93
358.03	289.2
358.481	326.65
358.932	303.25
359.383	289.2
359.834	317.29
360.285	303.25
360.735	331.33
361.186	310.27
361.637	270.48
362.087	307.93
362.538	296.22
362.988	286.86
363.438	291.54
363.889	307.93
364.339	251.75
364.789	214.31
365.239	340.69
365.689	305.59
366.139	303.25
366.589	289.2
367.039	242.39
367.489	371.12
367.939	307.93
368.389	286.86
368.839	303.25
369.288	270.48
369.738	298.56
370.187	298.56
370.637	312.61
371.086	263.46
371.536	321.97
371.985	265.8
372.434	265.8
372.884	277.5
373.333	310.27
373.782	286.86
374.231	343.03
374.68	338.35
375.129	237.71
375.578	343.03
376.027	237.71
376.475	284.52
376.924	305.59
377.373	300.91
377.822	373.46
378.27	352.4
378.719	291.54
379.167	298.56
379.616	277.5
380.064	293.88
380.512	312.61
380.961	300.91
381.409	312.61
381.857	298.56
382.305	305.59
382.753	338.35
383.201	286.86
383.649	310.27
384.097	298.56
384.545	289.2
384.992	291.54
385.44	364.1
385.888	314.95
386.335	364.1
386.783	298.56
387.231	286.86
387.678	303.25
388.125	364.1
388.573	307.93
389.02	298.56
389.467	326.65
389.914	305.59
390.362	350.06
390.809	340.69
391.256	345.38
391.703	284.52
392.15	303.25
392.596	268.14
393.043	305.59
393.49	275.16
393.937	272.82
394.383	333.67
394.83	345.38
395.276	289.2
395.723	286.86
396.169	272.82
396.616	336.01
397.062	326.65
397.508	303.25
397.954	373.46
398.401	343.03
398.847	359.42
399.293	251.75
399.739	361.76
400.185	275.16
400.631	331.33
401.076	333.67
401.522	326.65
401.968	345.38
402.414	286.86
402.859	328.99
403.305	317.29
403.75	200.26
404.196	317.29
404.641	350.06
405.086	244.73
405.532	401.55
405.977	291.54
406.422	279.84
406.867	305.59
407.312	314.95
407.757	270.48
408.202	305.59
408.647	382.82
409.092	298.56
409.537	336.01
409.982	289.2
410.426	265.8
410.871	317.29
411.316	237.71
411.76	228.35
412.205	345.38
412.649	272.82
413.093	251.75
413.538	263.46
413.982	216.65
414.426	331.33
414.87	277.5
415.314	354.74
415.758	249.41
416.202	310.27
416.646	296.22
417.09	321.97
417.534	289.2
417.978	317.29
418.421	221.33
418.865	223.67
419.309	277.5
419.752	307.93
420.196	237.71
420.639	279.84
421.083	275.16
421.526	298.56
421.969	326.65
422.412	314.95
422.856	312.61
423.299	282.18
423.742	298.56
424.185	321.97
424.628	331.33
425.071	338.35
425.513	282.18
425.956	312.61
426.399	333.67
426.842	319.63
427.284	310.27
427.727	314.95
428.169	282.18
428.612	336.01
429.054	352.4
429.497	343.03
429.939	350.06
430.381	324.31
430.823	275.16
431.265	331.33
431.707	317.29
432.149	328.99
432.591	275.16
433.033	300.91
433.475	324.31
433.917	289.2
434.359	286.86
434.8	282.18
435.242	305.59
435.684	289.2
436.125	340.69
436.567	261.12
437.008	324.31
437.449	298.56
437.891	204.94
438.332	254.09
438.773	289.2
439.214	293.88
439.656	378.14
440.097	354.74
440.538	291.54
440.978	279.84
441.419	314.95
441.86	352.4
442.301	279.84
442.742	282.18
443.182	284.52
443.623	312.61
444.063	247.07
444.504	331.33
444.944	324.31
445.385	268.14
445.825	277.5
446.265	296.22
446.706	333.67
447.146	368.78
447.586	317.29
448.026	265.8
448.466	326.65
448.906	265.8
449.346	371.12
449.786	279.84
450.225	268.14
450.665	350.06
451.105	333.67
451.544	312.61
451.984	317.29
452.424	312.61
452.863	319.63
453.302	209.62
453.742	296.22
454.181	345.38
454.62	291.54
455.059	226.01
455.499	347.72
455.938	298.56
456.377	326.65
456.816	347.72
457.254	286.86
457.693	291.54
458.132	209.62
458.571	256.43
459.01	263.46
459.448	317.29
459.887	357.08
460.325	328.99
460.764	361.76
461.202	282.18
461.641	247.07
462.079	328.99
462.517	296.22
462.955	350.06
463.393	328.99
463.832	357.08
464.27	333.67
464.708	359.42
465.145	291.54
465.583	291.54
466.021	291.54
466.459	326.65
466.897	314.95
467.334	291.54
467.772	324.31
468.209	366.44
468.647	289.2
469.084	321.97
469.522	258.78
469.959	307.93
470.396	333.67
470.833	261.12
471.271	352.4
471.708	293.88
472.145	256.43
472.582	317.29
473.019	270.48
473.456	321.97
473.892	300.91
474.329	268.14
474.766	345.38
475.202	247.07
475.639	277.5
476.076	328.99
476.512	321.97
476.949	251.75
477.385	230.69
477.821	237.71
478.258	338.35
478.694	319.63
479.13	303.25
479.566	307.93
480.002	263.46
480.438	314.95
480.874	277.5
481.31	338.35
481.746	303.25
482.181	286.86
482.617	303.25
483.053	336.01
483.488	357.08
483.924	324.31
484.36	303.25
484.795	314.95
485.23	354.74
485.666	338.35
486.101	233.03
486.536	314.95
486.971	321.97
487.407	307.93
487.842	272.82
488.277	293.88
488.712	298.56
489.146	300.91
489.581	307.93
490.016	375.8
490.451	333.67
490.885	345.38
491.32	366.44
491.755	298.56
492.189	286.86
492.624	275.16
493.058	265.8
493.492	310.27
493.927	293.88
494.361	303.25
494.795	371.12
495.229	333.67
495.663	305.59
496.097	380.48
496.531	305.59
496.965	298.56
497.399	284.52
497.833	336.01
498.266	345.38
498.7	326.65
499.134	340.69
499.567	357.08
500.001	303.25
500.434	298.56
500.868	307.93
501.301	371.12
501.734	258.78
502.168	286.86
502.601	284.52
503.034	284.52
503.467	326.65
503.9	354.74
504.333	312.61
504.766	328.99
505.199	347.72
505.632	354.74
506.064	289.2
506.497	277.5
506.93	328.99
507.362	333.67
507.795	364.1
508.227	387.5
508.66	293.88
509.092	244.73
509.524	303.25
509.956	331.33
510.389	338.35
510.821	310.27
511.253	314.95
511.685	296.22
512.117	282.18
512.549	254.09
512.981	324.31
513.412	321.97
513.844	336.01
514.276	328.99
514.707	357.08
515.139	350.06
515.571	254.09
516.002	303.25
516.433	385.16
516.865	324.31
517.296	361.76
517.727	296.22
518.159	282.18
518.59	338.35
519.021	261.12
519.452	307.93
519.883	279.84
520.314	352.4
520.744	347.72
521.175	303.25
521.606	289.2
522.037	321.97
522.467	307.93
522.898	305.59
523.328	254.09
523.759	284.52
524.189	277.5
524.62	359.42
525.05	307.93
525.48	361.76
525.91	296.22
526.341	321.97
526.771	300.91
527.201	321.97
527.631	256.43
528.061	350.06
528.49	258.78
528.92	328.99
529.35	347.72
529.78	277.5
530.209	310.27
530.639	331.33
531.068	240.05
531.498	352.4
531.927	312.61
532.357	352.4
532.786	352.4
533.215	331.33
533.644	307.93
534.074	286.86
534.503	321.97
534.932	336.01
535.361	310.27
535.79	265.8
536.218	321.97
536.647	310.27
537.076	289.2
537.505	343.03
537.933	357.08
538.362	305.59
538.79	380.48
539.219	317.29
539.647	223.67
540.076	277.5
540.504	261.12
540.932	275.16
541.36	307.93
541.788	364.1
542.217	279.84
542.645	336.01
543.073	305.59
543.5	354.74
543.928	298.56
544.356	298.56
544.784	321.97
545.211	326.65
545.639	256.43
546.067	326.65
546.494	321.97
546.922	328.99
547.349	279.84
547.776	277.5
548.204	298.56
548.631	282.18
549.058	296.22
549.485	289.2
549.912	298.56
550.339	284.52
550.766	314.95
551.193	345.38
551.62	293.88
552.047	270.48
552.474	314.95
552.9	345.38
553.327	261.12
553.754	296.22
554.18	265.8
554.607	317.29
555.033	275.16
555.459	293.88
555.886	350.06
556.312	380.48
556.738	289.2
557.164	291.54
557.59	347.72
558.016	328.99
558.442	279.84
558.868	354.74
559.294	394.53
559.72	328.99
560.145	380.48
560.571	364.1
560.997	289.2
561.422	333.67
561.848	286.86
562.273	275.16
562.699	326.65
563.124	326.65
563.549	284.52
563.974	317.29
564.4	310.27
564.825	270.48
565.25	321.97
565.675	338.35
566.1	284.52
566.525	277.5
566.95	265.8
567.374	291.54
567.799	338.35
568.224	385.16
568.648	298.56
569.073	328.99
569.497	286.86
569.922	319.63
570.346	282.18
570.771	336.01
571.195	324.31
571.619	256.43
572.043	314.95
572.467	286.86
572.891	261.12
573.315	326.65
573.739	328.99
574.163	265.8
574.587	284.52
575.011	298.56
575.435	303.25
575.858	338.35
576.282	324.31
576.705	324.31
577.129	350.06
577.552	305.59
577.976	338.35
578.399	251.75
578.822	321.97
579.245	310.27
579.669	307.93
580.092	277.5
580.515	256.43
580.938	380.48
581.361	268.14
581.784	251.75
582.206	265.8
582.629	277.5
583.052	275.16
583.474	303.25
583.897	265.8
584.32	226.01
584.742	289.2
585.165	361.76
585.587	268.14
586.009	291.54
586.431	268.14
586.854	279.84
587.276	237.71
587.698	378.14
588.12	366.44
588.542	345.38
588.964	317.29
589.386	347.72
589.807	361.76
590.229	230.69
590.651	326.65
591.073	312.61
591.494	263.46
591.916	279.84
592.337	293.88
592.759	307.93
593.18	366.44
593.601	296.22
594.022	331.33
594.444	338.35
594.865	303.25
595.286	291.54
595.707	336.01
596.128	268.14
596.549	296.22
596.97	310.27
597.39	263.46
597.811	284.52
598.232	312.61
598.652	289.2
599.073	305.59
599.494	314.95
599.914	291.54
600.334	282.18
600.755	228.35
601.175	307.93
601.595	261.12
602.015	319.63
602.436	338.35
602.856	394.53
603.276	321.97
603.696	354.74
604.115	357.08
604.535	230.69
604.955	272.82
605.375	300.91
605.794	303.25
606.214	375.8
606.634	275.16
607.053	310.27
607.473	286.86
607.892	300.91
608.311	319.63
608.731	291.54
609.15	310.27
609.569	312.61
609.988	282.18
610.407	347.72
610.826	319.63
611.245	371.12
611.664	254.09
612.083	319.63
612.501	296.22
612.92	300.91
613.339	307.93
613.757	282.18
614.176	310.27
614.594	298.56
615.013	310.27
615.431	317.29
615.85	314.95
616.268	361.76
616.686	265.8
617.104	258.78
617.522	326.65
617.94	331.33
618.358	279.84
618.776	343.03
619.194	373.46
619.612	307.93
620.03	343.03
620.447	284.52
620.865	289.2
621.282	251.75
621.7	326.65
622.117	289.2
622.535	300.91
622.952	293.88
623.369	261.12
623.787	279.84
624.204	279.84
624.621	328.99
625.038	296.22
625.455	321.97
625.872	312.61
626.289	307.93
626.706	305.59
627.123	307.93
627.539	249.41
627.956	305.59
628.373	247.07
628.789	289.2
629.206	307.93
629.622	284.52
630.038	326.65
630.455	286.86
630.871	312.61
631.287	345.38
631.703	254.09
632.12	331.33
632.536	345.38
632.952	244.73
633.368	284.52
633.783	291.54
634.199	277.5
634.615	237.71
635.031	305.59
635.446	296.22
635.862	357.08
636.277	275.16
636.693	296.22
637.108	317.29
637.524	359.42
637.939	277.5
638.354	324.31
638.77	317.29
639.185	326.65
639.6	324.31
640.015	317.29
640.43	279.84
640.845	331.33
641.259	364.1
641.674	298.56
642.089	289.2
642.504	279.84
642.918	291.54
643.333	303.25
643.747	289.2
644.162	275.16
644.576	317.29
644.991	305.59
645.405	357.08
645.819	289.2
646.233	263.46
646.647	354.74
647.061	345.38
647.475	286.86
647.889	303.25
648.303	268.14
648.717	289.2
649.131	270.48
649.545	279.84
649.958	310.27
650.372	354.74
650.785	345.38
651.199	368.78
651.612	307.93
652.026	282.18
652.439	303.25
652.852	345.38
653.266	314.95
653.679	284.52
654.092	389.85
654.505	286.86
654.918	326.65
655.331	321.97
655.744	357.08
656.156	307.93
656.569	312.61
656.982	303.25
657.394	324.31
657.807	333.67
658.22	303.25
658.632	296.22
659.044	347.72
659.457	317.29
659.869	307.93
660.281	249.41
660.693	279.84
661.106	272.82
661.518	298.56
661.93	223.67
662.342	247.07
662.754	317.29
663.165	286.86
663.577	326.65
663.989	303.25
664.401	357.08
664.812	293.88
665.224	345.38
665.635	298.56
666.047	333.67
666.458	371.12
666.869	310.27
667.281	261.12
667.692	307.93
668.103	312.61
668.514	284.52
668.925	296.22
669.336	265.8
669.747	317.29
670.158	328.99
670.569	352.4
670.979	279.84
671.39	361.76
671.801	251.75
672.211	314.95
672.622	256.43
673.032	340.69
673.443	293.88
673.853	350.06
674.263	359.42
674.674	300.91
675.084	282.18
675.494	314.95
675.904	282.18
676.314	305.59
676.724	324.31
677.134	258.78
677.544	321.97
677.953	268.14
678.363	307.93
678.773	350.06
679.182	340.69
679.592	263.46
680.001	307.93
680.411	368.78
680.82	305.59
681.23	305.59
681.639	300.91
682.048	331.33
682.457	338.35
682.866	336.01
683.275	270.48
683.684	258.78
684.093	277.5
684.502	328.99
684.911	289.2
685.32	340.69
685.728	317.29
686.137	284.52
686.546	310.27
686.954	289.2
687.363	296.22
687.771	307.93
688.179	338.35
688.588	328.99
688.996	378.14
689.404	345.38
689.812	284.52
690.22	343.03
690.628	305.59
691.036	291.54
691.444	275.16
691.852	300.91
692.26	321.97
692.667	284.52
693.075	268.14
693.483	347.72
693.89	305.59
694.298	291.54
694.705	385.16
695.112	303.25
695.52	333.67
695.927	326.65
696.334	328.99
696.741	300.91
697.148	272.82
697.555	265.8
697.962	321.97
698.369	300.91
698.776	240.05
699.183	300.91
699.59	305.59
699.996	305.59
700.403	319.63
700.81	265.8
701.216	286.86
701.623	261.12
702.029	368.78
702.435	258.78
702.842	357.08
703.248	321.97
703.654	242.39
704.06	254.09
704.466	359.42
704.872	291.54
705.278	240.05
705.684	331.33
706.09	357.08
706.496	277.5
706.901	343.03
707.307	270.48
707.712	254.09
708.118	249.41
708.523	303.25
708.929	354.74
709.334	298.56
709.74	300.91
710.145	279.84
710.55	291.54
710.955	345.38
711.36	317.29
711.765	244.73
712.17	317.29
712.575	343.03
712.98	925.83
713.385	410.91
713.789	310.27
714.194	350.06
714.599	279.84
715.003	233.03
715.408	354.74
715.812	291.54
716.217	282.18
716.621	303.25
717.025	317.29
717.429	293.88
717.833	338.35
718.238	380.48
718.642	314.95
719.046	354.74
719.449	366.44
719.853	244.73
720.257	289.2
720.661	270.48
721.065	326.65
721.468	296.22
721.872	254.09
722.275	279.84
722.679	293.88
723.082	321.97
723.485	270.48
723.889	319.63
724.292	275.16
724.695	310.27
725.098	394.53
725.501	275.16
725.904	272.82
726.307	286.86
726.71	296.22
727.113	258.78
727.516	375.8
727.918	310.27
728.321	321.97
728.724	237.71
729.126	223.67
729.529	328.99
729.931	272.82
730.333	277.5
730.736	357.08
731.138	261.12
731.54	347.72
731.942	305.59
732.344	204.94
732.746	333.67
733.148	261.12
733.55	282.18
733.952	251.75
734.354	298.56
734.756	233.03
735.157	312.61
735.559	310.27
735.96	378.14
736.362	340.69
736.763	340.69
737.165	328.99
737.566	258.78
737.967	319.63
738.368	286.86
738.77	305.59
739.171	258.78
739.572	307.93
739.973	291.54
740.374	312.61
740.774	350.06
741.175	289.2
741.576	275.16
741.977	324.31
742.377	282.18
742.778	305.59
743.178	279.84
743.579	328.99
743.979	331.33
744.379	319.63
744.78	312.61
745.18	298.56
745.58	277.5
745.98	343.03
746.38	347.72
746.78	286.86
747.18	256.43
747.58	326.65
747.98	284.52
748.38	240.05
748.779	312.61
749.179	282.18
749.578	293.88
749.978	319.63
750.377	326.65
750.777	310.27
751.176	282.18
751.575	319.63
751.975	277.5
752.374	279.84
752.773	282.18
753.172	319.63
753.571	296.22
753.97	256.43
754.369	265.8
754.768	310.27
755.166	347.72
755.565	270.48
755.964	338.35
756.362	310.27
756.761	347.72
757.159	282.18
757.558	256.43
757.956	296.22
758.354	310.27
758.753	352.4
759.151	300.91
759.549	333.67
759.947	251.75
760.345	310.27
760.743	209.62
761.141	254.09
761.539	326.65
761.936	265.8
762.334	230.69
762.732	399.21
763.129	286.86
763.527	321.97
763.924	249.41
764.322	368.78
764.719	354.74
