Data from Al_FLMS009871__1069__16-27-03-611.txt Node

Date: Fri Mar 08 16:27:03 CST 2024
User: pe5414po
Spectrometer: FLMS00987
Trigger mode: 0
Integration Time (sec): 1.000000E-1
Scans to average: 1
Electric dark correction enabled: true
Nonlinearity correction enabled: false
Boxcar width: 0
XAxis mode: Wavelengths
Number of Pixels in Spectrum: 2048
>>>>>Begin Spectral Data<<<<<
188.938	-68.9
189.409	-68.9
189.879	-68.9
190.349	-64.22
190.819	-54.86
191.29	-104.01
191.76	-50.18
192.23	-92.3
192.7	-78.26
193.17	-64.22
193.64	8.34
194.109	-19.75
194.579	-50.18
195.049	31.74
195.519	-31.45
195.988	27.06
196.458	92.6
196.927	36.42
197.397	80.89
197.866	120.68
198.336	92.6
198.805	130.05
199.274	214.31
199.744	186.22
200.213	186.22
200.682	190.9
201.151	233.03
201.62	265.8
202.089	293.88
202.558	307.93
203.027	240.05
203.495	321.97
203.964	300.91
204.433	296.22
204.902	303.25
205.37	340.69
205.839	352.4
206.307	240.05
206.776	312.61
207.244	286.86
207.712	268.14
208.181	307.93
208.649	317.29
209.117	314.95
209.585	326.65
210.053	307.93
210.521	317.29
210.989	275.16
211.457	317.29
211.925	293.88
212.393	317.29
212.861	279.84
213.328	328.99
213.796	326.65
214.264	263.46
214.731	261.12
215.199	289.2
215.666	296.22
216.133	279.84
216.601	291.54
217.068	233.03
217.535	298.56
218.003	242.39
218.47	321.97
218.937	258.78
219.404	326.65
219.871	354.74
220.338	345.38
220.805	258.78
221.271	256.43
221.738	289.2
222.205	209.62
222.671	265.8
223.138	270.48
223.605	296.22
224.071	279.84
224.538	272.82
225.004	282.18
225.47	270.48
225.937	275.16
226.403	251.75
226.869	282.18
227.335	268.14
227.801	326.65
228.267	272.82
228.733	237.71
229.199	286.86
229.665	326.65
230.131	303.25
230.597	296.22
231.062	221.33
231.528	256.43
231.994	289.2
232.459	282.18
232.925	336.01
233.39	298.56
233.856	310.27
234.321	312.61
234.786	263.46
235.252	256.43
235.717	289.2
236.182	258.78
236.647	282.18
237.112	282.18
237.577	254.09
238.042	298.56
238.507	373.46
238.972	272.82
239.436	324.31
239.901	338.35
240.366	326.65
240.83	345.38
241.295	314.95
241.76	317.29
242.224	258.78
242.688	265.8
243.153	275.16
243.617	298.56
244.081	289.2
244.545	303.25
245.01	319.63
245.474	324.31
245.938	265.8
246.402	237.71
246.866	314.95
247.33	338.35
247.793	303.25
248.257	319.63
248.721	319.63
249.185	317.29
249.648	277.5
250.112	300.91
250.575	291.54
251.039	277.5
251.502	256.43
251.965	307.93
252.429	277.5
252.892	366.44
253.355	312.61
253.818	296.22
254.281	256.43
254.744	298.56
255.207	263.46
255.67	305.59
256.133	289.2
256.596	324.31
257.059	270.48
257.522	343.03
257.984	317.29
258.447	275.16
258.909	354.74
259.372	293.88
259.834	312.61
260.297	261.12
260.759	254.09
261.221	261.12
261.684	324.31
262.146	319.63
262.608	326.65
263.07	324.31
263.532	293.88
263.994	279.84
264.456	305.59
264.918	312.61
265.38	265.8
265.842	347.72
266.303	354.74
266.765	275.16
267.227	296.22
267.688	333.67
268.15	277.5
268.611	275.16
269.072	324.31
269.534	321.97
269.995	307.93
270.456	336.01
270.918	296.22
271.379	265.8
271.84	352.4
272.301	336.01
272.762	307.93
273.223	326.65
273.684	333.67
274.144	373.46
274.605	289.2
275.066	270.48
275.527	293.88
275.987	228.35
276.448	293.88
276.908	307.93
277.369	350.06
277.829	305.59
278.289	291.54
278.75	291.54
279.21	270.48
279.67	272.82
280.13	331.33
280.59	305.59
281.05	338.35
281.51	256.43
281.97	258.78
282.43	268.14
282.89	293.88
283.35	314.95
283.809	314.95
284.269	270.48
284.729	270.48
285.188	305.59
285.648	284.52
286.107	340.69
286.567	303.25
287.026	340.69
287.485	336.01
287.944	328.99
288.404	235.37
288.863	314.95
289.322	296.22
289.781	354.74
290.24	343.03
290.699	258.78
291.158	364.1
291.616	354.74
292.075	345.38
292.534	312.61
292.992	298.56
293.451	289.2
293.91	261.12
294.368	359.42
294.827	286.86
295.285	298.56
295.743	312.61
296.202	312.61
296.66	282.18
297.118	326.65
297.576	321.97
298.034	277.5
298.492	305.59
298.95	333.67
299.408	284.52
299.866	375.8
300.324	345.38
300.781	317.29
301.239	326.65
301.697	296.22
302.154	296.22
302.612	312.61
303.069	317.29
303.527	298.56
303.984	293.88
304.441	275.16
304.899	286.86
305.356	317.29
305.813	317.29
306.27	385.16
306.727	338.35
307.184	293.88
307.641	298.56
308.098	303.25
308.555	268.14
309.012	263.46
309.468	263.46
309.925	350.06
310.382	371.12
310.838	312.61
311.295	338.35
311.751	305.59
312.208	268.14
312.664	265.8
313.12	371.12
313.577	296.22
314.033	317.29
314.489	284.52
314.945	361.76
315.401	312.61
315.857	293.88
316.313	368.78
316.769	347.72
317.225	321.97
317.681	347.72
318.136	417.93
318.592	272.82
319.048	347.72
319.503	324.31
319.959	310.27
320.414	406.23
320.869	314.95
321.325	211.96
321.78	307.93
322.235	328.99
322.691	343.03
323.146	289.2
323.601	317.29
324.056	312.61
324.511	310.27
324.966	326.65
325.421	359.42
325.875	317.29
326.33	282.18
326.785	324.31
327.24	382.82
327.694	314.95
328.149	359.42
328.603	343.03
329.058	345.38
329.512	326.65
329.966	317.29
330.421	389.85
330.875	298.56
331.329	275.16
331.783	359.42
332.237	340.69
332.691	307.93
333.145	326.65
333.599	366.44
334.053	300.91
334.507	385.16
334.96	289.2
335.414	298.56
335.868	310.27
336.321	347.72
336.775	357.08
337.228	307.93
337.682	284.52
338.135	282.18
338.588	268.14
339.042	296.22
339.495	368.78
339.948	314.95
340.401	314.95
340.854	298.56
341.307	340.69
341.76	282.18
342.213	340.69
342.666	359.42
343.119	340.69
343.571	343.03
344.024	300.91
344.477	357.08
344.929	300.91
345.382	347.72
345.834	336.01
346.287	338.35
346.739	282.18
347.191	347.72
347.644	305.59
348.096	326.65
348.548	249.41
349	244.73
349.452	333.67
349.904	336.01
350.356	326.65
350.808	321.97
351.26	282.18
351.711	275.16
352.163	331.33
352.615	298.56
353.066	371.12
353.518	300.91
353.969	333.67
354.421	286.86
354.872	237.71
355.324	401.55
355.775	328.99
356.226	317.29
356.677	354.74
357.128	328.99
357.579	331.33
358.03	319.63
358.481	293.88
358.932	350.06
359.383	296.22
359.834	352.4
360.285	366.44
360.735	357.08
361.186	328.99
361.637	275.16
362.087	317.29
362.538	291.54
362.988	291.54
363.438	286.86
363.889	343.03
364.339	317.29
364.789	314.95
365.239	361.76
365.689	331.33
366.139	359.42
366.589	354.74
367.039	364.1
367.489	284.52
367.939	310.27
368.389	305.59
368.839	270.48
369.288	312.61
369.738	347.72
370.187	324.31
370.637	378.14
371.086	340.69
371.536	314.95
371.985	338.35
372.434	336.01
372.884	324.31
373.333	352.4
373.782	303.25
374.231	338.35
374.68	354.74
375.129	326.65
375.578	368.78
376.027	319.63
376.475	305.59
376.924	275.16
377.373	354.74
377.822	357.08
378.27	324.31
378.719	359.42
379.167	333.67
379.616	312.61
380.064	324.31
380.512	354.74
380.961	333.67
381.409	336.01
381.857	314.95
382.305	340.69
382.753	298.56
383.201	312.61
383.649	312.61
384.097	275.16
384.545	296.22
384.992	293.88
385.44	305.59
385.888	357.08
386.335	305.59
386.783	364.1
387.231	347.72
387.678	340.69
388.125	347.72
388.573	368.78
389.02	303.25
389.467	291.54
389.914	300.91
390.362	324.31
390.809	450.7
391.256	352.4
391.703	296.22
392.15	403.89
392.596	345.38
393.043	328.99
393.49	307.93
393.937	312.61
394.383	291.54
394.83	345.38
395.276	282.18
395.723	293.88
396.169	385.16
396.616	258.78
397.062	279.84
397.508	300.91
397.954	300.91
398.401	286.86
398.847	364.1
399.293	354.74
399.739	343.03
400.185	328.99
400.631	401.55
401.076	331.33
401.522	354.74
401.968	345.38
402.414	277.5
402.859	303.25
403.305	282.18
403.75	331.33
404.196	401.55
404.641	364.1
405.086	314.95
405.532	380.48
405.977	310.27
406.422	303.25
406.867	396.87
407.312	298.56
407.757	359.42
408.202	352.4
408.647	310.27
409.092	328.99
409.537	298.56
409.982	413.25
410.426	289.2
410.871	328.99
411.316	310.27
411.76	317.29
412.205	319.63
412.649	312.61
413.093	319.63
413.538	347.72
413.982	350.06
414.426	319.63
414.87	291.54
415.314	361.76
415.758	282.18
416.202	347.72
416.646	310.27
417.09	366.44
417.534	345.38
417.978	347.72
418.421	310.27
418.865	333.67
419.309	277.5
419.752	279.84
420.196	263.46
420.639	357.08
421.083	326.65
421.526	345.38
421.969	270.48
422.412	286.86
422.856	235.37
423.299	270.48
423.742	298.56
424.185	354.74
424.628	345.38
425.071	366.44
425.513	317.29
425.956	298.56
426.399	396.87
426.842	326.65
427.284	319.63
427.727	298.56
428.169	326.65
428.612	380.48
429.054	368.78
429.497	357.08
429.939	303.25
430.381	368.78
430.823	279.84
431.265	366.44
431.707	385.16
432.149	343.03
432.591	328.99
433.033	364.1
433.475	408.57
433.917	319.63
434.359	382.82
434.8	347.72
435.242	298.56
435.684	270.48
436.125	352.4
436.567	364.1
437.008	282.18
437.449	256.43
437.891	326.65
438.332	321.97
438.773	303.25
439.214	328.99
439.656	291.54
440.097	401.55
440.538	338.35
440.978	258.78
441.419	314.95
441.86	305.59
442.301	345.38
442.742	347.72
443.182	364.1
443.623	307.93
444.063	298.56
444.504	293.88
444.944	328.99
445.385	279.84
445.825	331.33
446.265	382.82
446.706	291.54
447.146	328.99
447.586	326.65
448.026	352.4
448.466	242.39
448.906	338.35
449.346	324.31
449.786	359.42
450.225	307.93
450.665	312.61
451.105	333.67
451.544	303.25
451.984	333.67
452.424	293.88
452.863	324.31
453.302	364.1
453.742	357.08
454.181	265.8
454.62	328.99
455.059	326.65
455.499	336.01
455.938	375.8
456.377	338.35
456.816	286.86
457.254	317.29
457.693	321.97
458.132	319.63
458.571	338.35
459.01	336.01
459.448	312.61
459.887	291.54
460.325	357.08
460.764	328.99
461.202	312.61
461.641	366.44
462.079	366.44
462.517	328.99
462.955	343.03
463.393	324.31
463.832	272.82
464.27	300.91
464.708	254.09
465.145	368.78
465.583	382.82
466.021	310.27
466.459	296.22
466.897	300.91
467.334	314.95
467.772	378.14
468.209	319.63
468.647	331.33
469.084	361.76
469.522	336.01
469.959	357.08
470.396	324.31
470.833	314.95
471.271	392.19
471.708	298.56
472.145	352.4
472.582	340.69
473.019	340.69
473.456	307.93
473.892	321.97
474.329	303.25
474.766	333.67
475.202	347.72
475.639	354.74
476.076	366.44
476.512	272.82
476.949	312.61
477.385	366.44
477.821	298.56
478.258	328.99
478.694	328.99
479.13	310.27
479.566	324.31
480.002	373.46
480.438	286.86
480.874	310.27
481.31	333.67
481.746	317.29
482.181	378.14
482.617	340.69
483.053	371.12
483.488	242.39
483.924	326.65
484.36	296.22
484.795	324.31
485.23	303.25
485.666	359.42
486.101	326.65
486.536	359.42
486.971	326.65
487.407	347.72
487.842	314.95
488.277	336.01
488.712	282.18
489.146	303.25
489.581	319.63
490.016	331.33
490.451	359.42
490.885	333.67
491.32	296.22
491.755	258.78
492.189	385.16
492.624	305.59
493.058	359.42
493.492	340.69
493.927	354.74
494.361	333.67
494.795	303.25
495.229	254.09
495.663	305.59
496.097	364.1
496.531	321.97
496.965	394.53
497.399	347.72
497.833	373.46
498.266	354.74
498.7	300.91
499.134	310.27
499.567	352.4
500.001	326.65
500.434	265.8
500.868	413.25
501.301	328.99
501.734	331.33
502.168	373.46
502.601	347.72
503.034	286.86
503.467	324.31
503.9	431.98
504.333	279.84
504.766	357.08
505.199	364.1
505.632	340.69
506.064	389.85
506.497	331.33
506.93	310.27
507.362	331.33
507.795	310.27
508.227	317.29
508.66	300.91
509.092	333.67
509.524	338.35
509.956	343.03
510.389	321.97
510.821	347.72
511.253	354.74
511.685	357.08
512.117	317.29
512.549	347.72
512.981	352.4
513.412	336.01
513.844	305.59
514.276	387.5
514.707	357.08
515.139	340.69
515.571	359.42
516.002	350.06
516.433	305.59
516.865	357.08
517.296	343.03
517.727	328.99
518.159	343.03
518.59	312.61
519.021	385.16
519.452	340.69
519.883	338.35
520.314	298.56
520.744	324.31
521.175	324.31
521.606	375.8
522.037	338.35
522.467	256.43
522.898	317.29
523.328	303.25
523.759	300.91
524.189	319.63
524.62	328.99
525.05	326.65
525.48	408.57
525.91	328.99
526.341	277.5
526.771	319.63
527.201	359.42
527.631	293.88
528.061	375.8
528.49	214.31
528.92	357.08
529.35	333.67
529.78	338.35
530.209	328.99
530.639	340.69
531.068	357.08
531.498	284.52
531.927	347.72
532.357	328.99
532.786	343.03
533.215	361.76
533.644	366.44
534.074	333.67
534.503	328.99
534.932	331.33
535.361	354.74
535.79	352.4
536.218	293.88
536.647	371.12
537.076	282.18
537.505	317.29
537.933	303.25
538.362	343.03
538.79	378.14
539.219	375.8
539.647	345.38
540.076	310.27
540.504	279.84
540.932	314.95
541.36	352.4
541.788	354.74
542.217	282.18
542.645	303.25
543.073	298.56
543.5	336.01
543.928	359.42
544.356	305.59
544.784	333.67
545.211	368.78
545.639	317.29
546.067	277.5
546.494	284.52
546.922	275.16
547.349	272.82
547.776	340.69
548.204	359.42
548.631	352.4
549.058	286.86
549.485	371.12
549.912	319.63
550.339	380.48
550.766	303.25
551.193	410.91
551.62	340.69
552.047	366.44
552.474	317.29
552.9	347.72
553.327	298.56
553.754	333.67
554.18	333.67
554.607	326.65
555.033	333.67
555.459	307.93
555.886	270.48
556.312	312.61
556.738	368.78
557.164	251.75
557.59	289.2
558.016	331.33
558.442	319.63
558.868	319.63
559.294	368.78
559.72	279.84
560.145	300.91
560.571	272.82
560.997	347.72
561.422	314.95
561.848	307.93
562.273	286.86
562.699	310.27
563.124	314.95
563.549	350.06
563.974	345.38
564.4	279.84
564.825	314.95
565.25	317.29
565.675	300.91
566.1	340.69
566.525	373.46
566.95	331.33
567.374	354.74
567.799	328.99
568.224	291.54
568.648	364.1
569.073	291.54
569.497	298.56
569.922	314.95
570.346	310.27
570.771	321.97
571.195	291.54
571.619	321.97
572.043	321.97
572.467	361.76
572.891	300.91
573.315	357.08
573.739	268.14
574.163	263.46
574.587	420.27
575.011	375.8
575.435	357.08
575.858	336.01
576.282	286.86
576.705	331.33
577.129	319.63
577.552	361.76
577.976	307.93
578.399	364.1
578.822	310.27
579.245	361.76
579.669	364.1
580.092	350.06
580.515	359.42
580.938	240.05
581.361	289.2
581.784	321.97
582.206	286.86
582.629	324.31
583.052	289.2
583.474	270.48
583.897	328.99
584.32	368.78
584.742	326.65
585.165	307.93
585.587	293.88
586.009	324.31
586.431	235.37
586.854	317.29
587.276	359.42
587.698	357.08
588.12	396.87
588.542	399.21
588.964	364.1
589.386	296.22
589.807	291.54
590.229	286.86
590.651	321.97
591.073	345.38
591.494	373.46
591.916	333.67
592.337	303.25
592.759	314.95
593.18	350.06
593.601	331.33
594.022	354.74
594.444	357.08
594.865	382.82
595.286	268.14
595.707	272.82
596.128	350.06
596.549	300.91
596.97	354.74
597.39	321.97
597.811	347.72
598.232	310.27
598.652	310.27
599.073	406.23
599.494	333.67
599.914	263.46
600.334	366.44
600.755	343.03
601.175	282.18
601.595	424.95
602.015	371.12
602.436	282.18
602.856	420.27
603.276	380.48
603.696	314.95
604.115	321.97
604.535	286.86
604.955	373.46
605.375	321.97
605.794	321.97
606.214	328.99
606.634	270.48
607.053	270.48
607.473	347.72
607.892	389.85
608.311	305.59
608.731	359.42
609.15	326.65
609.569	333.67
609.988	317.29
610.407	317.29
610.826	324.31
611.245	270.48
611.664	336.01
612.083	284.52
612.501	364.1
612.92	303.25
613.339	350.06
613.757	326.65
614.176	286.86
614.594	345.38
615.013	338.35
615.431	403.89
615.85	321.97
616.268	350.06
616.686	261.12
617.104	286.86
617.522	343.03
617.94	324.31
618.358	277.5
618.776	261.12
619.194	350.06
619.612	336.01
620.03	317.29
620.447	307.93
620.865	317.29
621.282	328.99
621.7	336.01
622.117	340.69
622.535	279.84
622.952	326.65
623.369	366.44
623.787	331.33
624.204	338.35
624.621	275.16
625.038	350.06
625.455	446.02
625.872	291.54
626.289	319.63
626.706	347.72
627.123	268.14
627.539	326.65
627.956	249.41
628.373	328.99
628.789	343.03
629.206	354.74
629.622	387.5
630.038	326.65
630.455	272.82
630.871	298.56
631.287	256.43
631.703	357.08
632.12	392.19
632.536	333.67
632.952	331.33
633.368	310.27
633.783	352.4
634.199	373.46
634.615	350.06
635.031	352.4
635.446	324.31
635.862	350.06
636.277	321.97
636.693	328.99
637.108	321.97
637.524	321.97
637.939	343.03
638.354	305.59
638.77	324.31
639.185	314.95
639.6	338.35
640.015	321.97
640.43	340.69
640.845	298.56
641.259	317.29
641.674	357.08
642.089	343.03
642.504	394.53
642.918	336.01
643.333	303.25
643.747	314.95
644.162	382.82
644.576	305.59
644.991	392.19
645.405	357.08
645.819	331.33
646.233	336.01
646.647	307.93
647.061	378.14
647.475	328.99
647.889	319.63
648.303	279.84
648.717	359.42
649.131	310.27
649.545	291.54
649.958	338.35
650.372	406.23
650.785	333.67
651.199	361.76
651.612	319.63
652.026	357.08
652.439	328.99
652.852	293.88
653.266	354.74
653.679	244.73
654.092	286.86
654.505	375.8
654.918	291.54
655.331	270.48
655.744	319.63
656.156	457.72
656.569	235.37
656.982	385.16
657.394	321.97
657.807	352.4
658.22	410.91
658.632	375.8
659.044	296.22
659.457	277.5
659.869	293.88
660.281	359.42
660.693	305.59
661.106	284.52
661.518	340.69
661.93	277.5
662.342	328.99
662.754	326.65
663.165	319.63
663.577	300.91
663.989	364.1
664.401	314.95
664.812	279.84
665.224	300.91
665.635	291.54
666.047	326.65
666.458	359.42
666.869	275.16
667.281	291.54
667.692	305.59
668.103	354.74
668.514	324.31
668.925	408.57
669.336	300.91
669.747	307.93
670.158	307.93
670.569	345.38
670.979	289.2
671.39	380.48
671.801	321.97
672.211	340.69
672.622	326.65
673.032	336.01
673.443	312.61
673.853	338.35
674.263	347.72
674.674	275.16
675.084	354.74
675.494	314.95
675.904	343.03
676.314	319.63
676.724	357.08
677.134	303.25
677.544	321.97
677.953	326.65
678.363	319.63
678.773	389.85
679.182	352.4
679.592	347.72
680.001	392.19
680.411	380.48
680.82	340.69
681.23	265.8
681.639	333.67
682.048	321.97
682.457	354.74
682.866	338.35
683.275	263.46
683.684	317.29
684.093	300.91
684.502	340.69
684.911	263.46
685.32	310.27
685.728	284.52
686.137	357.08
686.546	314.95
686.954	310.27
687.363	324.31
687.771	338.35
688.179	314.95
688.588	279.84
688.996	314.95
689.404	289.2
689.812	371.12
690.22	340.69
690.628	317.29
691.036	317.29
691.444	359.42
691.852	321.97
692.26	389.85
692.667	336.01
693.075	345.38
693.483	314.95
693.89	319.63
694.298	345.38
694.705	307.93
695.112	336.01
695.52	396.87
695.927	324.31
696.334	331.33
696.741	265.8
697.148	368.78
697.555	286.86
697.962	340.69
698.369	324.31
698.776	333.67
699.183	319.63
699.59	289.2
699.996	380.48
700.403	317.29
700.81	312.61
701.216	389.85
701.623	378.14
702.029	293.88
702.435	326.65
702.842	366.44
703.248	326.65
703.654	314.95
704.06	394.53
704.466	378.14
704.872	343.03
705.278	265.8
705.684	336.01
706.09	385.16
706.496	291.54
706.901	326.65
707.307	328.99
707.712	298.56
708.118	380.48
708.523	408.57
708.929	279.84
709.334	385.16
709.74	340.69
710.145	270.48
710.55	293.88
710.955	364.1
711.36	296.22
711.765	333.67
712.17	265.8
712.575	380.48
712.98	888.38
713.385	293.88
713.789	336.01
714.194	324.31
714.599	350.06
715.003	378.14
715.408	324.31
715.812	317.29
716.217	354.74
716.621	328.99
717.025	380.48
717.429	284.52
717.833	289.2
718.238	368.78
718.642	338.35
719.046	336.01
719.449	324.31
719.853	321.97
720.257	380.48
720.661	300.91
721.065	340.69
721.468	354.74
721.872	343.03
722.275	373.46
722.679	352.4
723.082	296.22
723.485	326.65
723.889	312.61
724.292	270.48
724.695	396.87
725.098	359.42
725.501	303.25
725.904	371.12
726.307	293.88
726.71	347.72
727.113	338.35
727.516	333.67
727.918	345.38
728.321	328.99
728.724	343.03
729.126	361.76
729.529	293.88
729.931	317.29
730.333	380.48
730.736	350.06
731.138	387.5
731.54	361.76
731.942	382.82
732.344	307.93
732.746	291.54
733.148	343.03
733.55	359.42
733.952	289.2
734.354	312.61
734.756	291.54
735.157	317.29
735.559	314.95
735.96	312.61
736.362	328.99
736.763	282.18
737.165	326.65
737.566	326.65
737.967	286.86
738.368	314.95
738.77	324.31
739.171	307.93
739.572	289.2
739.973	415.59
740.374	354.74
740.774	303.25
741.175	312.61
741.576	275.16
741.977	352.4
742.377	406.23
742.778	328.99
743.178	357.08
743.579	399.21
743.979	279.84
744.379	291.54
744.78	240.05
745.18	394.53
745.58	368.78
745.98	359.42
746.38	319.63
746.78	284.52
747.18	277.5
747.58	324.31
747.98	268.14
748.38	249.41
748.779	357.08
749.179	336.01
749.578	378.14
749.978	270.48
750.377	368.78
750.777	310.27
751.176	345.38
751.575	324.31
751.975	321.97
752.374	263.46
752.773	300.91
753.172	317.29
753.571	345.38
753.97	328.99
754.369	324.31
754.768	282.18
755.166	317.29
755.565	354.74
755.964	357.08
756.362	321.97
756.761	319.63
757.159	279.84
757.558	303.25
757.956	352.4
758.354	291.54
758.753	272.82
759.151	331.33
759.549	221.33
759.947	345.38
760.345	328.99
760.743	352.4
761.141	357.08
761.539	303.25
761.936	415.59
762.334	272.82
762.732	354.74
763.129	314.95
763.527	385.16
763.924	394.53
764.322	324.31
