Data from Al_FLMS009871__1079__16-27-04-611.txt Node

Date: Fri Mar 08 16:27:04 CST 2024
User: pe5414po
Spectrometer: FLMS00987
Trigger mode: 0
Integration Time (sec): 1.000000E-1
Scans to average: 1
Electric dark correction enabled: true
Nonlinearity correction enabled: false
Boxcar width: 0
XAxis mode: Wavelengths
Number of Pixels in Spectrum: 2048
>>>>>Begin Spectral Data<<<<<
188.938	-62.46
189.409	-62.46
189.879	-62.46
190.349	-118.64
190.819	-62.46
191.29	-67.14
191.76	-69.48
192.23	-116.3
192.7	-90.55
193.17	-99.91
193.64	-41.4
194.109	-6.29
194.579	-1.61
195.049	12.43
195.519	-1.61
195.988	3.07
196.458	49.88
196.927	127.12
197.397	73.29
197.866	80.31
198.336	148.19
198.805	152.87
199.274	157.55
199.744	211.38
200.213	218.4
200.682	234.78
201.151	255.85
201.62	244.15
202.089	166.91
202.558	232.44
203.027	230.1
203.495	297.98
203.964	300.32
204.433	272.23
204.902	295.64
205.37	297.98
205.839	267.55
206.307	258.19
206.776	281.6
207.244	293.3
207.712	295.64
208.181	307.34
208.649	265.21
209.117	305
209.585	302.66
210.053	255.85
210.521	328.41
210.989	279.26
211.457	223.08
211.925	274.57
212.393	279.26
212.861	276.91
213.328	230.1
213.796	300.32
214.264	204.36
214.731	267.55
215.199	237.13
215.666	241.81
216.133	258.19
216.601	244.15
217.068	232.44
217.535	204.36
218.003	300.32
218.47	260.53
218.937	281.6
219.404	234.78
219.871	248.83
220.338	234.78
220.805	276.91
221.271	192.66
221.738	248.83
222.205	227.76
222.671	169.25
223.138	283.94
223.605	288.62
224.071	288.62
224.538	293.3
225.004	225.42
225.47	265.21
225.937	281.6
226.403	281.6
226.869	227.76
227.335	309.68
227.801	293.3
228.267	262.87
228.733	281.6
229.199	232.44
229.665	281.6
230.131	265.21
230.597	300.32
231.062	239.47
231.528	337.77
231.994	267.55
232.459	297.98
232.925	314.36
233.39	288.62
233.856	314.36
234.321	288.62
234.786	300.32
235.252	260.53
235.717	258.19
236.182	274.57
236.647	244.15
237.112	319.04
237.577	244.15
238.042	255.85
238.507	302.66
238.972	290.96
239.436	220.74
239.901	253.51
240.366	246.49
240.83	232.44
241.295	286.28
241.76	302.66
242.224	295.64
242.688	255.85
243.153	305
243.617	312.02
244.081	265.21
244.545	265.21
245.01	279.26
245.474	283.94
245.938	274.57
246.402	255.85
246.866	316.7
247.33	276.91
247.793	265.21
248.257	255.85
248.721	255.85
249.185	216.06
249.648	316.7
250.112	330.75
250.575	246.49
251.039	283.94
251.502	248.83
251.965	262.87
252.429	255.85
252.892	251.17
253.355	288.62
253.818	279.26
254.281	309.68
254.744	260.53
255.207	267.55
255.67	262.87
256.133	290.96
256.596	295.64
257.059	258.19
257.522	297.98
257.984	347.13
258.447	211.38
258.909	316.7
259.372	265.21
259.834	286.28
260.297	300.32
260.759	265.21
261.221	305
261.684	251.17
262.146	274.57
262.608	300.32
263.07	368.2
263.532	260.53
263.994	342.45
264.456	241.81
264.918	309.68
265.38	246.49
265.842	262.87
266.303	241.81
266.765	309.68
267.227	333.09
267.688	307.34
268.15	323.73
268.611	328.41
269.072	337.77
269.534	349.47
269.995	253.51
270.456	316.7
270.918	225.42
271.379	290.96
271.84	307.34
272.301	281.6
272.762	323.73
273.223	361.17
273.684	220.74
274.144	276.91
274.605	258.19
275.066	288.62
275.527	344.79
275.987	260.53
276.448	241.81
276.908	302.66
277.369	258.19
277.829	281.6
278.289	351.81
278.75	267.55
279.21	251.17
279.67	251.17
280.13	328.41
280.59	316.7
281.05	302.66
281.51	272.23
281.97	281.6
282.43	356.49
282.89	248.83
283.35	302.66
283.809	314.36
284.269	337.77
284.729	356.49
285.188	302.66
285.648	293.3
286.107	293.3
286.567	300.32
287.026	267.55
287.485	312.02
287.944	251.17
288.404	204.36
288.863	300.32
289.322	335.43
289.781	321.38
290.24	248.83
290.699	309.68
291.158	323.73
291.616	290.96
292.075	241.81
292.534	302.66
292.992	370.54
293.451	312.02
293.91	323.73
294.368	351.81
294.827	330.75
295.285	316.7
295.743	302.66
296.202	293.3
296.66	246.49
297.118	279.26
297.576	337.77
298.034	354.15
298.492	293.3
298.95	255.85
299.408	319.04
299.866	361.17
300.324	239.47
300.781	260.53
301.239	251.17
301.697	323.73
302.154	316.7
302.612	279.26
303.069	305
303.527	351.81
303.984	269.89
304.441	272.23
304.899	328.41
305.356	274.57
305.813	307.34
306.27	309.68
306.727	202.02
307.184	342.45
307.641	246.49
308.098	258.19
308.555	286.28
309.012	330.75
309.468	326.07
309.925	269.89
310.382	288.62
310.838	344.79
311.295	283.94
311.751	262.87
312.208	253.51
312.664	309.68
313.12	347.13
313.577	321.38
314.033	300.32
314.489	305
314.945	286.28
315.401	314.36
315.857	269.89
316.313	290.96
316.769	326.07
317.225	283.94
317.681	293.3
318.136	337.77
318.592	281.6
319.048	253.51
319.503	330.75
319.959	265.21
320.414	295.64
320.869	309.68
321.325	276.91
321.78	354.15
322.235	260.53
322.691	265.21
323.146	328.41
323.601	274.57
324.056	300.32
324.511	305
324.966	260.53
325.421	295.64
325.875	330.75
326.33	351.81
326.785	321.38
327.24	258.19
327.694	340.11
328.149	195
328.603	330.75
329.058	312.02
329.512	293.3
329.966	302.66
330.421	286.28
330.875	293.3
331.329	260.53
331.783	227.76
332.237	297.98
332.691	326.07
333.145	251.17
333.599	314.36
334.053	396.28
334.507	286.28
334.96	295.64
335.414	276.91
335.868	269.89
336.321	302.66
336.775	326.07
337.228	344.79
337.682	279.26
338.135	267.55
338.588	363.51
339.042	319.04
339.495	267.55
339.948	347.13
340.401	297.98
340.854	300.32
341.307	248.83
341.76	269.89
342.213	333.09
342.666	300.32
343.119	370.54
343.571	358.83
344.024	295.64
344.477	302.66
344.929	300.32
345.382	269.89
345.834	377.56
346.287	297.98
346.739	293.3
347.191	290.96
347.644	286.28
348.096	302.66
348.548	337.77
349	382.24
349.452	356.49
349.904	316.7
350.356	344.79
350.808	230.1
351.26	305
351.711	300.32
352.163	295.64
352.615	258.19
353.066	274.57
353.518	269.89
353.969	342.45
354.421	288.62
354.872	312.02
355.324	218.4
355.775	290.96
356.226	344.79
356.677	295.64
357.128	283.94
357.579	377.56
358.03	309.68
358.481	347.13
358.932	340.11
359.383	293.3
359.834	260.53
360.285	309.68
360.735	276.91
361.186	321.38
361.637	344.79
362.087	300.32
362.538	272.23
362.988	321.38
363.438	274.57
363.889	319.04
364.339	276.91
364.789	267.55
365.239	344.79
365.689	241.81
366.139	276.91
366.589	251.17
367.039	349.47
367.489	351.81
367.939	248.83
368.389	349.47
368.839	290.96
369.288	274.57
369.738	279.26
370.187	265.21
370.637	316.7
371.086	379.9
371.536	307.34
371.985	258.19
372.434	340.11
372.884	342.45
373.333	255.85
373.782	290.96
374.231	279.26
374.68	316.7
375.129	335.43
375.578	293.3
376.027	403.3
376.475	290.96
376.924	267.55
377.373	365.85
377.822	330.75
378.27	337.77
378.719	305
379.167	344.79
379.616	361.17
380.064	302.66
380.512	351.81
380.961	349.47
381.409	333.09
381.857	274.57
382.305	297.98
382.753	330.75
383.201	326.07
383.649	283.94
384.097	377.56
384.545	286.28
384.992	251.17
385.44	305
385.888	335.43
386.335	382.24
386.783	326.07
387.231	337.77
387.678	368.2
388.125	305
388.573	276.91
389.02	267.55
389.467	295.64
389.914	297.98
390.362	274.57
390.809	288.62
391.256	335.43
391.703	297.98
392.15	314.36
392.596	316.7
393.043	314.36
393.49	305
393.937	290.96
394.383	274.57
394.83	314.36
395.276	307.34
395.723	237.13
396.169	309.68
396.616	330.75
397.062	335.43
397.508	351.81
397.954	293.3
398.401	398.62
398.847	288.62
399.293	365.85
399.739	312.02
400.185	251.17
400.631	293.3
401.076	347.13
401.522	286.28
401.968	321.38
402.414	309.68
402.859	283.94
403.305	309.68
403.75	344.79
404.196	363.51
404.641	272.23
405.086	372.88
405.532	253.51
405.977	230.1
406.422	286.28
406.867	192.66
407.312	295.64
407.757	309.68
408.202	265.21
408.647	312.02
409.092	255.85
409.537	335.43
409.982	347.13
410.426	265.21
410.871	321.38
411.316	330.75
411.76	281.6
412.205	300.32
412.649	279.26
413.093	302.66
413.538	297.98
413.982	305
414.426	300.32
414.87	337.77
415.314	279.26
415.758	342.45
416.202	302.66
416.646	276.91
417.09	347.13
417.534	276.91
417.978	269.89
418.421	307.34
418.865	312.02
419.309	342.45
419.752	293.3
420.196	253.51
420.639	314.36
421.083	330.75
421.526	321.38
421.969	302.66
422.412	267.55
422.856	302.66
423.299	288.62
423.742	283.94
424.185	283.94
424.628	297.98
425.071	274.57
425.513	295.64
425.956	293.3
426.399	255.85
426.842	305
427.284	251.17
427.727	274.57
428.169	354.15
428.612	288.62
429.054	283.94
429.497	295.64
429.939	377.56
430.381	319.04
430.823	328.41
431.265	246.49
431.707	288.62
432.149	307.34
432.591	319.04
433.033	314.36
433.475	316.7
433.917	347.13
434.359	309.68
434.8	300.32
435.242	279.26
435.684	323.73
436.125	328.41
436.567	290.96
437.008	323.73
437.449	319.04
437.891	209.04
438.332	300.32
438.773	244.15
439.214	293.3
439.656	295.64
440.097	283.94
440.538	276.91
440.978	319.04
441.419	326.07
441.86	307.34
442.301	330.75
442.742	321.38
443.182	309.68
443.623	319.04
444.063	258.19
444.504	316.7
444.944	326.07
445.385	276.91
445.825	365.85
446.265	297.98
446.706	309.68
447.146	309.68
447.586	349.47
448.026	370.54
448.466	281.6
448.906	337.77
449.346	323.73
449.786	368.2
450.225	326.07
450.665	361.17
451.105	370.54
451.544	255.85
451.984	302.66
452.424	333.09
452.863	307.34
453.302	302.66
453.742	316.7
454.181	241.81
454.62	307.34
455.059	337.77
455.499	363.51
455.938	337.77
456.377	361.17
456.816	262.87
457.254	314.36
457.693	323.73
458.132	356.49
458.571	321.38
459.01	281.6
459.448	340.11
459.887	279.26
460.325	272.23
460.764	288.62
461.202	314.36
461.641	335.43
462.079	319.04
462.517	333.09
462.955	319.04
463.393	302.66
463.832	281.6
464.27	323.73
464.708	307.34
465.145	328.41
465.583	344.79
466.021	295.64
466.459	335.43
466.897	286.28
467.334	356.49
467.772	281.6
468.209	372.88
468.647	342.45
469.084	255.85
469.522	389.26
469.959	319.04
470.396	295.64
470.833	283.94
471.271	316.7
471.708	279.26
472.145	290.96
472.582	335.43
473.019	237.13
473.456	305
473.892	286.28
474.329	314.36
474.766	262.87
475.202	330.75
475.639	302.66
476.076	232.44
476.512	283.94
476.949	305
477.385	307.34
477.821	340.11
478.258	305
478.694	246.49
479.13	312.02
479.566	342.45
480.002	335.43
480.438	316.7
480.874	326.07
481.31	321.38
481.746	386.92
482.181	262.87
482.617	370.54
483.053	258.19
483.488	330.75
483.924	316.7
484.36	333.09
484.795	288.62
485.23	288.62
485.666	269.89
486.101	244.15
486.536	288.62
486.971	272.23
487.407	290.96
487.842	290.96
488.277	267.55
488.712	290.96
489.146	384.58
489.581	351.81
490.016	295.64
490.451	293.3
490.885	351.81
491.32	305
491.755	297.98
492.189	354.15
492.624	288.62
493.058	340.11
493.492	368.2
493.927	319.04
494.361	323.73
494.795	290.96
495.229	377.56
495.663	288.62
496.097	272.23
496.531	279.26
496.965	319.04
497.399	316.7
497.833	286.28
498.266	337.77
498.7	337.77
499.134	290.96
499.567	314.36
500.001	349.47
500.434	300.32
500.868	356.49
501.301	333.09
501.734	302.66
502.168	312.02
502.601	248.83
503.034	305
503.467	251.17
503.9	279.26
504.333	340.11
504.766	283.94
505.199	368.2
505.632	300.32
506.064	351.81
506.497	363.51
506.93	279.26
507.362	274.57
507.795	244.15
508.227	307.34
508.66	258.19
509.092	286.28
509.524	283.94
509.956	309.68
510.389	314.36
510.821	316.7
511.253	293.3
511.685	302.66
512.117	300.32
512.549	326.07
512.981	267.55
513.412	274.57
513.844	344.79
514.276	323.73
514.707	295.64
515.139	330.75
515.571	344.79
516.002	323.73
516.433	307.34
516.865	288.62
517.296	344.79
517.727	328.41
518.159	372.88
518.59	305
519.021	333.09
519.452	248.83
519.883	337.77
520.314	286.28
520.744	283.94
521.175	316.7
521.606	363.51
522.037	323.73
522.467	269.89
522.898	302.66
523.328	253.51
523.759	365.85
524.189	297.98
524.62	267.55
525.05	302.66
525.48	328.41
525.91	323.73
526.341	281.6
526.771	340.11
527.201	335.43
527.631	281.6
528.061	283.94
528.49	379.9
528.92	349.47
529.35	286.28
529.78	300.32
530.209	382.24
530.639	307.34
531.068	312.02
531.498	316.7
531.927	281.6
532.357	333.09
532.786	379.9
533.215	269.89
533.644	342.45
534.074	295.64
534.503	312.02
534.932	354.15
535.361	309.68
535.79	293.3
536.218	302.66
536.647	312.02
537.076	365.85
537.505	356.49
537.933	377.56
538.362	330.75
538.79	297.98
539.219	342.45
539.647	314.36
540.076	302.66
540.504	368.2
540.932	262.87
541.36	326.07
541.788	316.7
542.217	330.75
542.645	344.79
543.073	234.78
543.5	300.32
543.928	351.81
544.356	330.75
544.784	314.36
545.211	225.42
545.639	389.26
546.067	293.3
546.494	340.11
546.922	283.94
547.349	290.96
547.776	386.92
548.204	269.89
548.631	307.34
549.058	251.17
549.485	342.45
549.912	307.34
550.339	314.36
550.766	305
551.193	295.64
551.62	302.66
552.047	319.04
552.474	316.7
552.9	340.11
553.327	302.66
553.754	340.11
554.18	258.19
554.607	295.64
555.033	297.98
555.459	288.62
555.886	368.2
556.312	326.07
556.738	302.66
557.164	337.77
557.59	361.17
558.016	307.34
558.442	333.09
558.868	237.13
559.294	347.13
559.72	312.02
560.145	309.68
560.571	330.75
560.997	335.43
561.422	276.91
561.848	312.02
562.273	272.23
562.699	358.83
563.124	286.28
563.549	363.51
563.974	354.15
564.4	267.55
564.825	302.66
565.25	260.53
565.675	356.49
566.1	323.73
566.525	274.57
566.95	246.49
567.374	351.81
567.799	305
568.224	288.62
568.648	363.51
569.073	251.17
569.497	293.3
569.922	302.66
570.346	333.09
570.771	305
571.195	347.13
571.619	363.51
572.043	297.98
572.467	279.26
572.891	251.17
573.315	323.73
573.739	309.68
574.163	248.83
574.587	347.13
575.011	267.55
575.435	354.15
575.858	342.45
576.282	302.66
576.705	328.41
577.129	316.7
577.552	267.55
577.976	340.11
578.399	283.94
578.822	295.64
579.245	295.64
579.669	340.11
580.092	326.07
580.515	246.49
580.938	321.38
581.361	312.02
581.784	316.7
582.206	262.87
582.629	302.66
583.052	288.62
583.474	340.11
583.897	276.91
584.32	333.09
584.742	330.75
585.165	342.45
585.587	363.51
586.009	288.62
586.431	283.94
586.854	269.89
587.276	340.11
587.698	361.17
588.12	347.13
588.542	288.62
588.964	356.49
589.386	340.11
589.807	307.34
590.229	300.32
590.651	305
591.073	314.36
591.494	293.3
591.916	337.77
592.337	300.32
592.759	302.66
593.18	326.07
593.601	321.38
594.022	319.04
594.444	328.41
594.865	321.38
595.286	258.19
595.707	307.34
596.128	356.49
596.549	314.36
596.97	344.79
597.39	279.26
597.811	295.64
598.232	295.64
598.652	293.3
599.073	300.32
599.494	300.32
599.914	344.79
600.334	302.66
600.755	283.94
601.175	333.09
601.595	314.36
602.015	328.41
602.436	372.88
602.856	424.37
603.276	255.85
603.696	344.79
604.115	337.77
604.535	239.47
604.955	354.15
605.375	340.11
605.794	337.77
606.214	290.96
606.634	326.07
607.053	365.85
607.473	312.02
607.892	333.09
608.311	314.36
608.731	314.36
609.15	286.28
609.569	312.02
609.988	349.47
610.407	340.11
610.826	363.51
611.245	293.3
611.664	283.94
612.083	307.34
612.501	265.21
612.92	262.87
613.339	396.28
613.757	288.62
614.176	337.77
614.594	265.21
615.013	276.91
615.431	354.15
615.85	361.17
616.268	290.96
616.686	368.2
617.104	293.3
617.522	286.28
617.94	288.62
618.358	281.6
618.776	354.15
619.194	316.7
619.612	307.34
620.03	276.91
620.447	290.96
620.865	375.22
621.282	328.41
621.7	300.32
622.117	283.94
622.535	323.73
622.952	267.55
623.369	253.51
623.787	272.23
624.204	349.47
624.621	307.34
625.038	344.79
625.455	305
625.872	305
626.289	326.07
626.706	342.45
627.123	323.73
627.539	349.47
627.956	358.83
628.373	281.6
628.789	344.79
629.206	321.38
629.622	288.62
630.038	297.98
630.455	342.45
630.871	262.87
631.287	293.3
631.703	276.91
632.12	342.45
632.536	293.3
632.952	314.36
633.368	400.96
633.783	335.43
634.199	344.79
634.615	307.34
635.031	358.83
635.446	328.41
635.862	328.41
636.277	347.13
636.693	333.09
637.108	354.15
637.524	286.28
637.939	333.09
638.354	262.87
638.77	288.62
639.185	365.85
639.6	251.17
640.015	316.7
640.43	295.64
640.845	365.85
641.259	323.73
641.674	253.51
642.089	300.32
642.504	340.11
642.918	314.36
643.333	274.57
643.747	244.15
644.162	333.09
644.576	288.62
644.991	307.34
645.405	312.02
645.819	276.91
646.233	326.07
646.647	361.17
647.061	300.32
647.475	344.79
647.889	246.49
648.303	342.45
648.717	307.34
649.131	300.32
649.545	276.91
649.958	316.7
650.372	330.75
650.785	323.73
651.199	300.32
651.612	316.7
652.026	267.55
652.439	340.11
652.852	321.38
653.266	290.96
653.679	295.64
654.092	297.98
654.505	363.51
654.918	312.02
655.331	281.6
655.744	316.7
656.156	323.73
656.569	281.6
656.982	326.07
657.394	370.54
657.807	356.49
658.22	283.94
658.632	300.32
659.044	319.04
659.457	255.85
659.869	290.96
660.281	316.7
660.693	276.91
661.106	234.78
661.518	302.66
661.93	276.91
662.342	295.64
662.754	269.89
663.165	267.55
663.577	316.7
663.989	269.89
664.401	307.34
664.812	365.85
665.224	326.07
665.635	281.6
666.047	356.49
666.458	337.77
666.869	300.32
667.281	351.81
667.692	370.54
668.103	244.15
668.514	290.96
668.925	319.04
669.336	326.07
669.747	288.62
670.158	290.96
670.569	351.81
670.979	262.87
671.39	295.64
671.801	342.45
672.211	319.04
672.622	330.75
673.032	328.41
673.443	293.3
673.853	326.07
674.263	328.41
674.674	307.34
675.084	272.23
675.494	288.62
675.904	290.96
676.314	295.64
676.724	351.81
677.134	319.04
677.544	314.36
677.953	295.64
678.363	344.79
678.773	326.07
679.182	272.23
679.592	237.13
680.001	316.7
680.411	258.19
680.82	300.32
681.23	281.6
681.639	316.7
682.048	276.91
682.457	377.56
682.866	333.09
683.275	253.51
683.684	286.28
684.093	307.34
684.502	297.98
684.911	307.34
685.32	323.73
685.728	330.75
686.137	328.41
686.546	290.96
686.954	319.04
687.363	316.7
687.771	321.38
688.179	323.73
688.588	295.64
688.996	300.32
689.404	276.91
689.812	283.94
690.22	326.07
690.628	330.75
691.036	333.09
691.444	349.47
691.852	246.49
692.26	351.81
692.667	354.15
693.075	321.38
693.483	297.98
693.89	330.75
694.298	330.75
694.705	314.36
695.112	354.15
695.52	314.36
695.927	255.85
696.334	372.88
696.741	349.47
697.148	286.28
697.555	312.02
697.962	321.38
698.369	319.04
698.776	288.62
699.183	307.34
699.59	354.15
699.996	297.98
700.403	323.73
700.81	309.68
701.216	309.68
701.623	314.36
702.029	300.32
702.435	330.75
702.842	323.73
703.248	337.77
703.654	368.2
704.06	323.73
704.466	279.26
704.872	307.34
705.278	356.49
705.684	316.7
706.09	241.81
706.496	370.54
706.901	365.85
707.307	295.64
707.712	295.64
708.118	305
708.523	335.43
708.929	328.41
709.334	283.94
709.74	241.81
710.145	297.98
710.55	290.96
710.955	347.13
711.36	312.02
711.765	281.6
712.17	281.6
712.575	356.49
712.98	787.15
713.385	326.07
713.789	258.19
714.194	314.36
714.599	262.87
715.003	337.77
715.408	305
715.812	288.62
716.217	386.92
716.621	319.04
717.025	305
717.429	302.66
717.833	276.91
718.238	372.88
718.642	290.96
719.046	297.98
719.449	302.66
719.853	354.15
720.257	305
720.661	234.78
721.065	281.6
721.468	283.94
721.872	290.96
722.275	297.98
722.679	276.91
723.082	361.17
723.485	279.26
723.889	305
724.292	337.77
724.695	344.79
725.098	274.57
725.501	323.73
725.904	321.38
726.307	281.6
726.71	295.64
727.113	321.38
727.516	302.66
727.918	302.66
728.321	211.38
728.724	251.17
729.126	368.2
729.529	283.94
729.931	335.43
730.333	279.26
730.736	253.51
731.138	326.07
731.54	307.34
731.942	323.73
732.344	300.32
732.746	328.41
733.148	314.36
733.55	309.68
733.952	279.26
734.354	333.09
734.756	295.64
735.157	321.38
735.559	347.13
735.96	281.6
736.362	377.56
736.763	297.98
737.165	279.26
737.566	286.28
737.967	225.42
738.368	307.34
738.77	375.22
739.171	295.64
739.572	237.13
739.973	262.87
740.374	319.04
740.774	361.17
741.175	316.7
741.576	279.26
741.977	309.68
742.377	281.6
742.778	344.79
743.178	290.96
743.579	314.36
743.979	276.91
744.379	351.81
744.78	295.64
745.18	272.23
745.58	297.98
745.98	326.07
746.38	260.53
746.78	326.07
747.18	309.68
747.58	267.55
747.98	295.64
748.38	305
748.779	253.51
749.179	295.64
749.578	326.07
749.978	307.34
750.377	363.51
750.777	314.36
751.176	307.34
751.575	319.04
751.975	300.32
752.374	314.36
752.773	293.3
753.172	295.64
753.571	337.77
753.97	351.81
754.369	293.3
754.768	321.38
755.166	288.62
755.565	281.6
755.964	344.79
756.362	293.3
756.761	312.02
757.159	314.36
757.558	323.73
757.956	281.6
758.354	349.47
758.753	363.51
759.151	377.56
759.549	246.49
759.947	328.41
760.345	269.89
760.743	323.73
761.141	237.13
761.539	312.02
761.936	286.28
762.334	351.81
762.732	316.7
763.129	344.79
763.527	330.75
763.924	302.66
764.322	312.02
764.719	379.9
765.117	258.19
765.514	330.75
765.911	330.75
766.308	316.7
766.705	255.85
767.102	260.53
767.499	302.66
