Data from Al_FLMS009871__1066__16-27-03-311.txt Node

Date: Fri Mar 08 16:27:03 CST 2024
User: pe5414po
Spectrometer: FLMS00987
Trigger mode: 0
Integration Time (sec): 1.000000E-1
Scans to average: 1
Electric dark correction enabled: true
Nonlinearity correction enabled: false
Boxcar width: 0
XAxis mode: Wavelengths
Number of Pixels in Spectrum: 2048
>>>>>Begin Spectral Data<<<<<
188.938	-78.85
189.409	-78.85
189.879	-78.85
190.349	-85.87
190.819	-95.23
191.29	-151.4
191.76	-120.98
192.23	-102.25
192.7	-92.89
193.17	-46.08
193.64	-27.36
194.109	10.09
194.579	-8.63
195.049	33.5
195.519	52.22
195.988	47.54
196.458	89.67
196.927	61.59
197.397	101.37
197.866	101.37
198.336	52.22
198.805	143.5
199.274	101.37
199.744	173.93
200.213	183.29
200.682	180.95
201.151	223.08
201.62	244.15
202.089	232.44
202.558	279.26
203.027	260.53
203.495	253.51
203.964	244.15
204.433	244.15
204.902	290.96
205.37	314.36
205.839	248.83
206.307	262.87
206.776	328.41
207.244	328.41
207.712	232.44
208.181	358.83
208.649	328.41
209.117	286.28
209.585	328.41
210.053	328.41
210.521	260.53
210.989	220.74
211.457	340.11
211.925	314.36
212.393	295.64
212.861	328.41
213.328	363.51
213.796	316.7
214.264	279.26
214.731	344.79
215.199	328.41
215.666	351.81
216.133	323.73
216.601	262.87
217.068	286.28
217.535	239.47
218.003	279.26
218.47	265.21
218.937	272.23
219.404	340.11
219.871	255.85
220.338	262.87
220.805	265.21
221.271	295.64
221.738	227.76
222.205	302.66
222.671	337.77
223.138	255.85
223.605	274.57
224.071	218.4
224.538	251.17
225.004	300.32
225.47	232.44
225.937	302.66
226.403	293.3
226.869	272.23
227.335	319.04
227.801	253.51
228.267	269.89
228.733	279.26
229.199	183.29
229.665	267.55
230.131	234.78
230.597	262.87
231.062	262.87
231.528	279.26
231.994	274.57
232.459	290.96
232.925	295.64
233.39	253.51
233.856	281.6
234.321	312.02
234.786	248.83
235.252	283.94
235.717	286.28
236.182	230.1
236.647	283.94
237.112	288.62
237.577	302.66
238.042	227.76
238.507	297.98
238.972	269.89
239.436	267.55
239.901	312.02
240.366	223.08
240.83	248.83
241.295	314.36
241.76	316.7
242.224	321.38
242.688	337.77
243.153	274.57
243.617	293.3
244.081	290.96
244.545	326.07
245.01	314.36
245.474	246.49
245.938	354.15
246.402	272.23
246.866	337.77
247.33	293.3
247.793	279.26
248.257	337.77
248.721	253.51
249.185	314.36
249.648	269.89
250.112	305
250.575	225.42
251.039	253.51
251.502	269.89
251.965	281.6
252.429	297.98
252.892	267.55
253.355	305
253.818	281.6
254.281	281.6
254.744	305
255.207	316.7
255.67	274.57
256.133	319.04
256.596	295.64
257.059	312.02
257.522	314.36
257.984	363.51
258.447	272.23
258.909	293.3
259.372	293.3
259.834	316.7
260.297	314.36
260.759	276.91
261.221	260.53
261.684	358.83
262.146	347.13
262.608	269.89
263.07	396.28
263.532	351.81
263.994	297.98
264.456	286.28
264.918	262.87
265.38	326.07
265.842	255.85
266.303	314.36
266.765	358.83
267.227	450.11
267.688	333.09
268.15	293.3
268.611	368.2
269.072	251.17
269.534	305
269.995	288.62
270.456	326.07
270.918	297.98
271.379	300.32
271.84	223.08
272.301	333.09
272.762	328.41
273.223	300.32
273.684	361.17
274.144	281.6
274.605	288.62
275.066	305
275.527	300.32
275.987	307.34
276.448	333.09
276.908	314.36
277.369	302.66
277.829	384.58
278.289	309.68
278.75	330.75
279.21	293.3
279.67	335.43
280.13	239.47
280.59	253.51
281.05	274.57
281.51	279.26
281.97	309.68
282.43	302.66
282.89	319.04
283.35	307.34
283.809	365.85
284.269	319.04
284.729	316.7
285.188	225.42
285.648	300.32
286.107	300.32
286.567	328.41
287.026	323.73
287.485	305
287.944	342.45
288.404	361.17
288.863	300.32
289.322	321.38
289.781	316.7
290.24	288.62
290.699	283.94
291.158	276.91
291.616	340.11
292.075	272.23
292.534	337.77
292.992	344.79
293.451	241.81
293.91	274.57
294.368	234.78
294.827	319.04
295.285	319.04
295.743	262.87
296.202	241.81
296.66	300.32
297.118	342.45
297.576	314.36
298.034	351.81
298.492	281.6
298.95	276.91
299.408	279.26
299.866	340.11
300.324	326.07
300.781	272.23
301.239	368.2
301.697	276.91
302.154	349.47
302.612	333.09
303.069	276.91
303.527	316.7
303.984	368.2
304.441	326.07
304.899	335.43
305.356	349.47
305.813	347.13
306.27	344.79
306.727	347.13
307.184	342.45
307.641	330.75
308.098	333.09
308.555	286.28
309.012	356.49
309.468	255.85
309.925	321.38
310.382	340.11
310.838	307.34
311.295	319.04
311.751	265.21
312.208	321.38
312.664	316.7
313.12	328.41
313.577	314.36
314.033	316.7
314.489	312.02
314.945	337.77
315.401	309.68
315.857	344.79
316.313	290.96
316.769	340.11
317.225	305
317.681	305
318.136	305
318.592	300.32
319.048	321.38
319.503	288.62
319.959	316.7
320.414	358.83
320.869	248.83
321.325	330.75
321.78	347.13
322.235	314.36
322.691	363.51
323.146	377.56
323.601	326.07
324.056	300.32
324.511	283.94
324.966	286.28
325.421	297.98
325.875	389.26
326.33	290.96
326.785	293.3
327.24	358.83
327.694	323.73
328.149	279.26
328.603	305
329.058	363.51
329.512	358.83
329.966	363.51
330.421	328.41
330.875	340.11
331.329	379.9
331.783	358.83
332.237	328.41
332.691	351.81
333.145	349.47
333.599	377.56
334.053	307.34
334.507	281.6
334.96	283.94
335.414	279.26
335.868	335.43
336.321	305
336.775	305
337.228	288.62
337.682	323.73
338.135	220.74
338.588	326.07
339.042	312.02
339.495	276.91
339.948	255.85
340.401	326.07
340.854	300.32
341.307	312.02
341.76	246.49
342.213	321.38
342.666	281.6
343.119	272.23
343.571	274.57
344.024	293.3
344.477	340.11
344.929	290.96
345.382	347.13
345.834	288.62
346.287	354.15
346.739	330.75
347.191	337.77
347.644	290.96
348.096	290.96
348.548	347.13
349	251.17
349.452	319.04
349.904	370.54
350.356	323.73
350.808	351.81
351.26	309.68
351.711	258.19
352.163	255.85
352.615	302.66
353.066	312.02
353.518	290.96
353.969	321.38
354.421	358.83
354.872	312.02
355.324	321.38
355.775	323.73
356.226	363.51
356.677	340.11
357.128	335.43
357.579	316.7
358.03	358.83
358.481	328.41
358.932	297.98
359.383	328.41
359.834	351.81
360.285	330.75
360.735	342.45
361.186	295.64
361.637	281.6
362.087	363.51
362.538	386.92
362.988	326.07
363.438	274.57
363.889	319.04
364.339	356.49
364.789	321.38
365.239	290.96
365.689	354.15
366.139	333.09
366.589	375.22
367.039	330.75
367.489	365.85
367.939	319.04
368.389	363.51
368.839	375.22
369.288	330.75
369.738	305
370.187	342.45
370.637	323.73
371.086	272.23
371.536	293.3
371.985	330.75
372.434	335.43
372.884	307.34
373.333	314.36
373.782	265.21
374.231	326.07
374.68	403.3
375.129	225.42
375.578	363.51
376.027	326.07
376.475	309.68
376.924	286.28
377.373	323.73
377.822	356.49
378.27	333.09
378.719	328.41
379.167	349.47
379.616	358.83
380.064	333.09
380.512	288.62
380.961	333.09
381.409	363.51
381.857	316.7
382.305	316.7
382.753	323.73
383.201	297.98
383.649	286.28
384.097	328.41
384.545	379.9
384.992	312.02
385.44	300.32
385.888	316.7
386.335	375.22
386.783	312.02
387.231	377.56
387.678	337.77
388.125	347.13
388.573	342.45
389.02	302.66
389.467	297.98
389.914	323.73
390.362	248.83
390.809	326.07
391.256	302.66
391.703	300.32
392.15	358.83
392.596	302.66
393.043	309.68
393.49	386.92
393.937	342.45
394.383	340.11
394.83	410.33
395.276	300.32
395.723	349.47
396.169	386.92
396.616	330.75
397.062	370.54
397.508	347.13
397.954	274.57
398.401	326.07
398.847	302.66
399.293	354.15
399.739	281.6
400.185	279.26
400.631	300.32
401.076	326.07
401.522	314.36
401.968	323.73
402.414	365.85
402.859	347.13
403.305	328.41
403.75	316.7
404.196	274.57
404.641	342.45
405.086	314.36
405.532	356.49
405.977	389.26
406.422	283.94
406.867	382.24
407.312	377.56
407.757	375.22
408.202	312.02
408.647	321.38
409.092	295.64
409.537	326.07
409.982	305
410.426	400.96
410.871	344.79
411.316	386.92
411.76	305
412.205	326.07
412.649	295.64
413.093	333.09
413.538	279.26
413.982	340.11
414.426	295.64
414.87	330.75
415.314	274.57
415.758	290.96
416.202	307.34
416.646	316.7
417.09	335.43
417.534	312.02
417.978	333.09
418.421	347.13
418.865	239.47
419.309	342.45
419.752	354.15
420.196	330.75
420.639	356.49
421.083	288.62
421.526	274.57
421.969	365.85
422.412	297.98
422.856	356.49
423.299	300.32
423.742	372.88
424.185	347.13
424.628	351.81
425.071	309.68
425.513	314.36
425.956	305
426.399	351.81
426.842	363.51
427.284	286.28
427.727	349.47
428.169	297.98
428.612	316.7
429.054	290.96
429.497	363.51
429.939	363.51
430.381	314.36
430.823	347.13
431.265	244.15
431.707	300.32
432.149	300.32
432.591	330.75
433.033	300.32
433.475	337.77
433.917	253.51
434.359	314.36
434.8	344.79
435.242	305
435.684	328.41
436.125	305
436.567	405.64
437.008	309.68
437.449	354.15
437.891	384.58
438.332	312.02
438.773	312.02
439.214	337.77
439.656	337.77
440.097	305
440.538	363.51
440.978	307.34
441.419	351.81
441.86	347.13
442.301	340.11
442.742	319.04
443.182	328.41
443.623	302.66
444.063	389.26
444.504	335.43
444.944	295.64
445.385	370.54
445.825	321.38
446.265	316.7
446.706	290.96
447.146	386.92
447.586	340.11
448.026	302.66
448.466	370.54
448.906	328.41
449.346	358.83
449.786	316.7
450.225	316.7
450.665	297.98
451.105	347.13
451.544	279.26
451.984	333.09
452.424	286.28
452.863	300.32
453.302	347.13
453.742	370.54
454.181	400.96
454.62	307.34
455.059	375.22
455.499	361.17
455.938	302.66
456.377	361.17
456.816	319.04
457.254	323.73
457.693	330.75
458.132	335.43
458.571	283.94
459.01	328.41
459.448	358.83
459.887	307.34
460.325	305
460.764	297.98
461.202	393.94
461.641	293.3
462.079	323.73
462.517	288.62
462.955	351.81
463.393	328.41
463.832	307.34
464.27	354.15
464.708	370.54
465.145	312.02
465.583	295.64
466.021	361.17
466.459	267.55
466.897	344.79
467.334	344.79
467.772	354.15
468.209	326.07
468.647	368.2
469.084	342.45
469.522	351.81
469.959	323.73
470.396	286.28
470.833	316.7
471.271	363.51
471.708	293.3
472.145	326.07
472.582	344.79
473.019	286.28
473.456	309.68
473.892	349.47
474.329	333.09
474.766	361.17
475.202	321.38
475.639	281.6
476.076	297.98
476.512	340.11
476.949	312.02
477.385	274.57
477.821	253.51
478.258	314.36
478.694	312.02
479.13	265.21
479.566	354.15
480.002	356.49
480.438	283.94
480.874	312.02
481.31	326.07
481.746	337.77
482.181	300.32
482.617	335.43
483.053	326.07
483.488	370.54
483.924	328.41
484.36	286.28
484.795	384.58
485.23	323.73
485.666	349.47
486.101	347.13
486.536	358.83
486.971	314.36
487.407	330.75
487.842	335.43
488.277	319.04
488.712	302.66
489.146	368.2
489.581	396.28
490.016	328.41
490.451	389.26
490.885	335.43
491.32	321.38
491.755	330.75
492.189	328.41
492.624	297.98
493.058	370.54
493.492	354.15
493.927	321.38
494.361	286.28
494.795	323.73
495.229	279.26
495.663	309.68
496.097	363.51
496.531	326.07
496.965	340.11
497.399	267.55
497.833	379.9
498.266	347.13
498.7	351.81
499.134	368.2
499.567	321.38
500.001	344.79
500.434	314.36
500.868	321.38
501.301	307.34
501.734	354.15
502.168	286.28
502.601	363.51
503.034	372.88
503.467	333.09
503.9	403.3
504.333	358.83
504.766	305
505.199	323.73
505.632	302.66
506.064	347.13
506.497	377.56
506.93	330.75
507.362	302.66
507.795	283.94
508.227	309.68
508.66	344.79
509.092	274.57
509.524	349.47
509.956	335.43
510.389	347.13
510.821	319.04
511.253	312.02
511.685	316.7
512.117	319.04
512.549	290.96
512.981	290.96
513.412	363.51
513.844	305
514.276	328.41
514.707	323.73
515.139	365.85
515.571	323.73
516.002	316.7
516.433	365.85
516.865	312.02
517.296	319.04
517.727	396.28
518.159	333.09
518.59	337.77
519.021	349.47
519.452	319.04
519.883	330.75
520.314	349.47
520.744	370.54
521.175	326.07
521.606	347.13
522.037	321.38
522.467	363.51
522.898	297.98
523.328	258.19
523.759	356.49
524.189	340.11
524.62	267.55
525.05	342.45
525.48	340.11
525.91	290.96
526.341	344.79
526.771	382.24
527.201	415.01
527.631	344.79
528.061	384.58
528.49	300.32
528.92	305
529.35	377.56
529.78	319.04
530.209	342.45
530.639	323.73
531.068	265.21
531.498	316.7
531.927	300.32
532.357	344.79
532.786	335.43
533.215	382.24
533.644	370.54
534.074	337.77
534.503	361.17
534.932	216.06
535.361	267.55
535.79	302.66
536.218	342.45
536.647	321.38
537.076	253.51
537.505	335.43
537.933	330.75
538.362	321.38
538.79	330.75
539.219	384.58
539.647	356.49
540.076	307.34
540.504	368.2
540.932	302.66
541.36	351.81
541.788	276.91
542.217	365.85
542.645	260.53
543.073	283.94
543.5	316.7
543.928	321.38
544.356	305
544.784	333.09
545.211	316.7
545.639	323.73
546.067	279.26
546.494	302.66
546.922	302.66
547.349	300.32
547.776	349.47
548.204	258.19
548.631	340.11
549.058	340.11
549.485	295.64
549.912	321.38
550.339	265.21
550.766	293.3
551.193	372.88
551.62	312.02
552.047	302.66
552.474	326.07
552.9	400.96
553.327	286.28
553.754	344.79
554.18	330.75
554.607	323.73
555.033	272.23
555.459	312.02
555.886	267.55
556.312	363.51
556.738	288.62
557.164	281.6
557.59	354.15
558.016	283.94
558.442	328.41
558.868	347.13
559.294	328.41
559.72	262.87
560.145	335.43
560.571	314.36
560.997	319.04
561.422	384.58
561.848	253.51
562.273	342.45
562.699	316.7
563.124	384.58
563.549	351.81
563.974	281.6
564.4	344.79
564.825	290.96
565.25	309.68
565.675	419.69
566.1	370.54
566.525	333.09
566.95	290.96
567.374	407.98
567.799	337.77
568.224	307.34
568.648	330.75
569.073	365.85
569.497	354.15
569.922	305
570.346	337.77
570.771	335.43
571.195	314.36
571.619	398.62
572.043	335.43
572.467	384.58
572.891	337.77
573.315	363.51
573.739	363.51
574.163	295.64
574.587	337.77
575.011	337.77
575.435	333.09
575.858	351.81
576.282	316.7
576.705	347.13
577.129	361.17
577.552	279.26
577.976	307.34
578.399	281.6
578.822	365.85
579.245	316.7
579.669	347.13
580.092	347.13
580.515	300.32
580.938	361.17
581.361	290.96
581.784	342.45
582.206	323.73
582.629	319.04
583.052	335.43
583.474	305
583.897	335.43
584.32	269.89
584.742	384.58
585.165	333.09
585.587	335.43
586.009	295.64
586.431	319.04
586.854	356.49
587.276	316.7
587.698	333.09
588.12	316.7
588.542	356.49
588.964	337.77
589.386	319.04
589.807	288.62
590.229	333.09
590.651	328.41
591.073	305
591.494	337.77
591.916	309.68
592.337	255.85
592.759	300.32
593.18	354.15
593.601	253.51
594.022	314.36
594.444	312.02
594.865	290.96
595.286	351.81
595.707	342.45
596.128	354.15
596.549	293.3
596.97	370.54
597.39	372.88
597.811	316.7
598.232	295.64
598.652	344.79
599.073	335.43
599.494	305
599.914	328.41
600.334	340.11
600.755	342.45
601.175	319.04
601.595	297.98
602.015	328.41
602.436	307.34
602.856	424.37
603.276	389.26
603.696	361.17
604.115	290.96
604.535	319.04
604.955	335.43
605.375	326.07
605.794	297.98
606.214	262.87
606.634	309.68
607.053	379.9
607.473	300.32
607.892	337.77
608.311	300.32
608.731	300.32
609.15	335.43
609.569	286.28
609.988	328.41
610.407	337.77
610.826	361.17
611.245	333.09
611.664	297.98
612.083	305
612.501	314.36
612.92	358.83
613.339	349.47
613.757	323.73
614.176	321.38
614.594	382.24
615.013	326.07
615.431	344.79
615.85	354.15
616.268	302.66
616.686	309.68
617.104	356.49
617.522	295.64
617.94	328.41
618.358	326.07
618.776	305
619.194	337.77
619.612	363.51
620.03	337.77
620.447	323.73
620.865	372.88
621.282	309.68
621.7	309.68
622.117	276.91
622.535	372.88
622.952	403.3
623.369	356.49
623.787	351.81
624.204	312.02
624.621	314.36
625.038	309.68
625.455	351.81
625.872	326.07
626.289	316.7
626.706	326.07
627.123	300.32
627.539	316.7
627.956	319.04
628.373	309.68
628.789	262.87
629.206	314.36
629.622	267.55
630.038	319.04
630.455	319.04
630.871	333.09
631.287	330.75
631.703	288.62
632.12	319.04
632.536	295.64
632.952	368.2
633.368	283.94
633.783	342.45
634.199	361.17
634.615	269.89
635.031	293.3
635.446	326.07
635.862	321.38
636.277	316.7
636.693	337.77
637.108	382.24
637.524	328.41
637.939	372.88
638.354	342.45
638.77	351.81
639.185	347.13
639.6	342.45
640.015	300.32
640.43	293.3
640.845	354.15
641.259	305
641.674	297.98
642.089	323.73
642.504	358.83
642.918	384.58
643.333	297.98
643.747	361.17
644.162	344.79
644.576	293.3
644.991	342.45
645.405	295.64
645.819	326.07
646.233	305
646.647	400.96
647.061	335.43
647.475	358.83
647.889	323.73
648.303	288.62
648.717	300.32
649.131	342.45
649.545	358.83
649.958	340.11
650.372	314.36
650.785	239.47
651.199	330.75
651.612	297.98
652.026	363.51
652.439	321.38
652.852	344.79
653.266	316.7
653.679	333.09
654.092	375.22
654.505	312.02
654.918	286.28
655.331	262.87
655.744	312.02
656.156	337.77
656.569	354.15
656.982	293.3
657.394	356.49
657.807	274.57
658.22	319.04
658.632	333.09
659.044	293.3
659.457	319.04
659.869	307.34
660.281	384.58
660.693	265.21
661.106	340.11
661.518	300.32
661.93	356.49
662.342	206.7
662.754	316.7
663.165	326.07
663.577	333.09
663.989	309.68
664.401	365.85
664.812	347.13
665.224	305
665.635	307.34
666.047	337.77
666.458	384.58
666.869	323.73
667.281	358.83
667.692	305
668.103	319.04
668.514	290.96
668.925	340.11
669.336	312.02
669.747	321.38
670.158	342.45
670.569	300.32
670.979	340.11
671.39	368.2
671.801	326.07
672.211	279.26
672.622	305
673.032	335.43
673.443	326.07
673.853	314.36
674.263	286.28
674.674	372.88
675.084	309.68
675.494	342.45
675.904	302.66
676.314	340.11
676.724	333.09
677.134	314.36
677.544	340.11
677.953	372.88
678.363	368.2
678.773	386.92
679.182	363.51
679.592	312.02
680.001	319.04
680.411	344.79
680.82	279.26
681.23	305
681.639	344.79
682.048	365.85
682.457	262.87
682.866	309.68
683.275	330.75
683.684	347.13
684.093	295.64
684.502	365.85
684.911	361.17
685.32	283.94
685.728	319.04
686.137	297.98
686.546	328.41
686.954	321.38
687.363	297.98
687.771	337.77
688.179	328.41
688.588	290.96
688.996	293.3
689.404	281.6
689.812	286.28
690.22	286.28
690.628	347.13
691.036	307.34
691.444	323.73
691.852	344.79
692.26	321.38
692.667	356.49
693.075	258.19
693.483	255.85
693.89	323.73
694.298	251.17
694.705	347.13
695.112	349.47
695.52	386.92
695.927	358.83
696.334	328.41
696.741	319.04
697.148	386.92
697.555	363.51
697.962	386.92
698.369	347.13
698.776	267.55
699.183	372.88
699.59	375.22
699.996	396.28
700.403	309.68
700.81	335.43
701.216	333.09
701.623	342.45
702.029	312.02
702.435	365.85
702.842	342.45
703.248	293.3
703.654	340.11
704.06	316.7
704.466	361.17
704.872	349.47
705.278	255.85
705.684	302.66
706.09	356.49
706.496	260.53
706.901	283.94
707.307	274.57
707.712	340.11
708.118	342.45
708.523	300.32
708.929	279.26
709.334	326.07
709.74	335.43
710.145	288.62
710.55	305
710.955	351.81
711.36	314.36
711.765	253.51
712.17	309.68
712.575	349.47
712.98	780.13
713.385	391.6
713.789	328.41
714.194	398.62
714.599	297.98
715.003	312.02
715.408	351.81
715.812	337.77
716.217	358.83
716.621	379.9
717.025	288.62
717.429	302.66
717.833	333.09
718.238	312.02
718.642	391.6
719.046	290.96
719.449	293.3
719.853	283.94
720.257	321.38
720.661	276.91
721.065	407.98
721.468	382.24
721.872	340.11
722.275	307.34
722.679	302.66
723.082	354.15
723.485	337.77
723.889	340.11
724.292	328.41
724.695	288.62
725.098	337.77
725.501	319.04
725.904	391.6
726.307	281.6
726.71	319.04
727.113	370.54
727.516	333.09
727.918	342.45
728.321	281.6
728.724	351.81
729.126	330.75
729.529	335.43
729.931	316.7
730.333	361.17
730.736	297.98
731.138	330.75
731.54	342.45
731.942	295.64
732.344	316.7
732.746	272.23
733.148	372.88
733.55	344.79
733.952	312.02
734.354	300.32
734.756	290.96
735.157	356.49
735.559	337.77
735.96	386.92
736.362	351.81
736.763	295.64
737.165	305
737.566	328.41
737.967	354.15
738.368	288.62
738.77	293.3
739.171	335.43
739.572	337.77
739.973	295.64
740.374	337.77
740.774	377.56
741.175	361.17
741.576	248.83
741.977	312.02
742.377	319.04
742.778	330.75
743.178	372.88
743.579	297.98
743.979	302.66
744.379	290.96
744.78	340.11
745.18	342.45
745.58	305
745.98	279.26
746.38	342.45
746.78	312.02
747.18	321.38
747.58	283.94
747.98	290.96
748.38	316.7
748.779	316.7
749.179	288.62
749.578	340.11
749.978	290.96
750.377	258.19
750.777	347.13
751.176	305
751.575	344.79
751.975	351.81
752.374	307.34
752.773	328.41
753.172	297.98
753.571	305
753.97	316.7
754.369	323.73
754.768	361.17
755.166	319.04
755.565	344.79
755.964	389.26
756.362	326.07
756.761	368.2
757.159	379.9
757.558	351.81
757.956	316.7
758.354	351.81
758.753	279.26
759.151	265.21
759.549	377.56
759.947	323.73
760.345	302.66
760.743	342.45
761.141	340.11
761.539	316.7
761.936	396.28
762.334	321.38
762.732	335.43
763.129	312.02
763.527	290.96
763.924	297.98
764.322	283.94
764.719	300.32
765.117	372.88
765.514	342.45
765.911	365.85
766.308	293.3
766.705	342.45
767.102	337.77
767.499	321.38
767.896	267.55
