Data from Al_FLMS009871__1067__16-27-03-411.txt Node

Date: Fri Mar 08 16:27:03 CST 2024
User: pe5414po
Spectrometer: FLMS00987
Trigger mode: 0
Integration Time (sec): 1.000000E-1
Scans to average: 1
Electric dark correction enabled: true
Nonlinearity correction enabled: false
Boxcar width: 0
XAxis mode: Wavelengths
Number of Pixels in Spectrum: 2048
>>>>>Begin Spectral Data<<<<<
188.938	-130.34
189.409	-130.34
189.879	-130.34
190.349	-102.25
190.819	-118.64
191.29	-104.59
191.76	-69.48
192.23	-109.27
192.7	-71.83
193.17	-20.33
193.64	-69.48
194.109	-3.95
194.579	-1.61
195.049	3.07
195.519	14.77
195.988	61.59
196.458	56.9
196.927	33.5
197.397	92.01
197.866	103.71
198.336	84.99
198.805	54.56
199.274	169.25
199.744	187.97
200.213	227.76
200.682	180.95
201.151	173.93
201.62	195
202.089	204.36
202.558	293.3
203.027	260.53
203.495	309.68
203.964	305
204.433	230.1
204.902	321.38
205.37	276.91
205.839	283.94
206.307	337.77
206.776	225.42
207.244	312.02
207.712	290.96
208.181	255.85
208.649	326.07
209.117	302.66
209.585	265.21
210.053	283.94
210.521	316.7
210.989	290.96
211.457	335.43
211.925	297.98
212.393	307.34
212.861	305
213.328	340.11
213.796	286.28
214.264	267.55
214.731	206.7
215.199	356.49
215.666	255.85
216.133	267.55
216.601	309.68
217.068	241.81
217.535	302.66
218.003	283.94
218.47	290.96
218.937	288.62
219.404	253.51
219.871	274.57
220.338	232.44
220.805	223.08
221.271	272.23
221.738	251.17
222.205	209.04
222.671	286.28
223.138	253.51
223.605	269.89
224.071	272.23
224.538	218.4
225.004	244.15
225.47	297.98
225.937	286.28
226.403	241.81
226.869	162.23
227.335	251.17
227.801	183.29
228.267	337.77
228.733	286.28
229.199	260.53
229.665	234.78
230.131	309.68
230.597	321.38
231.062	258.19
231.528	290.96
231.994	283.94
232.459	223.08
232.925	288.62
233.39	323.73
233.856	232.44
234.321	297.98
234.786	262.87
235.252	286.28
235.717	295.64
236.182	220.74
236.647	295.64
237.112	288.62
237.577	272.23
238.042	281.6
238.507	309.68
238.972	272.23
239.436	262.87
239.901	246.49
240.366	279.26
240.83	251.17
241.295	288.62
241.76	255.85
242.224	293.3
242.688	309.68
243.153	342.45
243.617	276.91
244.081	293.3
244.545	330.75
245.01	269.89
245.474	300.32
245.938	281.6
246.402	307.34
246.866	293.3
247.33	281.6
247.793	251.17
248.257	213.72
248.721	202.02
249.185	321.38
249.648	246.49
250.112	253.51
250.575	286.28
251.039	239.47
251.502	269.89
251.965	279.26
252.429	288.62
252.892	211.38
253.355	305
253.818	258.19
254.281	328.41
254.744	211.38
255.207	281.6
255.67	319.04
256.133	309.68
256.596	302.66
257.059	281.6
257.522	293.3
257.984	246.49
258.447	307.34
258.909	297.98
259.372	213.72
259.834	316.7
260.297	297.98
260.759	239.47
261.221	305
261.684	286.28
262.146	347.13
262.608	328.41
263.07	262.87
263.532	244.15
263.994	272.23
264.456	260.53
264.918	293.3
265.38	288.62
265.842	255.85
266.303	260.53
266.765	281.6
267.227	312.02
267.688	290.96
268.15	340.11
268.611	314.36
269.072	297.98
269.534	335.43
269.995	330.75
270.456	368.2
270.918	281.6
271.379	262.87
271.84	281.6
272.301	297.98
272.762	326.07
273.223	251.17
273.684	274.57
274.144	340.11
274.605	314.36
275.066	262.87
275.527	361.17
275.987	260.53
276.448	354.15
276.908	314.36
277.369	283.94
277.829	276.91
278.289	290.96
278.75	286.28
279.21	295.64
279.67	335.43
280.13	323.73
280.59	307.34
281.05	258.19
281.51	272.23
281.97	300.32
282.43	314.36
282.89	305
283.35	323.73
283.809	307.34
284.269	316.7
284.729	290.96
285.188	319.04
285.648	314.36
286.107	290.96
286.567	295.64
287.026	283.94
287.485	251.17
287.944	281.6
288.404	354.15
288.863	323.73
289.322	312.02
289.781	323.73
290.24	302.66
290.699	319.04
291.158	319.04
291.616	260.53
292.075	323.73
292.534	312.02
292.992	297.98
293.451	307.34
293.91	356.49
294.368	300.32
294.827	279.26
295.285	295.64
295.743	244.15
296.202	302.66
296.66	288.62
297.118	305
297.576	305
298.034	326.07
298.492	307.34
298.95	281.6
299.408	365.85
299.866	365.85
300.324	248.83
300.781	272.23
301.239	326.07
301.697	279.26
302.154	307.34
302.612	337.77
303.069	368.2
303.527	356.49
303.984	262.87
304.441	295.64
304.899	312.02
305.356	316.7
305.813	274.57
306.27	335.43
306.727	319.04
307.184	307.34
307.641	361.17
308.098	321.38
308.555	281.6
309.012	316.7
309.468	295.64
309.925	370.54
310.382	297.98
310.838	293.3
311.295	295.64
311.751	365.85
312.208	305
312.664	267.55
313.12	326.07
313.577	342.45
314.033	321.38
314.489	239.47
314.945	365.85
315.401	305
315.857	342.45
316.313	297.98
316.769	314.36
317.225	316.7
317.681	375.22
318.136	290.96
318.592	351.81
319.048	319.04
319.503	342.45
319.959	344.79
320.414	358.83
320.869	267.55
321.325	293.3
321.78	379.9
322.235	295.64
322.691	246.49
323.146	361.17
323.601	358.83
324.056	379.9
324.511	300.32
324.966	382.24
325.421	351.81
325.875	274.57
326.33	333.09
326.785	293.3
327.24	347.13
327.694	323.73
328.149	335.43
328.603	290.96
329.058	312.02
329.512	269.89
329.966	356.49
330.421	356.49
330.875	274.57
331.329	372.88
331.783	314.36
332.237	312.02
332.691	340.11
333.145	340.11
333.599	267.55
334.053	276.91
334.507	288.62
334.96	232.44
335.414	330.75
335.868	262.87
336.321	319.04
336.775	351.81
337.228	347.13
337.682	227.76
338.135	279.26
338.588	265.21
339.042	351.81
339.495	321.38
339.948	368.2
340.401	347.13
340.854	344.79
341.307	323.73
341.76	297.98
342.213	293.3
342.666	297.98
343.119	258.19
343.571	370.54
344.024	323.73
344.477	297.98
344.929	272.23
345.382	323.73
345.834	305
346.287	295.64
346.739	286.28
347.191	302.66
347.644	281.6
348.096	272.23
348.548	337.77
349	239.47
349.452	288.62
349.904	274.57
350.356	326.07
350.808	307.34
351.26	361.17
351.711	305
352.163	344.79
352.615	384.58
353.066	309.68
353.518	342.45
353.969	290.96
354.421	403.3
354.872	354.15
355.324	321.38
355.775	290.96
356.226	363.51
356.677	368.2
357.128	314.36
357.579	363.51
358.03	316.7
358.481	319.04
358.932	354.15
359.383	323.73
359.834	319.04
360.285	272.23
360.735	349.47
361.186	314.36
361.637	319.04
362.087	283.94
362.538	326.07
362.988	326.07
363.438	272.23
363.889	349.47
364.339	293.3
364.789	319.04
365.239	244.15
365.689	340.11
366.139	302.66
366.589	321.38
367.039	307.34
367.489	321.38
367.939	279.26
368.389	288.62
368.839	340.11
369.288	365.85
369.738	340.11
370.187	379.9
370.637	314.36
371.086	297.98
371.536	358.83
371.985	321.38
372.434	290.96
372.884	323.73
373.333	319.04
373.782	335.43
374.231	344.79
374.68	415.01
375.129	347.13
375.578	330.75
376.027	337.77
376.475	319.04
376.924	297.98
377.373	349.47
377.822	288.62
378.27	330.75
378.719	368.2
379.167	305
379.616	297.98
380.064	267.55
380.512	279.26
380.961	335.43
381.409	305
381.857	342.45
382.305	295.64
382.753	379.9
383.201	309.68
383.649	305
384.097	290.96
384.545	319.04
384.992	342.45
385.44	326.07
385.888	384.58
386.335	377.56
386.783	326.07
387.231	328.41
387.678	286.28
388.125	269.89
388.573	274.57
389.02	319.04
389.467	326.07
389.914	370.54
390.362	281.6
390.809	340.11
391.256	321.38
391.703	337.77
392.15	290.96
392.596	321.38
393.043	316.7
393.49	312.02
393.937	326.07
394.383	283.94
394.83	386.92
395.276	286.28
395.723	302.66
396.169	361.17
396.616	368.2
397.062	302.66
397.508	314.36
397.954	293.3
398.401	328.41
398.847	344.79
399.293	312.02
399.739	389.26
400.185	330.75
400.631	344.79
401.076	351.81
401.522	321.38
401.968	365.85
402.414	302.66
402.859	305
403.305	281.6
403.75	307.34
404.196	335.43
404.641	358.83
405.086	300.32
405.532	340.11
405.977	351.81
406.422	361.17
406.867	340.11
407.312	293.3
407.757	293.3
408.202	253.51
408.647	309.68
409.092	321.38
409.537	382.24
409.982	382.24
410.426	326.07
410.871	330.75
411.316	246.49
411.76	323.73
412.205	342.45
412.649	351.81
413.093	255.85
413.538	297.98
413.982	290.96
414.426	347.13
414.87	258.19
415.314	344.79
415.758	351.81
416.202	297.98
416.646	274.57
417.09	305
417.534	295.64
417.978	337.77
418.421	300.32
418.865	302.66
419.309	305
419.752	267.55
420.196	279.26
420.639	297.98
421.083	316.7
421.526	422.03
421.969	295.64
422.412	295.64
422.856	314.36
423.299	253.51
423.742	269.89
424.185	328.41
424.628	328.41
425.071	342.45
425.513	363.51
425.956	337.77
426.399	316.7
426.842	321.38
427.284	272.23
427.727	347.13
428.169	251.17
428.612	286.28
429.054	335.43
429.497	344.79
429.939	307.34
430.381	300.32
430.823	309.68
431.265	361.17
431.707	300.32
432.149	328.41
432.591	344.79
433.033	354.15
433.475	262.87
433.917	297.98
434.359	349.47
434.8	281.6
435.242	351.81
435.684	396.28
436.125	309.68
436.567	372.88
437.008	321.38
437.449	342.45
437.891	297.98
438.332	410.33
438.773	342.45
439.214	255.85
439.656	272.23
440.097	295.64
440.538	370.54
440.978	337.77
441.419	321.38
441.86	368.2
442.301	281.6
442.742	286.28
443.182	358.83
443.623	321.38
444.063	279.26
444.504	349.47
444.944	328.41
445.385	312.02
445.825	340.11
446.265	328.41
446.706	302.66
447.146	363.51
447.586	302.66
448.026	326.07
448.466	283.94
448.906	279.26
449.346	267.55
449.786	321.38
450.225	361.17
450.665	312.02
451.105	351.81
451.544	295.64
451.984	283.94
452.424	305
452.863	293.3
453.302	393.94
453.742	337.77
454.181	368.2
454.62	356.49
455.059	326.07
455.499	330.75
455.938	302.66
456.377	330.75
456.816	223.08
457.254	262.87
457.693	297.98
458.132	307.34
458.571	297.98
459.01	262.87
459.448	321.38
459.887	356.49
460.325	361.17
460.764	314.36
461.202	293.3
461.641	368.2
462.079	340.11
462.517	267.55
462.955	365.85
463.393	297.98
463.832	302.66
464.27	396.28
464.708	305
465.145	330.75
465.583	309.68
466.021	344.79
466.459	297.98
466.897	290.96
467.334	335.43
467.772	349.47
468.209	305
468.647	333.09
469.084	297.98
469.522	351.81
469.959	297.98
470.396	323.73
470.833	347.13
471.271	314.36
471.708	267.55
472.145	286.28
472.582	347.13
473.019	297.98
473.456	333.09
473.892	328.41
474.329	281.6
474.766	312.02
475.202	319.04
475.639	328.41
476.076	326.07
476.512	312.02
476.949	368.2
477.385	269.89
477.821	400.96
478.258	347.13
478.694	269.89
479.13	283.94
479.566	290.96
480.002	347.13
480.438	269.89
480.874	328.41
481.31	293.3
481.746	307.34
482.181	307.34
482.617	337.77
483.053	283.94
483.488	340.11
483.924	276.91
484.36	333.09
484.795	283.94
485.23	227.76
485.666	335.43
486.101	412.67
486.536	281.6
486.971	312.02
487.407	326.07
487.842	356.49
488.277	349.47
488.712	279.26
489.146	340.11
489.581	295.64
490.016	297.98
490.451	302.66
490.885	365.85
491.32	330.75
491.755	342.45
492.189	337.77
492.624	326.07
493.058	354.15
493.492	316.7
493.927	267.55
494.361	349.47
494.795	276.91
495.229	290.96
495.663	365.85
496.097	262.87
496.531	354.15
496.965	342.45
497.399	321.38
497.833	293.3
498.266	349.47
498.7	272.23
499.134	276.91
499.567	293.3
500.001	302.66
500.434	316.7
500.868	316.7
501.301	361.17
501.734	302.66
502.168	335.43
502.601	347.13
503.034	276.91
503.467	290.96
503.9	326.07
504.333	347.13
504.766	316.7
505.199	393.94
505.632	316.7
506.064	323.73
506.497	316.7
506.93	365.85
507.362	288.62
507.795	342.45
508.227	384.58
508.66	370.54
509.092	283.94
509.524	290.96
509.956	234.78
510.389	326.07
510.821	286.28
511.253	344.79
511.685	312.02
512.117	297.98
512.549	370.54
512.981	276.91
513.412	333.09
513.844	316.7
514.276	314.36
514.707	295.64
515.139	314.36
515.571	309.68
516.002	323.73
516.433	286.28
516.865	281.6
517.296	309.68
517.727	321.38
518.159	337.77
518.59	314.36
519.021	283.94
519.452	326.07
519.883	344.79
520.314	363.51
520.744	361.17
521.175	269.89
521.606	272.23
522.037	347.13
522.467	370.54
522.898	337.77
523.328	328.41
523.759	377.56
524.189	330.75
524.62	309.68
525.05	316.7
525.48	368.2
525.91	293.3
526.341	377.56
526.771	326.07
527.201	314.36
527.631	377.56
528.061	279.26
528.49	283.94
528.92	239.47
529.35	319.04
529.78	232.44
530.209	337.77
530.639	340.11
531.068	305
531.498	260.53
531.927	272.23
532.357	302.66
532.786	312.02
533.215	286.28
533.644	328.41
534.074	312.02
534.503	335.43
534.932	358.83
535.361	319.04
535.79	326.07
536.218	279.26
536.647	333.09
537.076	293.3
537.505	283.94
537.933	370.54
538.362	258.19
538.79	370.54
539.219	326.07
539.647	279.26
540.076	319.04
540.504	309.68
540.932	258.19
541.36	290.96
541.788	295.64
542.217	335.43
542.645	326.07
543.073	365.85
543.5	386.92
543.928	300.32
544.356	319.04
544.784	347.13
545.211	340.11
545.639	354.15
546.067	354.15
546.494	307.34
546.922	279.26
547.349	340.11
547.776	351.81
548.204	314.36
548.631	300.32
549.058	328.41
549.485	354.15
549.912	379.9
550.339	281.6
550.766	377.56
551.193	326.07
551.62	347.13
552.047	333.09
552.474	297.98
552.9	316.7
553.327	258.19
553.754	302.66
554.18	328.41
554.607	300.32
555.033	323.73
555.459	342.45
555.886	382.24
556.312	340.11
556.738	363.51
557.164	347.13
557.59	337.77
558.016	281.6
558.442	354.15
558.868	328.41
559.294	354.15
559.72	321.38
560.145	307.34
560.571	319.04
560.997	340.11
561.422	276.91
561.848	302.66
562.273	258.19
562.699	340.11
563.124	372.88
563.549	314.36
563.974	279.26
564.4	323.73
564.825	297.98
565.25	370.54
565.675	342.45
566.1	300.32
566.525	333.09
566.95	337.77
567.374	239.47
567.799	295.64
568.224	302.66
568.648	333.09
569.073	288.62
569.497	286.28
569.922	342.45
570.346	330.75
570.771	319.04
571.195	253.51
571.619	333.09
572.043	323.73
572.467	279.26
572.891	302.66
573.315	326.07
573.739	337.77
574.163	328.41
574.587	347.13
575.011	321.38
575.435	323.73
575.858	312.02
576.282	354.15
576.705	307.34
577.129	330.75
577.552	281.6
577.976	312.02
578.399	281.6
578.822	351.81
579.245	312.02
579.669	269.89
580.092	297.98
580.515	316.7
580.938	342.45
581.361	279.26
581.784	342.45
582.206	295.64
582.629	319.04
583.052	305
583.474	319.04
583.897	361.17
584.32	328.41
584.742	382.24
585.165	309.68
585.587	335.43
586.009	309.68
586.431	349.47
586.854	351.81
587.276	297.98
587.698	319.04
588.12	307.34
588.542	349.47
588.964	258.19
589.386	328.41
589.807	297.98
590.229	272.23
590.651	293.3
591.073	356.49
591.494	330.75
591.916	295.64
592.337	246.49
592.759	335.43
593.18	307.34
593.601	251.17
594.022	361.17
594.444	297.98
594.865	333.09
595.286	295.64
595.707	262.87
596.128	319.04
596.549	342.45
596.97	384.58
597.39	300.32
597.811	429.05
598.232	382.24
598.652	305
599.073	344.79
599.494	316.7
599.914	365.85
600.334	351.81
600.755	356.49
601.175	351.81
601.595	337.77
602.015	260.53
602.436	328.41
602.856	410.33
603.276	319.04
603.696	377.56
604.115	337.77
604.535	368.2
604.955	314.36
605.375	279.26
605.794	358.83
606.214	330.75
606.634	283.94
607.053	290.96
607.473	333.09
607.892	297.98
608.311	340.11
608.731	312.02
609.15	307.34
609.569	328.41
609.988	314.36
610.407	335.43
610.826	335.43
611.245	323.73
611.664	363.51
612.083	351.81
612.501	333.09
612.92	262.87
613.339	314.36
613.757	393.94
614.176	295.64
614.594	398.62
615.013	312.02
615.431	305
615.85	232.44
616.268	290.96
616.686	333.09
617.104	335.43
617.522	337.77
617.94	295.64
618.358	330.75
618.776	365.85
619.194	333.09
619.612	312.02
620.03	295.64
620.447	293.3
620.865	293.3
621.282	281.6
621.7	368.2
622.117	276.91
622.535	321.38
622.952	288.62
623.369	382.24
623.787	312.02
624.204	356.49
624.621	358.83
625.038	347.13
625.455	328.41
625.872	358.83
626.289	349.47
626.706	368.2
627.123	293.3
627.539	316.7
627.956	340.11
628.373	312.02
628.789	246.49
629.206	297.98
629.622	351.81
630.038	377.56
630.455	372.88
630.871	330.75
631.287	314.36
631.703	337.77
632.12	307.34
632.536	300.32
632.952	340.11
633.368	314.36
633.783	326.07
634.199	319.04
634.615	321.38
635.031	246.49
635.446	281.6
635.862	300.32
636.277	368.2
636.693	335.43
637.108	330.75
637.524	358.83
637.939	288.62
638.354	297.98
638.77	276.91
639.185	405.64
639.6	321.38
640.015	295.64
640.43	286.28
640.845	323.73
641.259	307.34
641.674	269.89
642.089	281.6
642.504	319.04
642.918	342.45
643.333	328.41
643.747	305
644.162	307.34
644.576	349.47
644.991	328.41
645.405	302.66
645.819	370.54
646.233	300.32
646.647	274.57
647.061	368.2
647.475	279.26
647.889	276.91
648.303	307.34
648.717	269.89
649.131	293.3
649.545	351.81
649.958	286.28
650.372	309.68
650.785	290.96
651.199	344.79
651.612	323.73
652.026	384.58
652.439	377.56
652.852	326.07
653.266	262.87
653.679	347.13
654.092	307.34
654.505	344.79
654.918	333.09
655.331	293.3
655.744	302.66
656.156	239.47
656.569	314.36
656.982	305
657.394	326.07
657.807	283.94
658.22	342.45
658.632	328.41
659.044	262.87
659.457	290.96
659.869	326.07
660.281	290.96
660.693	363.51
661.106	312.02
661.518	335.43
661.93	347.13
662.342	321.38
662.754	319.04
663.165	330.75
663.577	305
663.989	335.43
664.401	326.07
664.812	269.89
665.224	321.38
665.635	333.09
666.047	351.81
666.458	290.96
666.869	379.9
667.281	312.02
667.692	286.28
668.103	356.49
668.514	316.7
668.925	407.98
669.336	330.75
669.747	323.73
670.158	335.43
670.569	333.09
670.979	276.91
671.39	293.3
671.801	342.45
672.211	309.68
672.622	305
673.032	295.64
673.443	297.98
673.853	300.32
674.263	354.15
674.674	319.04
675.084	328.41
675.494	347.13
675.904	368.2
676.314	342.45
676.724	363.51
677.134	251.17
677.544	363.51
677.953	312.02
678.363	309.68
678.773	281.6
679.182	309.68
679.592	276.91
680.001	349.47
680.411	307.34
680.82	377.56
681.23	241.81
681.639	305
682.048	265.21
682.457	379.9
682.866	316.7
683.275	309.68
683.684	295.64
684.093	274.57
684.502	267.55
684.911	309.68
685.32	279.26
685.728	295.64
686.137	288.62
686.546	337.77
686.954	335.43
687.363	370.54
687.771	351.81
688.179	347.13
688.588	344.79
688.996	347.13
689.404	239.47
689.812	248.83
690.22	316.7
690.628	328.41
691.036	283.94
691.444	290.96
691.852	234.78
692.26	347.13
692.667	405.64
693.075	391.6
693.483	326.07
693.89	344.79
694.298	354.15
694.705	321.38
695.112	333.09
695.52	323.73
695.927	319.04
696.334	328.41
696.741	307.34
697.148	323.73
697.555	375.22
697.962	260.53
698.369	307.34
698.776	309.68
699.183	295.64
699.59	307.34
699.996	314.36
700.403	248.83
700.81	246.49
701.216	309.68
701.623	375.22
702.029	323.73
702.435	323.73
702.842	260.53
703.248	293.3
703.654	354.15
704.06	347.13
704.466	356.49
704.872	281.6
705.278	326.07
705.684	337.77
706.09	372.88
706.496	377.56
706.901	386.92
707.307	328.41
707.712	312.02
708.118	328.41
708.523	302.66
708.929	326.07
709.334	312.02
709.74	438.41
710.145	260.53
710.55	279.26
710.955	248.83
711.36	344.79
711.765	295.64
712.17	351.81
712.575	347.13
712.98	819.92
713.385	356.49
713.789	258.19
714.194	295.64
714.599	349.47
715.003	314.36
715.408	326.07
715.812	328.41
716.217	267.55
716.621	293.3
717.025	290.96
717.429	309.68
717.833	288.62
718.238	328.41
718.642	269.89
719.046	358.83
719.449	326.07
719.853	253.51
720.257	302.66
720.661	281.6
721.065	358.83
721.468	351.81
721.872	293.3
722.275	279.26
722.679	363.51
723.082	330.75
723.485	234.78
723.889	246.49
724.292	328.41
724.695	290.96
725.098	293.3
725.501	288.62
725.904	377.56
726.307	326.07
726.71	307.34
727.113	302.66
727.516	295.64
727.918	326.07
728.321	323.73
728.724	248.83
729.126	312.02
729.529	342.45
729.931	347.13
730.333	295.64
730.736	347.13
731.138	260.53
731.54	347.13
731.942	302.66
732.344	323.73
732.746	344.79
733.148	272.23
733.55	368.2
733.952	330.75
734.354	276.91
734.756	384.58
735.157	307.34
735.559	321.38
735.96	293.3
736.362	375.22
736.763	265.21
737.165	323.73
737.566	293.3
737.967	326.07
738.368	302.66
738.77	344.79
739.171	323.73
739.572	307.34
739.973	305
740.374	335.43
740.774	290.96
741.175	319.04
741.576	286.28
741.977	300.32
742.377	333.09
742.778	297.98
743.178	307.34
743.579	337.77
743.979	326.07
744.379	305
744.78	337.77
745.18	333.09
745.58	293.3
745.98	370.54
746.38	290.96
746.78	335.43
747.18	305
747.58	297.98
747.98	328.41
748.38	335.43
748.779	337.77
749.179	309.68
749.578	295.64
749.978	391.6
750.377	375.22
750.777	312.02
751.176	279.26
751.575	337.77
751.975	314.36
752.374	363.51
752.773	340.11
753.172	337.77
753.571	321.38
753.97	328.41
754.369	323.73
754.768	316.7
755.166	344.79
755.565	344.79
755.964	349.47
756.362	267.55
756.761	342.45
757.159	272.23
757.558	276.91
757.956	340.11
758.354	356.49
758.753	314.36
759.151	330.75
759.549	323.73
759.947	349.47
760.345	340.11
760.743	323.73
761.141	377.56
761.539	281.6
761.936	326.07
762.334	279.26
762.732	309.68
763.129	316.7
763.527	335.43
763.924	314.36
764.322	328.41
764.719	251.17
765.117	347.13
765.514	309.68
765.911	262.87
766.308	274.57
766.705	333.09
767.102	330.75
767.499	274.57
