Data from Al_FLMS009871__1060__16-27-02-711.txt Node

Date: Fri Mar 08 16:27:02 CST 2024
User: pe5414po
Spectrometer: FLMS00987
Trigger mode: 0
Integration Time (sec): 1.000000E-1
Scans to average: 1
Electric dark correction enabled: true
Nonlinearity correction enabled: false
Boxcar width: 0
XAxis mode: Wavelengths
Number of Pixels in Spectrum: 2048
>>>>>Begin Spectral Data<<<<<
188.938	-100.5
189.409	-100.5
189.879	-100.5
190.349	-37.3
190.819	-102.84
191.29	-109.86
191.76	-154.33
192.23	-74.75
192.7	-86.45
193.17	-16.24
193.64	-81.77
194.109	-37.3
194.579	-6.88
195.049	-32.62
195.519	-25.6
195.988	30.57
196.458	68.02
196.927	63.34
197.397	154.62
197.866	171.01
198.336	138.24
198.805	77.38
199.274	182.71
199.744	131.22
200.213	161.64
200.682	168.66
201.151	250.58
201.62	210.79
202.089	213.14
202.558	255.26
203.027	278.67
203.495	304.42
203.964	290.37
204.433	304.42
204.902	320.8
205.37	313.78
205.839	281.01
206.307	255.26
206.776	313.78
207.244	325.48
207.712	266.97
208.181	320.8
208.649	273.99
209.117	276.33
209.585	332.5
210.053	313.78
210.521	311.44
210.989	250.58
211.457	295.05
211.925	332.5
212.393	313.78
212.861	316.12
213.328	281.01
213.796	262.29
214.264	243.56
214.731	281.01
215.199	341.86
215.666	288.03
216.133	306.76
216.601	292.71
217.068	302.08
217.535	266.97
218.003	304.42
218.47	257.61
218.937	288.03
219.404	302.08
219.871	173.35
220.338	220.16
220.805	210.79
221.271	271.65
221.738	236.54
222.205	313.78
222.671	206.11
223.138	281.01
223.605	156.96
224.071	231.86
224.538	266.97
225.004	292.71
225.47	278.67
225.937	220.16
226.403	304.42
226.869	323.14
227.335	288.03
227.801	383.99
228.267	295.05
228.733	304.42
229.199	262.29
229.665	341.86
230.131	330.16
230.597	290.37
231.062	248.24
231.528	269.31
231.994	257.61
232.459	302.08
232.925	245.9
233.39	252.92
233.856	290.37
234.321	201.43
234.786	231.86
235.252	297.39
235.717	320.8
236.182	255.26
236.647	248.24
237.112	290.37
237.577	262.29
238.042	231.86
238.507	208.45
238.972	234.2
239.436	245.9
239.901	292.71
240.366	313.78
240.83	264.63
241.295	245.9
241.76	259.95
242.224	353.57
242.688	379.31
243.153	259.95
243.617	241.22
244.081	271.65
244.545	295.05
245.01	295.05
245.474	313.78
245.938	266.97
246.402	288.03
246.866	271.65
247.33	271.65
247.793	299.73
248.257	290.37
248.721	299.73
249.185	302.08
249.648	278.67
250.112	292.71
250.575	278.67
251.039	339.52
251.502	320.8
251.965	215.48
252.429	297.39
252.892	332.5
253.355	245.9
253.818	245.9
254.281	278.67
254.744	281.01
255.207	309.1
255.67	259.95
256.133	376.97
256.596	262.29
257.059	297.39
257.522	306.76
257.984	276.33
258.447	283.35
258.909	273.99
259.372	215.48
259.834	257.61
260.297	383.99
260.759	297.39
261.221	297.39
261.684	292.71
262.146	285.69
262.608	325.48
263.07	285.69
263.532	252.92
263.994	325.48
264.456	365.27
264.918	365.27
265.38	290.37
265.842	255.26
266.303	299.73
266.765	358.25
267.227	311.44
267.688	325.48
268.15	278.67
268.611	278.67
269.072	297.39
269.534	269.31
269.995	295.05
270.456	327.82
270.918	266.97
271.379	243.56
271.84	299.73
272.301	318.46
272.762	255.26
273.223	257.61
273.684	344.21
274.144	339.52
274.605	269.31
275.066	264.63
275.527	323.14
275.987	271.65
276.448	302.08
276.908	290.37
277.369	348.89
277.829	323.14
278.289	316.12
278.75	278.67
279.21	330.16
279.67	292.71
280.13	243.56
280.59	304.42
281.05	290.37
281.51	250.58
281.97	292.71
282.43	297.39
282.89	290.37
283.35	250.58
283.809	313.78
284.269	311.44
284.729	271.65
285.188	325.48
285.648	304.42
286.107	379.31
286.567	292.71
287.026	316.12
287.485	355.91
287.944	276.33
288.404	341.86
288.863	231.86
289.322	304.42
289.781	297.39
290.24	304.42
290.699	341.86
291.158	299.73
291.616	332.5
292.075	266.97
292.534	257.61
292.992	295.05
293.451	259.95
293.91	290.37
294.368	281.01
294.827	295.05
295.285	299.73
295.743	313.78
296.202	241.22
296.66	325.48
297.118	337.18
297.576	297.39
298.034	313.78
298.492	252.92
298.95	276.33
299.408	311.44
299.866	290.37
300.324	271.65
300.781	273.99
301.239	332.5
301.697	273.99
302.154	311.44
302.612	316.12
303.069	292.71
303.527	309.1
303.984	334.84
304.441	334.84
304.899	309.1
305.356	292.71
305.813	372.29
306.27	262.29
306.727	276.33
307.184	288.03
307.641	283.35
308.098	337.18
308.555	367.61
309.012	318.46
309.468	257.61
309.925	302.08
310.382	278.67
310.838	255.26
311.295	259.95
311.751	337.18
312.208	283.35
312.664	309.1
313.12	320.8
313.577	346.55
314.033	255.26
314.489	278.67
314.945	264.63
315.401	259.95
315.857	348.89
316.313	358.25
316.769	238.88
317.225	302.08
317.681	327.82
318.136	297.39
318.592	259.95
319.048	299.73
319.503	269.31
319.959	236.54
320.414	257.61
320.869	295.05
321.325	278.67
321.78	285.69
322.235	320.8
322.691	313.78
323.146	290.37
323.601	281.01
324.056	243.56
324.511	278.67
324.966	318.46
325.421	306.76
325.875	325.48
326.33	292.71
326.785	290.37
327.24	320.8
327.694	309.1
328.149	243.56
328.603	288.03
329.058	348.89
329.512	358.25
329.966	334.84
330.421	334.84
330.875	290.37
331.329	362.93
331.783	292.71
332.237	285.69
332.691	355.91
333.145	297.39
333.599	365.27
334.053	297.39
334.507	304.42
334.96	330.16
335.414	266.97
335.868	320.8
336.321	327.82
336.775	276.33
337.228	316.12
337.682	234.2
338.135	358.25
338.588	297.39
339.042	327.82
339.495	318.46
339.948	339.52
340.401	306.76
340.854	365.27
341.307	348.89
341.76	288.03
342.213	278.67
342.666	201.43
343.119	391.02
343.571	344.21
344.024	341.86
344.477	299.73
344.929	318.46
345.382	327.82
345.834	360.59
346.287	299.73
346.739	330.16
347.191	297.39
347.644	330.16
348.096	248.24
348.548	292.71
349	283.35
349.452	346.55
349.904	316.12
350.356	285.69
350.808	236.54
351.26	330.16
351.711	283.35
352.163	313.78
352.615	257.61
353.066	320.8
353.518	273.99
353.969	330.16
354.421	313.78
354.872	332.5
355.324	344.21
355.775	306.76
356.226	367.61
356.677	346.55
357.128	337.18
357.579	299.73
358.03	351.23
358.481	344.21
358.932	292.71
359.383	316.12
359.834	306.76
360.285	341.86
360.735	252.92
361.186	334.84
361.637	351.23
362.087	341.86
362.538	360.59
362.988	358.25
363.438	313.78
363.889	313.78
364.339	266.97
364.789	313.78
365.239	297.39
365.689	290.37
366.139	323.14
366.589	360.59
367.039	266.97
367.489	271.65
367.939	325.48
368.389	313.78
368.839	309.1
369.288	299.73
369.738	283.35
370.187	285.69
370.637	304.42
371.086	330.16
371.536	330.16
371.985	362.93
372.434	299.73
372.884	285.69
373.333	273.99
373.782	320.8
374.231	295.05
374.68	283.35
375.129	299.73
375.578	325.48
376.027	358.25
376.475	346.55
376.924	325.48
377.373	297.39
377.822	337.18
378.27	358.25
378.719	320.8
379.167	304.42
379.616	323.14
380.064	334.84
380.512	325.48
380.961	292.71
381.409	332.5
381.857	327.82
382.305	327.82
382.753	313.78
383.201	259.95
383.649	309.1
384.097	339.52
384.545	283.35
384.992	355.91
385.44	309.1
385.888	273.99
386.335	330.16
386.783	320.8
387.231	391.02
387.678	302.08
388.125	316.12
388.573	353.57
389.02	316.12
389.467	304.42
389.914	316.12
390.362	309.1
390.809	313.78
391.256	290.37
391.703	304.42
392.15	346.55
392.596	273.99
393.043	360.59
393.49	405.06
393.937	360.59
394.383	325.48
394.83	376.97
395.276	346.55
395.723	311.44
396.169	355.91
396.616	327.82
397.062	334.84
397.508	292.71
397.954	391.02
398.401	302.08
398.847	362.93
399.293	299.73
399.739	330.16
400.185	285.69
400.631	320.8
401.076	285.69
401.522	250.58
401.968	362.93
402.414	337.18
402.859	320.8
403.305	318.46
403.75	369.95
404.196	309.1
404.641	320.8
405.086	288.03
405.532	269.31
405.977	262.29
406.422	358.25
406.867	278.67
407.312	299.73
407.757	313.78
408.202	334.84
408.647	297.39
409.092	313.78
409.537	311.44
409.982	318.46
410.426	252.92
410.871	369.95
411.316	327.82
411.76	306.76
412.205	288.03
412.649	344.21
413.093	323.14
413.538	231.86
413.982	290.37
414.426	299.73
414.87	252.92
415.314	332.5
415.758	355.91
416.202	316.12
416.646	367.61
417.09	367.61
417.534	369.95
417.978	358.25
418.421	285.69
418.865	320.8
419.309	334.84
419.752	295.05
420.196	325.48
420.639	341.86
421.083	302.08
421.526	323.14
421.969	299.73
422.412	313.78
422.856	309.1
423.299	273.99
423.742	323.14
424.185	278.67
424.628	388.68
425.071	362.93
425.513	311.44
425.956	360.59
426.399	304.42
426.842	309.1
427.284	337.18
427.727	358.25
428.169	285.69
428.612	304.42
429.054	269.31
429.497	311.44
429.939	269.31
430.381	281.01
430.823	323.14
431.265	271.65
431.707	306.76
432.149	257.61
432.591	269.31
433.033	318.46
433.475	339.52
433.917	369.95
434.359	323.14
434.8	337.18
435.242	316.12
435.684	320.8
436.125	346.55
436.567	271.65
437.008	334.84
437.449	266.97
437.891	334.84
438.332	362.93
438.773	306.76
439.214	332.5
439.656	337.18
440.097	341.86
440.538	332.5
440.978	295.05
441.419	285.69
441.86	348.89
442.301	332.5
442.742	304.42
443.182	295.05
443.623	309.1
444.063	269.31
444.504	262.29
444.944	262.29
445.385	351.23
445.825	236.54
446.265	323.14
446.706	344.21
447.146	316.12
447.586	360.59
448.026	320.8
448.466	327.82
448.906	290.37
449.346	266.97
449.786	299.73
450.225	348.89
450.665	325.48
451.105	330.16
451.544	341.86
451.984	320.8
452.424	283.35
452.863	313.78
453.302	306.76
453.742	262.29
454.181	316.12
454.62	348.89
455.059	281.01
455.499	383.99
455.938	344.21
456.377	355.91
456.816	334.84
457.254	348.89
457.693	353.57
458.132	379.31
458.571	353.57
459.01	304.42
459.448	339.52
459.887	290.37
460.325	318.46
460.764	299.73
461.202	360.59
461.641	306.76
462.079	339.52
462.517	311.44
462.955	362.93
463.393	337.18
463.832	327.82
464.27	362.93
464.708	320.8
465.145	369.95
465.583	259.95
466.021	358.25
466.459	304.42
466.897	278.67
467.334	304.42
467.772	252.92
468.209	278.67
468.647	374.63
469.084	313.78
469.522	248.24
469.959	344.21
470.396	327.82
470.833	325.48
471.271	332.5
471.708	299.73
472.145	323.14
472.582	358.25
473.019	290.37
473.456	346.55
473.892	302.08
474.329	383.99
474.766	306.76
475.202	376.97
475.639	283.35
476.076	386.33
476.512	283.35
476.949	304.42
477.385	288.03
477.821	283.35
478.258	316.12
478.694	231.86
479.13	290.37
479.566	323.14
480.002	316.12
480.438	299.73
480.874	355.91
481.31	320.8
481.746	309.1
482.181	332.5
482.617	330.16
483.053	344.21
483.488	358.25
483.924	292.71
484.36	285.69
484.795	320.8
485.23	309.1
485.666	297.39
486.101	320.8
486.536	332.5
486.971	259.95
487.407	311.44
487.842	271.65
488.277	264.63
488.712	327.82
489.146	365.27
489.581	358.25
490.016	292.71
490.451	316.12
490.885	297.39
491.32	292.71
491.755	306.76
492.189	320.8
492.624	379.31
493.058	341.86
493.492	292.71
493.927	271.65
494.361	330.16
494.795	393.36
495.229	318.46
495.663	330.16
496.097	259.95
496.531	283.35
496.965	358.25
497.399	372.29
497.833	353.57
498.266	299.73
498.7	320.8
499.134	273.99
499.567	327.82
500.001	313.78
500.434	391.02
500.868	330.16
501.301	330.16
501.734	306.76
502.168	323.14
502.601	309.1
503.034	348.89
503.467	259.95
503.9	379.31
504.333	281.01
504.766	292.71
505.199	302.08
505.632	323.14
506.064	355.91
506.497	311.44
506.93	367.61
507.362	306.76
507.795	337.18
508.227	334.84
508.66	353.57
509.092	414.42
509.524	285.69
509.956	325.48
510.389	309.1
510.821	304.42
511.253	330.16
511.685	369.95
512.117	327.82
512.549	288.03
512.981	318.46
513.412	316.12
513.844	309.1
514.276	306.76
514.707	323.14
515.139	362.93
515.571	318.46
516.002	283.35
516.433	304.42
516.865	332.5
517.296	346.55
517.727	316.12
518.159	348.89
518.59	383.99
519.021	327.82
519.452	245.9
519.883	421.44
520.314	330.16
520.744	316.12
521.175	316.12
521.606	306.76
522.037	306.76
522.467	316.12
522.898	332.5
523.328	332.5
523.759	248.24
524.189	318.46
524.62	369.95
525.05	276.33
525.48	313.78
525.91	346.55
526.341	334.84
526.771	327.82
527.201	337.18
527.631	398.04
528.061	330.16
528.49	360.59
528.92	320.8
529.35	292.71
529.78	355.91
530.209	297.39
530.639	313.78
531.068	278.67
531.498	358.25
531.927	320.8
532.357	337.18
532.786	243.56
533.215	346.55
533.644	325.48
534.074	283.35
534.503	302.08
534.932	353.57
535.361	362.93
535.79	299.73
536.218	362.93
536.647	320.8
537.076	299.73
537.505	271.65
537.933	297.39
538.362	341.86
538.79	348.89
539.219	325.48
539.647	306.76
540.076	332.5
540.504	369.95
540.932	297.39
541.36	351.23
541.788	388.68
542.217	374.63
542.645	309.1
543.073	416.76
543.5	299.73
543.928	262.29
544.356	339.52
544.784	297.39
545.211	318.46
545.639	358.25
546.067	334.84
546.494	367.61
546.922	295.05
547.349	409.74
547.776	278.67
548.204	318.46
548.631	292.71
549.058	327.82
549.485	360.59
549.912	309.1
550.339	311.44
550.766	311.44
551.193	292.71
551.62	238.88
552.047	325.48
552.474	320.8
552.9	339.52
553.327	320.8
553.754	304.42
554.18	351.23
554.607	273.99
555.033	255.26
555.459	339.52
555.886	337.18
556.312	360.59
556.738	330.16
557.164	344.21
557.59	306.76
558.016	288.03
558.442	304.42
558.868	278.67
559.294	402.72
559.72	365.27
560.145	341.86
560.571	355.91
560.997	351.23
561.422	372.29
561.848	339.52
562.273	332.5
562.699	334.84
563.124	313.78
563.549	360.59
563.974	358.25
564.4	276.33
564.825	313.78
565.25	327.82
565.675	323.14
566.1	348.89
566.525	313.78
566.95	383.99
567.374	278.67
567.799	309.1
568.224	311.44
568.648	266.97
569.073	334.84
569.497	252.92
569.922	236.54
570.346	316.12
570.771	355.91
571.195	346.55
571.619	330.16
572.043	395.7
572.467	257.61
572.891	339.52
573.315	325.48
573.739	330.16
574.163	330.16
574.587	281.01
575.011	386.33
575.435	351.23
575.858	381.65
576.282	362.93
576.705	334.84
577.129	325.48
577.552	355.91
577.976	281.01
578.399	285.69
578.822	365.27
579.245	341.86
579.669	330.16
580.092	367.61
580.515	299.73
580.938	269.31
581.361	337.18
581.784	316.12
582.206	320.8
582.629	344.21
583.052	323.14
583.474	311.44
583.897	323.14
584.32	302.08
584.742	360.59
585.165	398.04
585.587	334.84
586.009	337.18
586.431	367.61
586.854	304.42
587.276	323.14
587.698	355.91
588.12	320.8
588.542	259.95
588.964	295.05
589.386	374.63
589.807	372.29
590.229	259.95
590.651	337.18
591.073	323.14
591.494	409.74
591.916	341.86
592.337	262.29
592.759	367.61
593.18	327.82
593.601	341.86
594.022	323.14
594.444	320.8
594.865	288.03
595.286	316.12
595.707	313.78
596.128	271.65
596.549	316.12
596.97	337.18
597.39	341.86
597.811	299.73
598.232	278.67
598.652	271.65
599.073	339.52
599.494	318.46
599.914	358.25
600.334	355.91
600.755	339.52
601.175	353.57
601.595	278.67
602.015	241.22
602.436	288.03
602.856	465.91
603.276	276.33
603.696	318.46
604.115	271.65
604.535	234.2
604.955	360.59
605.375	313.78
605.794	367.61
606.214	250.58
606.634	306.76
607.053	369.95
607.473	257.61
607.892	325.48
608.311	318.46
608.731	341.86
609.15	281.01
609.569	346.55
609.988	309.1
610.407	372.29
610.826	304.42
611.245	325.48
611.664	264.63
612.083	358.25
612.501	318.46
612.92	323.14
613.339	313.78
613.757	372.29
614.176	306.76
614.594	297.39
615.013	346.55
615.431	299.73
615.85	365.27
616.268	257.61
616.686	318.46
617.104	292.71
617.522	334.84
617.94	292.71
618.358	360.59
618.776	330.16
619.194	362.93
619.612	285.69
620.03	288.03
620.447	304.42
620.865	306.76
621.282	388.68
621.7	341.86
622.117	257.61
622.535	332.5
622.952	266.97
623.369	271.65
623.787	374.63
624.204	285.69
624.621	341.86
625.038	276.33
625.455	278.67
625.872	236.54
626.289	337.18
626.706	327.82
627.123	355.91
627.539	257.61
627.956	297.39
628.373	306.76
628.789	273.99
629.206	316.12
629.622	271.65
630.038	309.1
630.455	346.55
630.871	367.61
631.287	327.82
631.703	320.8
632.12	339.52
632.536	288.03
632.952	316.12
633.368	255.26
633.783	334.84
634.199	362.93
634.615	299.73
635.031	341.86
635.446	316.12
635.862	323.14
636.277	318.46
636.693	316.12
637.108	313.78
637.524	351.23
637.939	332.5
638.354	367.61
638.77	360.59
639.185	309.1
639.6	295.05
640.015	337.18
640.43	273.99
640.845	346.55
641.259	302.08
641.674	351.23
642.089	353.57
642.504	330.16
642.918	348.89
643.333	302.08
643.747	393.36
644.162	281.01
644.576	414.42
644.991	288.03
645.405	306.76
645.819	320.8
646.233	339.52
646.647	306.76
647.061	337.18
647.475	304.42
647.889	273.99
648.303	325.48
648.717	313.78
649.131	288.03
649.545	365.27
649.958	269.31
650.372	309.1
650.785	276.33
651.199	323.14
651.612	339.52
652.026	407.4
652.439	316.12
652.852	393.36
653.266	299.73
653.679	320.8
654.092	323.14
654.505	332.5
654.918	320.8
655.331	316.12
655.744	367.61
656.156	402.72
656.569	313.78
656.982	353.57
657.394	323.14
657.807	236.54
658.22	325.48
658.632	285.69
659.044	262.29
659.457	332.5
659.869	316.12
660.281	271.65
660.693	290.37
661.106	358.25
661.518	337.18
661.93	309.1
662.342	344.21
662.754	278.67
663.165	344.21
663.577	325.48
663.989	283.35
664.401	299.73
664.812	266.97
665.224	346.55
665.635	337.18
666.047	344.21
666.458	334.84
666.869	313.78
667.281	283.35
667.692	302.08
668.103	309.1
668.514	355.91
668.925	346.55
669.336	302.08
669.747	316.12
670.158	297.39
670.569	292.71
670.979	348.89
671.39	278.67
671.801	332.5
672.211	313.78
672.622	302.08
673.032	344.21
673.443	295.05
673.853	374.63
674.263	374.63
674.674	339.52
675.084	346.55
675.494	276.33
675.904	325.48
676.314	391.02
676.724	288.03
677.134	316.12
677.544	355.91
677.953	346.55
678.363	309.1
678.773	379.31
679.182	313.78
679.592	348.89
680.001	288.03
680.411	348.89
680.82	398.04
681.23	285.69
681.639	344.21
682.048	355.91
682.457	348.89
682.866	299.73
683.275	379.31
683.684	313.78
684.093	302.08
684.502	353.57
684.911	372.29
685.32	332.5
685.728	318.46
686.137	320.8
686.546	360.59
686.954	295.05
687.363	313.78
687.771	325.48
688.179	288.03
688.588	421.44
688.996	309.1
689.404	332.5
689.812	332.5
690.22	271.65
690.628	288.03
691.036	297.39
691.444	276.33
691.852	332.5
692.26	269.31
692.667	285.69
693.075	365.27
693.483	327.82
693.89	355.91
694.298	323.14
694.705	323.14
695.112	278.67
695.52	348.89
695.927	278.67
696.334	323.14
696.741	290.37
697.148	271.65
697.555	306.76
697.962	351.23
698.369	327.82
698.776	362.93
699.183	292.71
699.59	299.73
699.996	290.37
700.403	306.76
700.81	318.46
701.216	358.25
701.623	330.16
702.029	325.48
702.435	332.5
702.842	288.03
703.248	325.48
703.654	269.31
704.06	304.42
704.466	332.5
704.872	281.01
705.278	374.63
705.684	281.01
706.09	313.78
706.496	337.18
706.901	288.03
707.307	311.44
707.712	348.89
708.118	360.59
708.523	358.25
708.929	369.95
709.334	400.38
709.74	367.61
710.145	327.82
710.55	325.48
710.955	285.69
711.36	295.05
711.765	344.21
712.17	348.89
712.575	346.55
712.98	833.38
713.385	374.63
713.789	304.42
714.194	316.12
714.599	334.84
715.003	381.65
715.408	283.35
715.812	304.42
716.217	276.33
716.621	327.82
717.025	318.46
717.429	339.52
717.833	304.42
718.238	309.1
718.642	302.08
719.046	297.39
719.449	330.16
719.853	295.05
720.257	372.29
720.661	273.99
721.065	304.42
721.468	344.21
721.872	341.86
722.275	346.55
722.679	316.12
723.082	313.78
723.485	276.33
723.889	327.82
724.292	306.76
724.695	290.37
725.098	374.63
725.501	337.18
725.904	316.12
726.307	304.42
726.71	325.48
727.113	348.89
727.516	273.99
727.918	355.91
728.321	327.82
728.724	304.42
729.126	348.89
729.529	358.25
729.931	302.08
730.333	302.08
730.736	332.5
731.138	344.21
731.54	348.89
731.942	283.35
732.344	316.12
732.746	341.86
733.148	393.36
733.55	306.76
733.952	311.44
734.354	323.14
734.756	295.05
735.157	306.76
735.559	313.78
735.96	353.57
736.362	332.5
736.763	341.86
737.165	309.1
737.566	313.78
737.967	309.1
738.368	271.65
738.77	360.59
739.171	320.8
739.572	276.33
739.973	288.03
740.374	358.25
740.774	313.78
741.175	320.8
741.576	313.78
741.977	271.65
742.377	320.8
742.778	332.5
743.178	353.57
743.579	290.37
743.979	316.12
744.379	339.52
744.78	327.82
745.18	412.08
745.58	302.08
745.98	295.05
746.38	264.63
746.78	306.76
747.18	339.52
747.58	339.52
747.98	271.65
748.38	259.95
748.779	271.65
749.179	339.52
749.578	376.97
749.978	325.48
750.377	379.31
750.777	297.39
751.176	302.08
751.575	302.08
751.975	257.61
752.374	318.46
752.773	318.46
753.172	344.21
753.571	348.89
753.97	332.5
754.369	348.89
754.768	241.22
755.166	290.37
755.565	344.21
755.964	341.86
756.362	358.25
756.761	285.69
757.159	278.67
757.558	337.18
757.956	346.55
758.354	306.76
758.753	341.86
759.151	276.33
759.549	344.21
759.947	288.03
760.345	295.05
760.743	252.92
761.141	290.37
761.539	281.01
761.936	346.55
762.334	252.92
762.732	334.84
763.129	278.67
763.527	231.86
763.924	259.95
764.322	325.48
764.719	318.46
