Data from Al_FLMS009871__1071__16-27-03-811.txt Node

Date: Fri Mar 08 16:27:03 CST 2024
User: pe5414po
Spectrometer: FLMS00987
Trigger mode: 0
Integration Time (sec): 1.000000E-1
Scans to average: 1
Electric dark correction enabled: true
Nonlinearity correction enabled: false
Boxcar width: 0
XAxis mode: Wavelengths
Number of Pixels in Spectrum: 2048
>>>>>Begin Spectral Data<<<<<
188.938	-78.12
189.409	-78.12
189.879	-78.12
190.349	-57.05
190.819	-92.16
191.29	-50.03
191.76	-80.46
192.23	-134.29
192.7	-115.56
193.17	-38.33
193.64	-92.16
194.109	-19.6
194.579	-68.75
195.049	24.87
195.519	29.55
195.988	106.79
196.458	113.81
196.927	38.91
197.397	132.53
197.866	88.06
198.336	64.66
198.805	148.92
199.274	158.28
199.744	200.41
200.213	228.49
200.682	198.07
201.151	235.52
201.62	263.6
202.089	223.81
202.558	251.9
203.027	312.75
203.495	251.9
203.964	289.35
204.433	226.15
204.902	254.24
205.37	308.07
205.839	324.46
206.307	305.73
206.776	326.8
207.244	284.67
207.712	291.69
208.181	301.05
208.649	277.65
209.117	277.65
209.585	317.44
210.053	270.62
210.521	261.26
210.989	277.65
211.457	357.22
211.925	310.41
212.393	137.21
212.861	268.28
213.328	301.05
213.796	303.39
214.264	303.39
214.731	272.96
215.199	268.28
215.666	247.22
216.133	261.26
216.601	242.54
217.068	331.48
217.535	277.65
218.003	289.35
218.47	315.09
218.937	240.2
219.404	317.44
219.871	287.01
220.338	310.41
220.805	319.78
221.271	235.52
221.738	258.92
222.205	315.09
222.671	256.58
223.138	251.9
223.605	284.67
224.071	268.28
224.538	268.28
225.004	265.94
225.47	268.28
225.937	209.77
226.403	305.73
226.869	272.96
227.335	247.22
227.801	198.07
228.267	284.67
228.733	221.47
229.199	256.58
229.665	312.75
230.131	284.67
230.597	289.35
231.062	249.56
231.528	233.18
231.994	382.97
232.459	251.9
232.925	291.69
233.39	244.88
233.856	230.84
234.321	296.37
234.786	282.33
235.252	294.03
235.717	237.86
236.182	258.92
236.647	268.28
237.112	261.26
237.577	219.13
238.042	279.99
238.507	291.69
238.972	296.37
239.436	254.24
239.901	303.39
240.366	333.82
240.83	251.9
241.295	315.09
241.76	289.35
242.224	256.58
242.688	301.05
243.153	305.73
243.617	296.37
244.081	272.96
244.545	270.62
245.01	247.22
245.474	268.28
245.938	296.37
246.402	298.71
246.866	277.65
247.33	308.07
247.793	305.73
248.257	282.33
248.721	287.01
249.185	230.84
249.648	315.09
250.112	263.6
250.575	284.67
251.039	296.37
251.502	277.65
251.965	235.52
252.429	326.8
252.892	289.35
253.355	357.22
253.818	305.73
254.281	303.39
254.744	282.33
255.207	315.09
255.67	289.35
256.133	329.14
256.596	317.44
257.059	322.12
257.522	338.5
257.984	282.33
258.447	261.26
258.909	329.14
259.372	294.03
259.834	279.99
260.297	270.62
260.759	249.56
261.221	284.67
261.684	279.99
262.146	357.22
262.608	319.78
263.07	319.78
263.532	256.58
263.994	291.69
264.456	289.35
264.918	294.03
265.38	265.94
265.842	251.9
266.303	284.67
266.765	329.14
267.227	279.99
267.688	228.49
268.15	296.37
268.611	336.16
269.072	228.49
269.534	357.22
269.995	284.67
270.456	296.37
270.918	333.82
271.379	326.8
271.84	256.58
272.301	354.88
272.762	235.52
273.223	315.09
273.684	338.5
274.144	303.39
274.605	305.73
275.066	312.75
275.527	338.5
275.987	303.39
276.448	312.75
276.908	272.96
277.369	322.12
277.829	294.03
278.289	336.16
278.75	303.39
279.21	303.39
279.67	270.62
280.13	242.54
280.59	287.01
281.05	223.81
281.51	317.44
281.97	268.28
282.43	291.69
282.89	258.92
283.35	343.18
283.809	258.92
284.269	254.24
284.729	322.12
285.188	272.96
285.648	263.6
286.107	305.73
286.567	340.84
287.026	378.29
287.485	322.12
287.944	303.39
288.404	305.73
288.863	265.94
289.322	265.94
289.781	265.94
290.24	279.99
290.699	324.46
291.158	303.39
291.616	312.75
292.075	312.75
292.534	324.46
292.992	272.96
293.451	303.39
293.91	261.26
294.368	270.62
294.827	315.09
295.285	354.88
295.743	256.58
296.202	277.65
296.66	244.88
297.118	301.05
297.576	287.01
298.034	331.48
298.492	296.37
298.95	237.86
299.408	322.12
299.866	258.92
300.324	261.26
300.781	371.27
301.239	303.39
301.697	279.99
302.154	324.46
302.612	296.37
303.069	357.22
303.527	368.93
303.984	291.69
304.441	333.82
304.899	296.37
305.356	340.84
305.813	336.16
306.27	303.39
306.727	315.09
307.184	366.59
307.641	322.12
308.098	291.69
308.555	205.09
309.012	277.65
309.468	303.39
309.925	350.2
310.382	261.26
310.838	305.73
311.295	296.37
311.751	415.74
312.208	294.03
312.664	324.46
313.12	296.37
313.577	333.82
314.033	308.07
314.489	308.07
314.945	333.82
315.401	235.52
315.857	319.78
316.313	352.54
316.769	371.27
317.225	333.82
317.681	359.56
318.136	382.97
318.592	361.91
319.048	333.82
319.503	338.5
319.959	317.44
320.414	291.69
320.869	324.46
321.325	305.73
321.78	308.07
322.235	324.46
322.691	303.39
323.146	296.37
323.601	287.01
324.056	338.5
324.511	319.78
324.966	303.39
325.421	305.73
325.875	371.27
326.33	350.2
326.785	317.44
327.24	251.9
327.694	240.2
328.149	329.14
328.603	303.39
329.058	343.18
329.512	343.18
329.966	310.41
330.421	251.9
330.875	308.07
331.329	413.4
331.783	296.37
332.237	359.56
332.691	315.09
333.145	329.14
333.599	368.93
334.053	329.14
334.507	382.97
334.96	258.92
335.414	251.9
335.868	364.25
336.321	359.56
336.775	310.41
337.228	319.78
337.682	343.18
338.135	361.91
338.588	298.71
339.042	331.48
339.495	298.71
339.948	338.5
340.401	291.69
340.854	329.14
341.307	322.12
341.76	385.31
342.213	298.71
342.666	298.71
343.119	270.62
343.571	340.84
344.024	298.71
344.477	315.09
344.929	352.54
345.382	324.46
345.834	331.48
346.287	315.09
346.739	249.56
347.191	324.46
347.644	352.54
348.096	364.25
348.548	305.73
349	287.01
349.452	301.05
349.904	315.09
350.356	319.78
350.808	315.09
351.26	357.22
351.711	294.03
352.163	361.91
352.615	298.71
353.066	324.46
353.518	317.44
353.969	331.48
354.421	338.5
354.872	324.46
355.324	310.41
355.775	305.73
356.226	265.94
356.677	275.31
357.128	268.28
357.579	294.03
358.03	347.86
358.481	350.2
358.932	359.56
359.383	352.54
359.834	340.84
360.285	336.16
360.735	326.8
361.186	345.52
361.637	329.14
362.087	303.39
362.538	315.09
362.988	352.54
363.438	319.78
363.889	308.07
364.339	336.16
364.789	319.78
365.239	329.14
365.689	298.71
366.139	249.56
366.589	329.14
367.039	322.12
367.489	350.2
367.939	394.67
368.389	380.63
368.839	331.48
369.288	326.8
369.738	368.93
370.187	326.8
370.637	319.78
371.086	298.71
371.536	315.09
371.985	279.99
372.434	347.86
372.884	317.44
373.333	347.86
373.782	338.5
374.231	413.4
374.68	294.03
375.129	324.46
375.578	303.39
376.027	279.99
376.475	312.75
376.924	354.88
377.373	315.09
377.822	312.75
378.27	287.01
378.719	340.84
379.167	352.54
379.616	361.91
380.064	317.44
380.512	361.91
380.961	364.25
381.409	282.33
381.857	268.28
382.305	249.56
382.753	282.33
383.201	371.27
383.649	359.56
384.097	343.18
384.545	310.41
384.992	317.44
385.44	319.78
385.888	429.78
386.335	333.82
386.783	326.8
387.231	357.22
387.678	340.84
388.125	301.05
388.573	296.37
389.02	361.91
389.467	331.48
389.914	308.07
390.362	340.84
390.809	347.86
391.256	277.65
391.703	284.67
392.15	375.95
392.596	368.93
393.043	275.31
393.49	315.09
393.937	336.16
394.383	420.42
394.83	336.16
395.276	411.06
395.723	315.09
396.169	319.78
396.616	315.09
397.062	287.01
397.508	305.73
397.954	296.37
398.401	279.99
398.847	315.09
399.293	310.41
399.739	357.22
400.185	324.46
400.631	291.69
401.076	319.78
401.522	265.94
401.968	322.12
402.414	287.01
402.859	294.03
403.305	242.54
403.75	326.8
404.196	345.52
404.641	319.78
405.086	322.12
405.532	329.14
405.977	324.46
406.422	319.78
406.867	322.12
407.312	326.8
407.757	284.67
408.202	329.14
408.647	350.2
409.092	326.8
409.537	380.63
409.982	322.12
410.426	247.22
410.871	303.39
411.316	343.18
411.76	301.05
412.205	317.44
412.649	294.03
413.093	308.07
413.538	319.78
413.982	317.44
414.426	399.35
414.87	298.71
415.314	343.18
415.758	270.62
416.202	357.22
416.646	375.95
417.09	338.5
417.534	235.52
417.978	347.86
418.421	298.71
418.865	326.8
419.309	279.99
419.752	368.93
420.196	345.52
420.639	380.63
421.083	333.82
421.526	272.96
421.969	345.52
422.412	305.73
422.856	296.37
423.299	352.54
423.742	336.16
424.185	319.78
424.628	361.91
425.071	366.59
425.513	338.5
425.956	343.18
426.399	326.8
426.842	305.73
427.284	312.75
427.727	331.48
428.169	343.18
428.612	343.18
429.054	343.18
429.497	317.44
429.939	340.84
430.381	329.14
430.823	315.09
431.265	212.11
431.707	291.69
432.149	312.75
432.591	317.44
433.033	329.14
433.475	301.05
433.917	317.44
434.359	265.94
434.8	287.01
435.242	312.75
435.684	303.39
436.125	333.82
436.567	373.61
437.008	380.63
437.449	373.61
437.891	331.48
438.332	287.01
438.773	324.46
439.214	347.86
439.656	324.46
440.097	317.44
440.538	319.78
440.978	333.82
441.419	312.75
441.86	333.82
442.301	338.5
442.742	368.93
443.182	329.14
443.623	284.67
444.063	282.33
444.504	308.07
444.944	326.8
445.385	303.39
445.825	322.12
446.265	298.71
446.706	268.28
447.146	347.86
447.586	289.35
448.026	312.75
448.466	319.78
448.906	291.69
449.346	312.75
449.786	338.5
450.225	303.39
450.665	322.12
451.105	354.88
451.544	336.16
451.984	289.35
452.424	284.67
452.863	279.99
453.302	235.52
453.742	338.5
454.181	333.82
454.62	251.9
455.059	338.5
455.499	308.07
455.938	322.12
456.377	352.54
456.816	301.05
457.254	275.31
457.693	315.09
458.132	340.84
458.571	258.92
459.01	312.75
459.448	256.58
459.887	329.14
460.325	331.48
460.764	315.09
461.202	373.61
461.641	354.88
462.079	298.71
462.517	294.03
462.955	343.18
463.393	338.5
463.832	329.14
464.27	333.82
464.708	368.93
465.145	272.96
465.583	326.8
466.021	289.35
466.459	361.91
466.897	322.12
467.334	284.67
467.772	291.69
468.209	324.46
468.647	333.82
469.084	275.31
469.522	289.35
469.959	312.75
470.396	315.09
470.833	324.46
471.271	373.61
471.708	319.78
472.145	345.52
472.582	338.5
473.019	333.82
473.456	301.05
473.892	256.58
474.329	357.22
474.766	350.2
475.202	319.78
475.639	354.88
476.076	354.88
476.512	336.16
476.949	345.52
477.385	382.97
477.821	352.54
478.258	333.82
478.694	301.05
479.13	357.22
479.566	352.54
480.002	268.28
480.438	263.6
480.874	345.52
481.31	298.71
481.746	347.86
482.181	315.09
482.617	298.71
483.053	371.27
483.488	329.14
483.924	317.44
484.36	347.86
484.795	301.05
485.23	371.27
485.666	345.52
486.101	296.37
486.536	322.12
486.971	322.12
487.407	394.67
487.842	338.5
488.277	324.46
488.712	326.8
489.146	368.93
489.581	298.71
490.016	303.39
490.451	310.41
490.885	329.14
491.32	237.86
491.755	329.14
492.189	322.12
492.624	308.07
493.058	317.44
493.492	256.58
493.927	345.52
494.361	340.84
494.795	319.78
495.229	268.28
495.663	345.52
496.097	361.91
496.531	270.62
496.965	298.71
497.399	329.14
497.833	324.46
498.266	343.18
498.7	394.67
499.134	338.5
499.567	336.16
500.001	329.14
500.434	333.82
500.868	331.48
501.301	378.29
501.734	310.41
502.168	298.71
502.601	352.54
503.034	331.48
503.467	331.48
503.9	382.97
504.333	272.96
504.766	319.78
505.199	345.52
505.632	298.71
506.064	282.33
506.497	331.48
506.93	251.9
507.362	282.33
507.795	329.14
508.227	368.93
508.66	354.88
509.092	301.05
509.524	303.39
509.956	308.07
510.389	308.07
510.821	329.14
511.253	289.35
511.685	326.8
512.117	296.37
512.549	347.86
512.981	373.61
513.412	319.78
513.844	357.22
514.276	291.69
514.707	340.84
515.139	352.54
515.571	303.39
516.002	279.99
516.433	331.48
516.865	340.84
517.296	319.78
517.727	382.97
518.159	324.46
518.59	340.84
519.021	331.48
519.452	294.03
519.883	389.99
520.314	301.05
520.744	340.84
521.175	331.48
521.606	289.35
522.037	315.09
522.467	322.12
522.898	317.44
523.328	350.2
523.759	333.82
524.189	338.5
524.62	242.54
525.05	347.86
525.48	364.25
525.91	343.18
526.341	331.48
526.771	296.37
527.201	308.07
527.631	296.37
528.061	357.22
528.49	336.16
528.92	305.73
529.35	249.56
529.78	366.59
530.209	275.31
530.639	333.82
531.068	352.54
531.498	343.18
531.927	322.12
532.357	284.67
532.786	333.82
533.215	324.46
533.644	371.27
534.074	317.44
534.503	298.71
534.932	305.73
535.361	329.14
535.79	310.41
536.218	319.78
536.647	366.59
537.076	305.73
537.505	364.25
537.933	368.93
538.362	331.48
538.79	336.16
539.219	277.65
539.647	352.54
540.076	322.12
540.504	298.71
540.932	380.63
541.36	343.18
541.788	315.09
542.217	322.12
542.645	296.37
543.073	343.18
543.5	338.5
543.928	366.59
544.356	265.94
544.784	287.01
545.211	343.18
545.639	326.8
546.067	294.03
546.494	270.62
546.922	333.82
547.349	282.33
547.776	324.46
548.204	350.2
548.631	361.91
549.058	315.09
549.485	308.07
549.912	357.22
550.339	359.56
550.766	333.82
551.193	357.22
551.62	277.65
552.047	359.56
552.474	331.48
552.9	272.96
553.327	326.8
553.754	315.09
554.18	317.44
554.607	317.44
555.033	326.8
555.459	268.28
555.886	310.41
556.312	310.41
556.738	310.41
557.164	366.59
557.59	268.28
558.016	401.69
558.442	322.12
558.868	326.8
559.294	382.97
559.72	296.37
560.145	347.86
560.571	312.75
560.997	315.09
561.422	305.73
561.848	338.5
562.273	326.8
562.699	336.16
563.124	230.84
563.549	333.82
563.974	294.03
564.4	357.22
564.825	347.86
565.25	315.09
565.675	324.46
566.1	364.25
566.525	275.31
566.95	289.35
567.374	324.46
567.799	301.05
568.224	263.6
568.648	312.75
569.073	287.01
569.497	296.37
569.922	298.71
570.346	322.12
570.771	411.06
571.195	301.05
571.619	338.5
572.043	338.5
572.467	317.44
572.891	319.78
573.315	392.33
573.739	317.44
574.163	308.07
574.587	352.54
575.011	373.61
575.435	333.82
575.858	324.46
576.282	329.14
576.705	235.52
577.129	282.33
577.552	343.18
577.976	324.46
578.399	373.61
578.822	317.44
579.245	326.8
579.669	333.82
580.092	263.6
580.515	343.18
580.938	254.24
581.361	343.18
581.784	277.65
582.206	322.12
582.629	399.35
583.052	359.56
583.474	361.91
583.897	291.69
584.32	256.58
584.742	375.95
585.165	303.39
585.587	305.73
586.009	317.44
586.431	354.88
586.854	308.07
587.276	364.25
587.698	315.09
588.12	291.69
588.542	291.69
588.964	319.78
589.386	296.37
589.807	301.05
590.229	345.52
590.651	336.16
591.073	350.2
591.494	272.96
591.916	284.67
592.337	305.73
592.759	277.65
593.18	317.44
593.601	312.75
594.022	298.71
594.444	310.41
594.865	343.18
595.286	343.18
595.707	298.71
596.128	263.6
596.549	284.67
596.97	244.88
597.39	371.27
597.811	352.54
598.232	317.44
598.652	364.25
599.073	303.39
599.494	343.18
599.914	338.5
600.334	291.69
600.755	268.28
601.175	336.16
601.595	240.2
602.015	279.99
602.436	308.07
602.856	436.8
603.276	291.69
603.696	371.27
604.115	324.46
604.535	319.78
604.955	305.73
605.375	298.71
605.794	333.82
606.214	352.54
606.634	298.71
607.053	389.99
607.473	418.08
607.892	319.78
608.311	343.18
608.731	282.33
609.15	296.37
609.569	301.05
609.988	340.84
610.407	268.28
610.826	317.44
611.245	301.05
611.664	340.84
612.083	284.67
612.501	305.73
612.92	357.22
613.339	294.03
613.757	322.12
614.176	275.31
614.594	291.69
615.013	401.69
615.431	350.2
615.85	340.84
616.268	340.84
616.686	275.31
617.104	315.09
617.522	303.39
617.94	345.52
618.358	336.16
618.776	336.16
619.194	301.05
619.612	350.2
620.03	277.65
620.447	329.14
620.865	315.09
621.282	289.35
621.7	317.44
622.117	282.33
622.535	303.39
622.952	315.09
623.369	329.14
623.787	310.41
624.204	326.8
624.621	331.48
625.038	310.41
625.455	270.62
625.872	359.56
626.289	305.73
626.706	322.12
627.123	317.44
627.539	291.69
627.956	317.44
628.373	333.82
628.789	317.44
629.206	347.86
629.622	312.75
630.038	361.91
630.455	310.41
630.871	277.65
631.287	279.99
631.703	345.52
632.12	357.22
632.536	294.03
632.952	319.78
633.368	329.14
633.783	347.86
634.199	350.2
634.615	303.39
635.031	368.93
635.446	336.16
635.862	289.35
636.277	364.25
636.693	289.35
637.108	317.44
637.524	413.4
637.939	333.82
638.354	315.09
638.77	277.65
639.185	310.41
639.6	265.94
640.015	343.18
640.43	347.86
640.845	399.35
641.259	308.07
641.674	326.8
642.089	277.65
642.504	322.12
642.918	385.31
643.333	329.14
643.747	375.95
644.162	319.78
644.576	354.88
644.991	345.52
645.405	308.07
645.819	275.31
646.233	294.03
646.647	371.27
647.061	272.96
647.475	366.59
647.889	373.61
648.303	261.26
648.717	296.37
649.131	275.31
649.545	340.84
649.958	277.65
650.372	310.41
650.785	343.18
651.199	340.84
651.612	270.62
652.026	277.65
652.439	373.61
652.852	329.14
653.266	303.39
653.679	315.09
654.092	277.65
654.505	324.46
654.918	345.52
655.331	298.71
655.744	366.59
656.156	272.96
656.569	366.59
656.982	366.59
657.394	361.91
657.807	354.88
658.22	364.25
658.632	345.52
659.044	312.75
659.457	347.86
659.869	287.01
660.281	324.46
660.693	277.65
661.106	340.84
661.518	261.26
661.93	268.28
662.342	343.18
662.754	319.78
663.165	354.88
663.577	371.27
663.989	366.59
664.401	282.33
664.812	373.61
665.224	305.73
665.635	343.18
666.047	331.48
666.458	354.88
666.869	333.82
667.281	315.09
667.692	263.6
668.103	270.62
668.514	305.73
668.925	310.41
669.336	333.82
669.747	289.35
670.158	361.91
670.569	301.05
670.979	303.39
671.39	287.01
671.801	305.73
672.211	357.22
672.622	322.12
673.032	378.29
673.443	315.09
673.853	319.78
674.263	326.8
674.674	261.26
675.084	354.88
675.494	385.31
675.904	340.84
676.314	305.73
676.724	315.09
677.134	366.59
677.544	397.01
677.953	331.48
678.363	338.5
678.773	338.5
679.182	317.44
679.592	298.71
680.001	345.52
680.411	378.29
680.82	317.44
681.23	329.14
681.639	324.46
682.048	343.18
682.457	326.8
682.866	329.14
683.275	308.07
683.684	329.14
684.093	315.09
684.502	380.63
684.911	289.35
685.32	385.31
685.728	317.44
686.137	310.41
686.546	361.91
686.954	287.01
687.363	303.39
687.771	263.6
688.179	364.25
688.588	287.01
688.996	324.46
689.404	336.16
689.812	294.03
690.22	277.65
690.628	258.92
691.036	291.69
691.444	333.82
691.852	317.44
692.26	329.14
692.667	315.09
693.075	270.62
693.483	272.96
693.89	315.09
694.298	382.97
694.705	282.33
695.112	324.46
695.52	354.88
695.927	329.14
696.334	310.41
696.741	345.52
697.148	272.96
697.555	324.46
697.962	279.99
698.369	284.67
698.776	333.82
699.183	350.2
699.59	310.41
699.996	375.95
700.403	247.22
700.81	319.78
701.216	247.22
701.623	340.84
702.029	294.03
702.435	322.12
702.842	368.93
703.248	294.03
703.654	303.39
704.06	368.93
704.466	284.67
704.872	359.56
705.278	261.26
705.684	397.01
706.09	322.12
706.496	345.52
706.901	284.67
707.307	282.33
707.712	275.31
708.118	392.33
708.523	338.5
708.929	317.44
709.334	322.12
709.74	331.48
710.145	301.05
710.55	340.84
710.955	310.41
711.36	265.94
711.765	256.58
712.17	359.56
712.575	256.58
712.98	790.22
713.385	322.12
713.789	294.03
714.194	364.25
714.599	340.84
715.003	294.03
715.408	368.93
715.812	265.94
716.217	291.69
716.621	317.44
717.025	289.35
717.429	275.31
717.833	270.62
718.238	261.26
718.642	272.96
719.046	296.37
719.449	284.67
719.853	291.69
720.257	282.33
720.661	350.2
721.065	347.86
721.468	397.01
721.872	359.56
722.275	294.03
722.679	312.75
723.082	373.61
723.485	303.39
723.889	322.12
724.292	261.26
724.695	397.01
725.098	301.05
725.501	345.52
725.904	345.52
726.307	301.05
726.71	303.39
727.113	359.56
727.516	263.6
727.918	347.86
728.321	308.07
728.724	322.12
729.126	345.52
729.529	303.39
729.931	312.75
730.333	375.95
730.736	340.84
731.138	301.05
731.54	322.12
731.942	364.25
732.344	303.39
732.746	256.58
733.148	294.03
733.55	303.39
733.952	319.78
734.354	359.56
734.756	298.71
735.157	322.12
735.559	345.52
735.96	345.52
736.362	331.48
736.763	375.95
737.165	308.07
737.566	310.41
737.967	305.73
738.368	298.71
738.77	312.75
739.171	305.73
739.572	312.75
739.973	319.78
740.374	338.5
740.774	279.99
741.175	338.5
741.576	275.31
741.977	345.52
742.377	312.75
742.778	310.41
743.178	368.93
743.579	373.61
743.979	310.41
744.379	251.9
744.78	303.39
745.18	303.39
745.58	333.82
745.98	303.39
746.38	319.78
746.78	326.8
747.18	294.03
747.58	347.86
747.98	284.67
748.38	242.54
748.779	329.14
749.179	298.71
749.578	326.8
749.978	294.03
750.377	272.96
750.777	275.31
751.176	329.14
751.575	338.5
751.975	317.44
752.374	354.88
752.773	340.84
753.172	308.07
753.571	289.35
753.97	357.22
754.369	310.41
754.768	378.29
755.166	329.14
755.565	282.33
755.964	303.39
756.362	359.56
756.761	326.8
757.159	289.35
757.558	331.48
757.956	382.97
758.354	350.2
758.753	338.5
759.151	305.73
759.549	345.52
759.947	347.86
760.345	322.12
760.743	289.35
761.141	277.65
761.539	301.05
761.936	350.2
762.334	303.39
762.732	263.6
763.129	361.91
763.527	289.35
763.924	340.84
764.322	350.2
