Data from Al_FLMS009871__1061__16-27-02-811.txt Node

Date: Fri Mar 08 16:27:02 CST 2024
User: pe5414po
Spectrometer: FLMS00987
Trigger mode: 0
Integration Time (sec): 1.000000E-1
Scans to average: 1
Electric dark correction enabled: true
Nonlinearity correction enabled: false
Boxcar width: 0
XAxis mode: Wavelengths
Number of Pixels in Spectrum: 2048
>>>>>Begin Spectral Data<<<<<
188.938	-55.15
189.409	-55.15
189.879	-55.15
190.349	-153.45
190.819	-123.02
191.29	-66.85
191.76	-97.28
192.23	-41.11
192.7	-31.74
193.17	-94.94
193.64	-62.17
194.109	10.39
194.579	-36.42
195.049	-50.47
195.519	-71.53
195.988	57.2
196.458	-1.32
196.927	78.26
197.397	169.54
197.866	132.09
198.336	106.35
198.805	82.94
199.274	197.63
199.744	293.59
200.213	232.74
200.682	178.9
201.151	167.2
201.62	195.29
202.089	202.31
202.558	214.01
203.027	223.37
203.495	279.55
203.964	181.25
204.433	253.8
204.902	256.14
205.37	199.97
205.839	251.46
206.307	352.1
206.776	317
207.244	277.21
207.712	267.85
208.181	302.95
208.649	333.38
209.117	274.87
209.585	277.21
210.053	249.12
210.521	295.93
210.989	277.21
211.457	263.16
211.925	314.66
212.393	281.89
212.861	258.48
213.328	314.66
213.796	270.19
214.264	216.35
214.731	265.5
215.199	272.53
215.666	305.29
216.133	237.42
216.601	246.78
217.068	272.53
217.535	307.63
218.003	211.67
218.47	216.35
218.937	267.85
219.404	199.97
219.871	293.59
220.338	249.12
220.805	228.06
221.271	267.85
221.738	206.99
222.205	239.76
222.671	225.72
223.138	347.42
223.605	211.67
224.071	218.69
224.538	263.16
225.004	199.97
225.47	274.87
225.937	244.44
226.403	230.4
226.869	279.55
227.335	263.16
227.801	291.25
228.267	199.97
228.733	239.76
229.199	260.82
229.665	312.32
230.131	326.36
230.597	239.76
231.062	267.85
231.528	312.32
231.994	300.61
232.459	246.78
232.925	225.72
233.39	230.4
233.856	258.48
234.321	214.01
234.786	239.76
235.252	302.95
235.717	258.48
236.182	183.59
236.647	256.14
237.112	253.8
237.577	277.21
238.042	216.35
238.507	263.16
238.972	328.7
239.436	312.32
239.901	211.67
240.366	335.72
240.83	242.1
241.295	237.42
241.76	206.99
242.224	263.16
242.688	331.04
243.153	251.46
243.617	206.99
244.081	293.59
244.545	265.5
245.01	267.85
245.474	302.95
245.938	242.1
246.402	230.4
246.866	258.48
247.33	281.89
247.793	286.57
248.257	279.55
248.721	267.85
249.185	235.08
249.648	214.01
250.112	300.61
250.575	237.42
251.039	253.8
251.502	265.5
251.965	256.14
252.429	246.78
252.892	277.21
253.355	246.78
253.818	239.76
254.281	249.12
254.744	281.89
255.207	291.25
255.67	277.21
256.133	300.61
256.596	305.29
257.059	237.42
257.522	302.95
257.984	305.29
258.447	335.72
258.909	328.7
259.372	263.16
259.834	277.21
260.297	328.7
260.759	242.1
261.221	293.59
261.684	214.01
262.146	221.03
262.608	242.1
263.07	312.32
263.532	230.4
263.994	237.42
264.456	286.57
264.918	326.36
265.38	244.44
265.842	305.29
266.303	258.48
266.765	338.06
267.227	284.23
267.688	307.63
268.15	249.12
268.611	319.34
269.072	288.91
269.534	300.61
269.995	232.74
270.456	258.48
270.918	302.95
271.379	237.42
271.84	256.14
272.301	260.82
272.762	281.89
273.223	291.25
273.684	267.85
274.144	263.16
274.605	293.59
275.066	288.91
275.527	307.63
275.987	324.02
276.448	373.17
276.908	258.48
277.369	209.33
277.829	307.63
278.289	309.97
278.75	298.27
279.21	342.74
279.67	281.89
280.13	321.68
280.59	242.1
281.05	242.1
281.51	300.61
281.97	256.14
282.43	338.06
282.89	260.82
283.35	270.19
283.809	326.36
284.269	305.29
284.729	345.08
285.188	298.27
285.648	293.59
286.107	237.42
286.567	295.93
287.026	270.19
287.485	321.68
287.944	230.4
288.404	197.63
288.863	253.8
289.322	317
289.781	361.47
290.24	272.53
290.699	307.63
291.158	293.59
291.616	279.55
292.075	291.25
292.534	312.32
292.992	302.95
293.451	309.97
293.91	284.23
294.368	307.63
294.827	267.85
295.285	211.67
295.743	274.87
296.202	235.08
296.66	288.91
297.118	281.89
297.576	211.67
298.034	333.38
298.492	312.32
298.95	251.46
299.408	251.46
299.866	263.16
300.324	286.57
300.781	249.12
301.239	340.4
301.697	293.59
302.154	246.78
302.612	286.57
303.069	244.44
303.527	277.21
303.984	295.93
304.441	263.16
304.899	263.16
305.356	246.78
305.813	272.53
306.27	300.61
306.727	279.55
307.184	307.63
307.641	291.25
308.098	251.46
308.555	345.08
309.012	279.55
309.468	288.91
309.925	298.27
310.382	288.91
310.838	288.91
311.295	260.82
311.751	293.59
312.208	265.5
312.664	293.59
313.12	251.46
313.577	256.14
314.033	305.29
314.489	249.12
314.945	300.61
315.401	274.87
315.857	267.85
316.313	239.76
316.769	347.42
317.225	274.87
317.681	230.4
318.136	295.93
318.592	230.4
319.048	265.5
319.503	314.66
319.959	324.02
320.414	249.12
320.869	295.93
321.325	277.21
321.78	281.89
322.235	235.08
322.691	309.97
323.146	291.25
323.601	286.57
324.056	312.32
324.511	298.27
324.966	232.74
325.421	274.87
325.875	286.57
326.33	291.25
326.785	214.01
327.24	274.87
327.694	305.29
328.149	366.15
328.603	340.4
329.058	293.59
329.512	230.4
329.966	333.38
330.421	302.95
330.875	286.57
331.329	305.29
331.783	253.8
332.237	281.89
332.691	291.25
333.145	314.66
333.599	309.97
334.053	373.17
334.507	284.23
334.96	326.36
335.414	324.02
335.868	298.27
336.321	312.32
336.775	319.34
337.228	312.32
337.682	319.34
338.135	331.04
338.588	352.1
339.042	265.5
339.495	235.08
339.948	284.23
340.401	258.48
340.854	324.02
341.307	286.57
341.76	288.91
342.213	272.53
342.666	244.44
343.119	235.08
343.571	230.4
344.024	265.5
344.477	209.33
344.929	293.59
345.382	251.46
345.834	300.61
346.287	356.79
346.739	281.89
347.191	272.53
347.644	195.29
348.096	307.63
348.548	284.23
349	298.27
349.452	335.72
349.904	293.59
350.356	284.23
350.808	300.61
351.26	312.32
351.711	345.08
352.163	244.44
352.615	291.25
353.066	302.95
353.518	281.89
353.969	260.82
354.421	279.55
354.872	246.78
355.324	244.44
355.775	288.91
356.226	298.27
356.677	209.33
357.128	333.38
357.579	331.04
358.03	293.59
358.481	298.27
358.932	324.02
359.383	305.29
359.834	230.4
360.285	281.89
360.735	265.5
361.186	333.38
361.637	225.72
362.087	277.21
362.538	326.36
362.988	347.42
363.438	361.47
363.889	284.23
364.339	253.8
364.789	279.55
365.239	321.68
365.689	389.55
366.139	319.34
366.589	345.08
367.039	345.08
367.489	300.61
367.939	314.66
368.389	288.91
368.839	274.87
369.288	293.59
369.738	307.63
370.187	309.97
370.637	321.68
371.086	277.21
371.536	267.85
371.985	349.76
372.434	326.36
372.884	295.93
373.333	286.57
373.782	338.06
374.231	277.21
374.68	288.91
375.129	314.66
375.578	338.06
376.027	302.95
376.475	291.25
376.924	298.27
377.373	305.29
377.822	270.19
378.27	333.38
378.719	279.55
379.167	293.59
379.616	267.85
380.064	223.37
380.512	314.66
380.961	260.82
381.409	253.8
381.857	277.21
382.305	279.55
382.753	267.85
383.201	256.14
383.649	284.23
384.097	295.93
384.545	288.91
384.992	253.8
385.44	281.89
385.888	272.53
386.335	319.34
386.783	302.95
387.231	312.32
387.678	302.95
388.125	317
388.573	335.72
389.02	309.97
389.467	267.85
389.914	277.21
390.362	349.76
390.809	326.36
391.256	340.4
391.703	286.57
392.15	277.21
392.596	309.97
393.043	246.78
393.49	319.34
393.937	286.57
394.383	319.34
394.83	317
395.276	309.97
395.723	274.87
396.169	333.38
396.616	345.08
397.062	288.91
397.508	354.44
397.954	309.97
398.401	291.25
398.847	298.27
399.293	317
399.739	279.55
400.185	288.91
400.631	279.55
401.076	284.23
401.522	340.4
401.968	307.63
402.414	260.82
402.859	359.13
403.305	319.34
403.75	309.97
404.196	251.46
404.641	302.95
405.086	272.53
405.532	298.27
405.977	279.55
406.422	359.13
406.867	281.89
407.312	307.63
407.757	377.85
408.202	274.87
408.647	286.57
409.092	302.95
409.537	349.76
409.982	295.93
410.426	305.29
410.871	319.34
411.316	338.06
411.76	314.66
412.205	272.53
412.649	324.02
413.093	377.85
413.538	340.4
413.982	338.06
414.426	270.19
414.87	295.93
415.314	286.57
415.758	309.97
416.202	298.27
416.646	274.87
417.09	314.66
417.534	267.85
417.978	232.74
418.421	288.91
418.865	267.85
419.309	324.02
419.752	352.1
420.196	293.59
420.639	345.08
421.083	319.34
421.526	333.38
421.969	324.02
422.412	328.7
422.856	321.68
423.299	317
423.742	291.25
424.185	309.97
424.628	368.49
425.071	272.53
425.513	284.23
425.956	279.55
426.399	331.04
426.842	291.25
427.284	307.63
427.727	328.7
428.169	223.37
428.612	267.85
429.054	279.55
429.497	345.08
429.939	274.87
430.381	307.63
430.823	300.61
431.265	274.87
431.707	307.63
432.149	314.66
432.591	284.23
433.033	307.63
433.475	267.85
433.917	345.08
434.359	235.08
434.8	258.48
435.242	288.91
435.684	328.7
436.125	288.91
436.567	195.29
437.008	249.12
437.449	354.44
437.891	274.87
438.332	317
438.773	293.59
439.214	258.48
439.656	293.59
440.097	342.74
440.538	321.68
440.978	277.21
441.419	333.38
441.86	338.06
442.301	249.12
442.742	286.57
443.182	295.93
443.623	291.25
444.063	368.49
444.504	305.29
444.944	295.93
445.385	314.66
445.825	345.08
446.265	380.19
446.706	309.97
447.146	352.1
447.586	291.25
448.026	270.19
448.466	300.61
448.906	265.5
449.346	328.7
449.786	302.95
450.225	340.4
450.665	331.04
451.105	324.02
451.544	354.44
451.984	286.57
452.424	305.29
452.863	281.89
453.302	272.53
453.742	302.95
454.181	305.29
454.62	300.61
455.059	293.59
455.499	270.19
455.938	352.1
456.377	338.06
456.816	345.08
457.254	263.16
457.693	256.14
458.132	272.53
458.571	270.19
459.01	331.04
459.448	242.1
459.887	333.38
460.325	326.36
460.764	274.87
461.202	309.97
461.641	302.95
462.079	314.66
462.517	274.87
462.955	281.89
463.393	359.13
463.832	384.87
464.27	333.38
464.708	314.66
465.145	298.27
465.583	263.16
466.021	270.19
466.459	286.57
466.897	281.89
467.334	326.36
467.772	312.32
468.209	246.78
468.647	277.21
469.084	265.5
469.522	242.1
469.959	309.97
470.396	281.89
470.833	328.7
471.271	328.7
471.708	340.4
472.145	326.36
472.582	270.19
473.019	331.04
473.456	288.91
473.892	338.06
474.329	293.59
474.766	274.87
475.202	281.89
475.639	270.19
476.076	354.44
476.512	249.12
476.949	221.03
477.385	331.04
477.821	307.63
478.258	298.27
478.694	295.93
479.13	319.34
479.566	319.34
480.002	335.72
480.438	340.4
480.874	305.29
481.31	270.19
481.746	368.49
482.181	377.85
482.617	305.29
483.053	267.85
483.488	312.32
483.924	352.1
484.36	300.61
484.795	389.55
485.23	300.61
485.666	272.53
486.101	291.25
486.536	345.08
486.971	347.42
487.407	317
487.842	279.55
488.277	293.59
488.712	340.4
489.146	321.68
489.581	288.91
490.016	279.55
490.451	328.7
490.885	324.02
491.32	295.93
491.755	321.68
492.189	382.53
492.624	265.5
493.058	295.93
493.492	221.03
493.927	347.42
494.361	284.23
494.795	319.34
495.229	324.02
495.663	328.7
496.097	302.95
496.531	352.1
496.965	274.87
497.399	324.02
497.833	326.36
498.266	338.06
498.7	253.8
499.134	300.61
499.567	347.42
500.001	326.36
500.434	326.36
500.868	391.89
501.301	326.36
501.734	335.72
502.168	284.23
502.601	359.13
503.034	298.27
503.467	307.63
503.9	349.76
504.333	309.97
504.766	347.42
505.199	345.08
505.632	307.63
506.064	277.21
506.497	298.27
506.93	377.85
507.362	307.63
507.795	270.19
508.227	291.25
508.66	284.23
509.092	333.38
509.524	368.49
509.956	293.59
510.389	274.87
510.821	305.29
511.253	324.02
511.685	272.53
512.117	281.89
512.549	286.57
512.981	338.06
513.412	314.66
513.844	293.59
514.276	274.87
514.707	309.97
515.139	302.95
515.571	338.06
516.002	305.29
516.433	281.89
516.865	279.55
517.296	333.38
517.727	288.91
518.159	300.61
518.59	279.55
519.021	242.1
519.452	183.59
519.883	312.32
520.314	312.32
520.744	265.5
521.175	317
521.606	328.7
522.037	314.66
522.467	361.47
522.898	309.97
523.328	331.04
523.759	260.82
524.189	300.61
524.62	202.31
525.05	401.26
525.48	244.44
525.91	326.36
526.341	302.95
526.771	295.93
527.201	312.32
527.631	340.4
528.061	242.1
528.49	267.85
528.92	356.79
529.35	281.89
529.78	356.79
530.209	377.85
530.639	319.34
531.068	307.63
531.498	349.76
531.927	326.36
532.357	314.66
532.786	284.23
533.215	298.27
533.644	333.38
534.074	246.78
534.503	342.74
534.932	370.83
535.361	373.17
535.79	225.72
536.218	338.06
536.647	403.6
537.076	305.29
537.505	307.63
537.933	321.68
538.362	363.81
538.79	274.87
539.219	291.25
539.647	382.53
540.076	333.38
540.504	321.68
540.932	305.29
541.36	256.14
541.788	317
542.217	352.1
542.645	277.21
543.073	277.21
543.5	286.57
543.928	270.19
544.356	286.57
544.784	291.25
545.211	291.25
545.639	328.7
546.067	321.68
546.494	347.42
546.922	274.87
547.349	260.82
547.776	288.91
548.204	263.16
548.631	335.72
549.058	370.83
549.485	293.59
549.912	307.63
550.339	307.63
550.766	246.78
551.193	291.25
551.62	305.29
552.047	349.76
552.474	307.63
552.9	324.02
553.327	298.27
553.754	314.66
554.18	291.25
554.607	340.4
555.033	291.25
555.459	232.74
555.886	324.02
556.312	354.44
556.738	216.35
557.164	302.95
557.59	242.1
558.016	258.48
558.442	270.19
558.868	288.91
559.294	277.21
559.72	298.27
560.145	295.93
560.571	302.95
560.997	317
561.422	342.74
561.848	312.32
562.273	324.02
562.699	394.23
563.124	307.63
563.549	347.42
563.974	272.53
564.4	319.34
564.825	340.4
565.25	331.04
565.675	302.95
566.1	265.5
566.525	331.04
566.95	352.1
567.374	235.08
567.799	291.25
568.224	342.74
568.648	305.29
569.073	258.48
569.497	335.72
569.922	228.06
570.346	342.74
570.771	249.12
571.195	342.74
571.619	242.1
572.043	281.89
572.467	375.51
572.891	328.7
573.315	277.21
573.739	284.23
574.163	260.82
574.587	307.63
575.011	373.17
575.435	324.02
575.858	305.29
576.282	302.95
576.705	270.19
577.129	307.63
577.552	305.29
577.976	263.16
578.399	338.06
578.822	317
579.245	302.95
579.669	314.66
580.092	260.82
580.515	274.87
580.938	288.91
581.361	328.7
581.784	281.89
582.206	302.95
582.629	319.34
583.052	270.19
583.474	321.68
583.897	298.27
584.32	281.89
584.742	307.63
585.165	279.55
585.587	328.7
586.009	345.08
586.431	307.63
586.854	284.23
587.276	284.23
587.698	265.5
588.12	298.27
588.542	326.36
588.964	281.89
589.386	305.29
589.807	305.29
590.229	326.36
590.651	302.95
591.073	298.27
591.494	263.16
591.916	370.83
592.337	218.69
592.759	305.29
593.18	302.95
593.601	284.23
594.022	338.06
594.444	249.12
594.865	361.47
595.286	267.85
595.707	314.66
596.128	317
596.549	272.53
596.97	291.25
597.39	309.97
597.811	328.7
598.232	298.27
598.652	307.63
599.073	242.1
599.494	302.95
599.914	265.5
600.334	345.08
600.755	293.59
601.175	293.59
601.595	291.25
602.015	291.25
602.436	237.42
602.856	398.92
603.276	319.34
603.696	349.76
604.115	312.32
604.535	338.06
604.955	342.74
605.375	298.27
605.794	300.61
606.214	319.34
606.634	274.87
607.053	258.48
607.473	387.21
607.892	293.59
608.311	340.4
608.731	338.06
609.15	300.61
609.569	295.93
609.988	380.19
610.407	361.47
610.826	331.04
611.245	298.27
611.664	342.74
612.083	328.7
612.501	267.85
612.92	239.76
613.339	237.42
613.757	286.57
614.176	302.95
614.594	328.7
615.013	324.02
615.431	347.42
615.85	235.08
616.268	281.89
616.686	270.19
617.104	305.29
617.522	349.76
617.94	288.91
618.358	326.36
618.776	387.21
619.194	244.44
619.612	272.53
620.03	293.59
620.447	288.91
620.865	286.57
621.282	326.36
621.7	326.36
622.117	333.38
622.535	335.72
622.952	295.93
623.369	246.78
623.787	326.36
624.204	333.38
624.621	242.1
625.038	295.93
625.455	281.89
625.872	321.68
626.289	244.44
626.706	326.36
627.123	277.21
627.539	335.72
627.956	258.48
628.373	246.78
628.789	274.87
629.206	258.48
629.622	302.95
630.038	347.42
630.455	356.79
630.871	333.38
631.287	389.55
631.703	333.38
632.12	317
632.536	274.87
632.952	324.02
633.368	305.29
633.783	338.06
634.199	345.08
634.615	281.89
635.031	272.53
635.446	366.15
635.862	284.23
636.277	340.4
636.693	331.04
637.108	307.63
637.524	312.32
637.939	347.42
638.354	352.1
638.77	249.12
639.185	317
639.6	338.06
640.015	312.32
640.43	328.7
640.845	384.87
641.259	298.27
641.674	246.78
642.089	324.02
642.504	317
642.918	335.72
643.333	298.27
643.747	281.89
644.162	295.93
644.576	340.4
644.991	317
645.405	345.08
645.819	251.46
646.233	244.44
646.647	314.66
647.061	232.74
647.475	260.82
647.889	284.23
648.303	265.5
648.717	291.25
649.131	321.68
649.545	256.14
649.958	295.93
650.372	309.97
650.785	354.44
651.199	281.89
651.612	295.93
652.026	347.42
652.439	335.72
652.852	293.59
653.266	298.27
653.679	291.25
654.092	302.95
654.505	270.19
654.918	244.44
655.331	228.06
655.744	326.36
656.156	342.74
656.569	284.23
656.982	284.23
657.394	319.34
657.807	265.5
658.22	324.02
658.632	380.19
659.044	309.97
659.457	270.19
659.869	300.61
660.281	272.53
660.693	272.53
661.106	368.49
661.518	349.76
661.93	302.95
662.342	293.59
662.754	284.23
663.165	314.66
663.577	342.74
663.989	267.85
664.401	333.38
664.812	342.74
665.224	309.97
665.635	361.47
666.047	328.7
666.458	356.79
666.869	277.21
667.281	312.32
667.692	356.79
668.103	326.36
668.514	317
668.925	300.61
669.336	352.1
669.747	293.59
670.158	354.44
670.569	307.63
670.979	270.19
671.39	324.02
671.801	258.48
672.211	256.14
672.622	237.42
673.032	331.04
673.443	295.93
673.853	295.93
674.263	300.61
674.674	324.02
675.084	309.97
675.494	295.93
675.904	277.21
676.314	354.44
676.724	258.48
677.134	251.46
677.544	272.53
677.953	324.02
678.363	354.44
678.773	319.34
679.182	312.32
679.592	345.08
680.001	281.89
680.411	317
680.82	326.36
681.23	216.35
681.639	321.68
682.048	331.04
682.457	340.4
682.866	302.95
683.275	382.53
683.684	324.02
684.093	300.61
684.502	319.34
684.911	324.02
685.32	302.95
685.728	286.57
686.137	270.19
686.546	340.4
686.954	342.74
687.363	324.02
687.771	295.93
688.179	284.23
688.588	295.93
688.996	305.29
689.404	328.7
689.812	249.12
690.22	277.21
690.628	281.89
691.036	225.72
691.444	335.72
691.852	249.12
692.26	319.34
692.667	340.4
693.075	260.82
693.483	368.49
693.89	352.1
694.298	307.63
694.705	319.34
695.112	260.82
695.52	286.57
695.927	277.21
696.334	307.63
696.741	284.23
697.148	274.87
697.555	258.48
697.962	295.93
698.369	335.72
698.776	305.29
699.183	295.93
699.59	239.76
699.996	253.8
700.403	288.91
700.81	319.34
701.216	333.38
701.623	281.89
702.029	373.17
702.435	270.19
702.842	265.5
703.248	324.02
703.654	270.19
704.06	298.27
704.466	317
704.872	328.7
705.278	277.21
705.684	284.23
706.09	265.5
706.496	288.91
706.901	284.23
707.307	309.97
707.712	314.66
708.118	277.21
708.523	317
708.929	338.06
709.334	251.46
709.74	263.16
710.145	319.34
710.55	349.76
710.955	302.95
711.36	288.91
711.765	270.19
712.17	317
712.575	324.02
712.98	815.53
713.385	288.91
713.789	293.59
714.194	270.19
714.599	309.97
715.003	298.27
715.408	251.46
715.812	295.93
716.217	345.08
716.621	279.55
717.025	256.14
717.429	274.87
717.833	328.7
718.238	307.63
718.642	256.14
719.046	314.66
719.449	300.61
719.853	279.55
720.257	321.68
720.661	356.79
721.065	291.25
721.468	251.46
721.872	293.59
722.275	258.48
722.679	228.06
723.082	284.23
723.485	274.87
723.889	328.7
724.292	305.29
724.695	253.8
725.098	324.02
725.501	286.57
725.904	321.68
726.307	328.7
726.71	340.4
727.113	300.61
727.516	295.93
727.918	319.34
728.321	321.68
728.724	309.97
729.126	321.68
729.529	314.66
729.931	340.4
730.333	309.97
730.736	298.27
731.138	338.06
731.54	263.16
731.942	295.93
732.344	312.32
732.746	298.27
733.148	331.04
733.55	288.91
733.952	328.7
734.354	221.03
734.756	260.82
735.157	319.34
735.559	340.4
735.96	242.1
736.362	328.7
736.763	288.91
737.165	326.36
737.566	300.61
737.967	288.91
738.368	312.32
738.77	288.91
739.171	335.72
739.572	345.08
739.973	270.19
740.374	314.66
740.774	363.81
741.175	317
741.576	293.59
741.977	302.95
742.377	328.7
742.778	256.14
743.178	293.59
743.579	314.66
743.979	295.93
744.379	321.68
744.78	333.38
745.18	286.57
745.58	272.53
745.98	258.48
746.38	305.29
746.78	305.29
747.18	291.25
747.58	331.04
747.98	267.85
748.38	309.97
748.779	361.47
749.179	298.27
749.578	295.93
749.978	352.1
750.377	302.95
750.777	253.8
751.176	321.68
751.575	305.29
751.975	277.21
752.374	281.89
752.773	209.33
753.172	295.93
753.571	258.48
753.97	324.02
754.369	326.36
754.768	277.21
755.166	361.47
755.565	309.97
755.964	319.34
756.362	265.5
756.761	230.4
757.159	333.38
757.558	274.87
757.956	298.27
758.354	309.97
758.753	258.48
759.151	300.61
759.549	328.7
759.947	284.23
760.345	265.5
760.743	272.53
761.141	345.08
761.539	368.49
761.936	342.74
762.334	253.8
762.732	302.95
763.129	326.36
763.527	361.47
763.924	258.48
764.322	340.4
764.719	375.51
765.117	359.13
765.514	328.7
765.911	291.25
766.308	277.21
766.705	335.72
