Data from Al_FLMS009871__1073__16-27-04-014.txt Node

Date: Fri Mar 08 16:27:04 CST 2024
User: pe5414po
Spectrometer: FLMS00987
Trigger mode: 0
Integration Time (sec): 1.000000E-1
Scans to average: 1
Electric dark correction enabled: true
Nonlinearity correction enabled: false
Boxcar width: 0
XAxis mode: Wavelengths
Number of Pixels in Spectrum: 2048
>>>>>Begin Spectral Data<<<<<
188.938	-57.49
189.409	-57.49
189.879	-57.49
190.349	-120.68
190.819	-111.32
191.29	-118.34
191.76	-99.62
192.23	-90.26
192.7	-22.38
193.17	-50.47
193.64	-92.6
194.109	-41.11
194.579	-73.87
195.049	17.41
195.519	22.09
195.988	75.92
196.458	17.41
196.927	99.33
197.397	101.67
197.866	104.01
198.336	150.82
198.805	199.97
199.274	181.25
199.744	199.97
200.213	225.72
200.682	188.27
201.151	206.99
201.62	216.35
202.089	267.85
202.558	286.57
203.027	263.16
203.495	300.61
203.964	277.21
204.433	185.93
204.902	256.14
205.37	272.53
205.839	319.34
206.307	307.63
206.776	214.01
207.244	253.8
207.712	319.34
208.181	291.25
208.649	265.5
209.117	265.5
209.585	258.48
210.053	258.48
210.521	267.85
210.989	286.57
211.457	267.85
211.925	335.72
212.393	274.87
212.861	293.59
213.328	270.19
213.796	331.04
214.264	298.27
214.731	244.44
215.199	230.4
215.666	181.25
216.133	272.53
216.601	256.14
217.068	281.89
217.535	251.46
218.003	225.72
218.47	263.16
218.937	286.57
219.404	239.76
219.871	265.5
220.338	291.25
220.805	235.08
221.271	204.65
221.738	326.36
222.205	267.85
222.671	188.27
223.138	272.53
223.605	214.01
224.071	232.74
224.538	246.78
225.004	253.8
225.47	291.25
225.937	265.5
226.403	251.46
226.869	206.99
227.335	230.4
227.801	263.16
228.267	239.76
228.733	195.29
229.199	258.48
229.665	228.06
230.131	258.48
230.597	228.06
231.062	228.06
231.528	302.95
231.994	300.61
232.459	199.97
232.925	281.89
233.39	235.08
233.856	258.48
234.321	356.79
234.786	305.29
235.252	319.34
235.717	291.25
236.182	298.27
236.647	253.8
237.112	317
237.577	263.16
238.042	291.25
238.507	209.33
238.972	258.48
239.436	274.87
239.901	300.61
240.366	286.57
240.83	272.53
241.295	335.72
241.76	206.99
242.224	211.67
242.688	270.19
243.153	295.93
243.617	298.27
244.081	235.08
244.545	204.65
245.01	274.87
245.474	265.5
245.938	317
246.402	277.21
246.866	288.91
247.33	235.08
247.793	206.99
248.257	288.91
248.721	331.04
249.185	246.78
249.648	267.85
250.112	267.85
250.575	176.56
251.039	267.85
251.502	263.16
251.965	218.69
252.429	284.23
252.892	242.1
253.355	256.14
253.818	267.85
254.281	291.25
254.744	286.57
255.207	256.14
255.67	295.93
256.133	251.46
256.596	263.16
257.059	237.42
257.522	263.16
257.984	274.87
258.447	232.74
258.909	286.57
259.372	267.85
259.834	258.48
260.297	263.16
260.759	284.23
261.221	279.55
261.684	256.14
262.146	256.14
262.608	291.25
263.07	338.06
263.532	251.46
263.994	309.97
264.456	300.61
264.918	281.89
265.38	253.8
265.842	302.95
266.303	305.29
266.765	249.12
267.227	347.42
267.688	272.53
268.15	324.02
268.611	256.14
269.072	265.5
269.534	281.89
269.995	277.21
270.456	302.95
270.918	319.34
271.379	277.21
271.84	267.85
272.301	335.72
272.762	300.61
273.223	258.48
273.684	284.23
274.144	298.27
274.605	317
275.066	347.42
275.527	317
275.987	277.21
276.448	284.23
276.908	274.87
277.369	249.12
277.829	274.87
278.289	288.91
278.75	277.21
279.21	277.21
279.67	331.04
280.13	272.53
280.59	242.1
281.05	279.55
281.51	317
281.97	272.53
282.43	347.42
282.89	321.68
283.35	260.82
283.809	321.68
284.269	300.61
284.729	286.57
285.188	183.59
285.648	260.82
286.107	370.83
286.567	267.85
287.026	246.78
287.485	307.63
287.944	288.91
288.404	284.23
288.863	317
289.322	291.25
289.781	302.95
290.24	302.95
290.699	277.21
291.158	256.14
291.616	328.7
292.075	338.06
292.534	319.34
292.992	302.95
293.451	347.42
293.91	305.29
294.368	295.93
294.827	324.02
295.285	300.61
295.743	281.89
296.202	260.82
296.66	307.63
297.118	246.78
297.576	314.66
298.034	258.48
298.492	298.27
298.95	307.63
299.408	338.06
299.866	260.82
300.324	284.23
300.781	274.87
301.239	251.46
301.697	230.4
302.154	228.06
302.612	277.21
303.069	249.12
303.527	373.17
303.984	293.59
304.441	216.35
304.899	246.78
305.356	284.23
305.813	293.59
306.27	258.48
306.727	291.25
307.184	286.57
307.641	295.93
308.098	333.38
308.555	312.32
309.012	258.48
309.468	237.42
309.925	307.63
310.382	265.5
310.838	305.29
311.295	260.82
311.751	263.16
312.208	279.55
312.664	324.02
313.12	307.63
313.577	274.87
314.033	338.06
314.489	321.68
314.945	340.4
315.401	317
315.857	277.21
316.313	253.8
316.769	305.29
317.225	300.61
317.681	335.72
318.136	321.68
318.592	281.89
319.048	307.63
319.503	263.16
319.959	246.78
320.414	319.34
320.869	309.97
321.325	298.27
321.78	258.48
322.235	258.48
322.691	277.21
323.146	263.16
323.601	312.32
324.056	302.95
324.511	302.95
324.966	345.08
325.421	319.34
325.875	281.89
326.33	305.29
326.785	324.02
327.24	302.95
327.694	291.25
328.149	291.25
328.603	373.17
329.058	288.91
329.512	249.12
329.966	314.66
330.421	309.97
330.875	345.08
331.329	284.23
331.783	274.87
332.237	312.32
332.691	314.66
333.145	284.23
333.599	291.25
334.053	300.61
334.507	295.93
334.96	340.4
335.414	314.66
335.868	277.21
336.321	324.02
336.775	265.5
337.228	342.74
337.682	302.95
338.135	218.69
338.588	274.87
339.042	347.42
339.495	284.23
339.948	314.66
340.401	309.97
340.854	277.21
341.307	338.06
341.76	295.93
342.213	293.59
342.666	253.8
343.119	335.72
343.571	305.29
344.024	321.68
344.477	300.61
344.929	361.47
345.382	293.59
345.834	288.91
346.287	319.34
346.739	281.89
347.191	288.91
347.644	291.25
348.096	345.08
348.548	309.97
349	352.1
349.452	204.65
349.904	338.06
350.356	335.72
350.808	366.15
351.26	359.13
351.711	265.5
352.163	309.97
352.615	326.36
353.066	314.66
353.518	272.53
353.969	333.38
354.421	300.61
354.872	232.74
355.324	326.36
355.775	291.25
356.226	368.49
356.677	277.21
357.128	279.55
357.579	288.91
358.03	300.61
358.481	253.8
358.932	312.32
359.383	335.72
359.834	270.19
360.285	352.1
360.735	263.16
361.186	314.66
361.637	331.04
362.087	317
362.538	312.32
362.988	300.61
363.438	335.72
363.889	258.48
364.339	293.59
364.789	291.25
365.239	295.93
365.689	345.08
366.139	284.23
366.589	380.19
367.039	309.97
367.489	302.95
367.939	302.95
368.389	319.34
368.839	312.32
369.288	300.61
369.738	356.79
370.187	356.79
370.637	300.61
371.086	277.21
371.536	216.35
371.985	253.8
372.434	328.7
372.884	314.66
373.333	288.91
373.782	328.7
374.231	333.38
374.68	309.97
375.129	317
375.578	274.87
376.027	286.57
376.475	260.82
376.924	216.35
377.373	279.55
377.822	319.34
378.27	298.27
378.719	298.27
379.167	305.29
379.616	345.08
380.064	295.93
380.512	279.55
380.961	256.14
381.409	279.55
381.857	288.91
382.305	331.04
382.753	302.95
383.201	328.7
383.649	307.63
384.097	270.19
384.545	263.16
384.992	291.25
385.44	309.97
385.888	331.04
386.335	354.44
386.783	342.74
387.231	267.85
387.678	309.97
388.125	319.34
388.573	288.91
389.02	284.23
389.467	288.91
389.914	342.74
390.362	258.48
390.809	312.32
391.256	305.29
391.703	288.91
392.15	317
392.596	312.32
393.043	272.53
393.49	312.32
393.937	228.06
394.383	298.27
394.83	291.25
395.276	272.53
395.723	342.74
396.169	328.7
396.616	321.68
397.062	244.44
397.508	281.89
397.954	265.5
398.401	324.02
398.847	277.21
399.293	338.06
399.739	305.29
400.185	263.16
400.631	265.5
401.076	251.46
401.522	286.57
401.968	331.04
402.414	291.25
402.859	291.25
403.305	387.21
403.75	326.36
404.196	281.89
404.641	305.29
405.086	342.74
405.532	352.1
405.977	326.36
406.422	314.66
406.867	331.04
407.312	307.63
407.757	270.19
408.202	331.04
408.647	368.49
409.092	333.38
409.537	242.1
409.982	331.04
410.426	314.66
410.871	389.55
411.316	359.13
411.76	354.44
412.205	272.53
412.649	265.5
413.093	335.72
413.538	206.99
413.982	260.82
414.426	300.61
414.87	333.38
415.314	396.57
415.758	342.74
416.202	345.08
416.646	263.16
417.09	298.27
417.534	267.85
417.978	279.55
418.421	274.87
418.865	277.21
419.309	284.23
419.752	270.19
420.196	363.81
420.639	333.38
421.083	382.53
421.526	305.29
421.969	312.32
422.412	298.27
422.856	354.44
423.299	326.36
423.742	293.59
424.185	366.15
424.628	321.68
425.071	368.49
425.513	312.32
425.956	267.85
426.399	305.29
426.842	286.57
427.284	305.29
427.727	356.79
428.169	312.32
428.612	288.91
429.054	349.76
429.497	340.4
429.939	267.85
430.381	356.79
430.823	242.1
431.265	314.66
431.707	263.16
432.149	345.08
432.591	277.21
433.033	349.76
433.475	284.23
433.917	300.61
434.359	312.32
434.8	354.44
435.242	333.38
435.684	309.97
436.125	244.44
436.567	291.25
437.008	326.36
437.449	302.95
437.891	281.89
438.332	305.29
438.773	286.57
439.214	317
439.656	389.55
440.097	258.48
440.538	321.68
440.978	382.53
441.419	326.36
441.86	317
442.301	317
442.742	352.1
443.182	321.68
443.623	302.95
444.063	270.19
444.504	284.23
444.944	331.04
445.385	267.85
445.825	300.61
446.265	302.95
446.706	300.61
447.146	277.21
447.586	270.19
448.026	295.93
448.466	309.97
448.906	375.51
449.346	260.82
449.786	288.91
450.225	265.5
450.665	324.02
451.105	295.93
451.544	256.14
451.984	354.44
452.424	314.66
452.863	312.32
453.302	321.68
453.742	258.48
454.181	335.72
454.62	326.36
455.059	295.93
455.499	324.02
455.938	326.36
456.377	265.5
456.816	312.32
457.254	312.32
457.693	321.68
458.132	312.32
458.571	309.97
459.01	352.1
459.448	300.61
459.887	295.93
460.325	305.29
460.764	314.66
461.202	345.08
461.641	324.02
462.079	298.27
462.517	317
462.955	293.59
463.393	335.72
463.832	256.14
464.27	312.32
464.708	270.19
465.145	380.19
465.583	279.55
466.021	291.25
466.459	319.34
466.897	349.76
467.334	317
467.772	363.81
468.209	361.47
468.647	309.97
469.084	333.38
469.522	302.95
469.959	279.55
470.396	274.87
470.833	267.85
471.271	270.19
471.708	258.48
472.145	307.63
472.582	338.06
473.019	298.27
473.456	340.4
473.892	317
474.329	298.27
474.766	309.97
475.202	265.5
475.639	300.61
476.076	302.95
476.512	265.5
476.949	338.06
477.385	263.16
477.821	272.53
478.258	328.7
478.694	258.48
479.13	281.89
479.566	253.8
480.002	309.97
480.438	281.89
480.874	345.08
481.31	319.34
481.746	267.85
482.181	319.34
482.617	286.57
483.053	302.95
483.488	291.25
483.924	288.91
484.36	314.66
484.795	274.87
485.23	328.7
485.666	305.29
486.101	298.27
486.536	354.44
486.971	324.02
487.407	324.02
487.842	307.63
488.277	302.95
488.712	288.91
489.146	326.36
489.581	340.4
490.016	270.19
490.451	272.53
490.885	373.17
491.32	293.59
491.755	356.79
492.189	302.95
492.624	309.97
493.058	335.72
493.492	342.74
493.927	281.89
494.361	305.29
494.795	356.79
495.229	270.19
495.663	256.14
496.097	300.61
496.531	288.91
496.965	305.29
497.399	335.72
497.833	338.06
498.266	370.83
498.7	335.72
499.134	307.63
499.567	260.82
500.001	366.15
500.434	340.4
500.868	265.5
501.301	335.72
501.734	284.23
502.168	295.93
502.601	244.44
503.034	338.06
503.467	326.36
503.9	314.66
504.333	284.23
504.766	291.25
505.199	328.7
505.632	298.27
506.064	279.55
506.497	309.97
506.93	281.89
507.362	291.25
507.795	345.08
508.227	307.63
508.66	319.34
509.092	314.66
509.524	291.25
509.956	284.23
510.389	349.76
510.821	263.16
511.253	307.63
511.685	300.61
512.117	375.51
512.549	277.21
512.981	342.74
513.412	340.4
513.844	286.57
514.276	356.79
514.707	368.49
515.139	237.42
515.571	300.61
516.002	223.37
516.433	309.97
516.865	309.97
517.296	281.89
517.727	272.53
518.159	335.72
518.59	361.47
519.021	300.61
519.452	295.93
519.883	366.15
520.314	279.55
520.744	246.78
521.175	277.21
521.606	326.36
522.037	295.93
522.467	302.95
522.898	286.57
523.328	317
523.759	359.13
524.189	307.63
524.62	319.34
525.05	298.27
525.48	321.68
525.91	305.29
526.341	307.63
526.771	263.16
527.201	260.82
527.631	338.06
528.061	312.32
528.49	279.55
528.92	267.85
529.35	359.13
529.78	309.97
530.209	356.79
530.639	293.59
531.068	214.01
531.498	338.06
531.927	338.06
532.357	305.29
532.786	277.21
533.215	279.55
533.644	305.29
534.074	235.08
534.503	302.95
534.932	302.95
535.361	312.32
535.79	335.72
536.218	239.76
536.647	352.1
537.076	328.7
537.505	295.93
537.933	307.63
538.362	377.85
538.79	307.63
539.219	291.25
539.647	302.95
540.076	335.72
540.504	328.7
540.932	326.36
541.36	305.29
541.788	324.02
542.217	321.68
542.645	338.06
543.073	307.63
543.5	293.59
543.928	265.5
544.356	328.7
544.784	286.57
545.211	312.32
545.639	300.61
546.067	291.25
546.494	281.89
546.922	242.1
547.349	305.29
547.776	305.29
548.204	295.93
548.631	309.97
549.058	270.19
549.485	345.08
549.912	279.55
550.339	312.32
550.766	314.66
551.193	349.76
551.62	302.95
552.047	331.04
552.474	267.85
552.9	345.08
553.327	239.76
553.754	272.53
554.18	300.61
554.607	345.08
555.033	288.91
555.459	256.14
555.886	324.02
556.312	347.42
556.738	321.68
557.164	246.78
557.59	258.48
558.016	331.04
558.442	333.38
558.868	258.48
559.294	291.25
559.72	321.68
560.145	305.29
560.571	312.32
560.997	270.19
561.422	347.42
561.848	319.34
562.273	349.76
562.699	328.7
563.124	284.23
563.549	338.06
563.974	305.29
564.4	263.16
564.825	286.57
565.25	286.57
565.675	291.25
566.1	307.63
566.525	272.53
566.95	284.23
567.374	326.36
567.799	309.97
568.224	307.63
568.648	314.66
569.073	300.61
569.497	298.27
569.922	286.57
570.346	349.76
570.771	359.13
571.195	286.57
571.619	349.76
572.043	251.46
572.467	324.02
572.891	277.21
573.315	312.32
573.739	324.02
574.163	368.49
574.587	335.72
575.011	242.1
575.435	314.66
575.858	302.95
576.282	295.93
576.705	270.19
577.129	260.82
577.552	284.23
577.976	286.57
578.399	317
578.822	298.27
579.245	270.19
579.669	305.29
580.092	228.06
580.515	270.19
580.938	288.91
581.361	302.95
581.784	345.08
582.206	263.16
582.629	302.95
583.052	279.55
583.474	244.44
583.897	265.5
584.32	277.21
584.742	253.8
585.165	274.87
585.587	249.12
586.009	267.85
586.431	284.23
586.854	328.7
587.276	342.74
587.698	335.72
588.12	340.4
588.542	295.93
588.964	361.47
589.386	302.95
589.807	279.55
590.229	324.02
590.651	251.46
591.073	354.44
591.494	319.34
591.916	270.19
592.337	307.63
592.759	326.36
593.18	298.27
593.601	277.21
594.022	326.36
594.444	345.08
594.865	298.27
595.286	405.94
595.707	279.55
596.128	284.23
596.549	232.74
596.97	256.14
597.39	333.38
597.811	326.36
598.232	314.66
598.652	288.91
599.073	352.1
599.494	317
599.914	293.59
600.334	270.19
600.755	331.04
601.175	242.1
601.595	345.08
602.015	281.89
602.436	354.44
602.856	361.47
603.276	288.91
603.696	260.82
604.115	286.57
604.535	312.32
604.955	298.27
605.375	256.14
605.794	359.13
606.214	284.23
606.634	300.61
607.053	298.27
607.473	309.97
607.892	314.66
608.311	352.1
608.731	342.74
609.15	312.32
609.569	305.29
609.988	321.68
610.407	274.87
610.826	288.91
611.245	324.02
611.664	214.01
612.083	314.66
612.501	300.61
612.92	270.19
613.339	288.91
613.757	331.04
614.176	317
614.594	338.06
615.013	354.44
615.431	312.32
615.85	277.21
616.268	284.23
616.686	324.02
617.104	405.94
617.522	230.4
617.94	359.13
618.358	347.42
618.776	288.91
619.194	328.7
619.612	345.08
620.03	305.29
620.447	253.8
620.865	321.68
621.282	342.74
621.7	293.59
622.117	326.36
622.535	295.93
622.952	324.02
623.369	260.82
623.787	300.61
624.204	274.87
624.621	340.4
625.038	293.59
625.455	274.87
625.872	338.06
626.289	309.97
626.706	338.06
627.123	281.89
627.539	277.21
627.956	305.29
628.373	286.57
628.789	281.89
629.206	333.38
629.622	363.81
630.038	312.32
630.455	288.91
630.871	239.76
631.287	284.23
631.703	307.63
632.12	272.53
632.536	317
632.952	302.95
633.368	338.06
633.783	312.32
634.199	295.93
634.615	288.91
635.031	305.29
635.446	295.93
635.862	305.29
636.277	345.08
636.693	312.32
637.108	274.87
637.524	340.4
637.939	256.14
638.354	251.46
638.77	295.93
639.185	324.02
639.6	370.83
640.015	314.66
640.43	317
640.845	317
641.259	293.59
641.674	302.95
642.089	284.23
642.504	326.36
642.918	265.5
643.333	300.61
643.747	197.63
644.162	319.34
644.576	335.72
644.991	333.38
645.405	286.57
645.819	338.06
646.233	328.7
646.647	349.76
647.061	354.44
647.475	228.06
647.889	263.16
648.303	225.72
648.717	324.02
649.131	317
649.545	333.38
649.958	277.21
650.372	309.97
650.785	312.32
651.199	237.42
651.612	302.95
652.026	326.36
652.439	277.21
652.852	347.42
653.266	333.38
653.679	263.16
654.092	312.32
654.505	321.68
654.918	300.61
655.331	265.5
655.744	309.97
656.156	291.25
656.569	295.93
656.982	324.02
657.394	281.89
657.807	272.53
658.22	309.97
658.632	302.95
659.044	335.72
659.457	328.7
659.869	328.7
660.281	253.8
660.693	342.74
661.106	274.87
661.518	347.42
661.93	342.74
662.342	342.74
662.754	387.21
663.165	314.66
663.577	291.25
663.989	307.63
664.401	260.82
664.812	314.66
665.224	345.08
665.635	347.42
666.047	302.95
666.458	298.27
666.869	256.14
667.281	340.4
667.692	286.57
668.103	291.25
668.514	326.36
668.925	342.74
669.336	375.51
669.747	265.5
670.158	258.48
670.569	326.36
670.979	335.72
671.39	375.51
671.801	314.66
672.211	345.08
672.622	321.68
673.032	293.59
673.443	342.74
673.853	237.42
674.263	232.74
674.674	225.72
675.084	244.44
675.494	298.27
675.904	333.38
676.314	335.72
676.724	305.29
677.134	305.29
677.544	321.68
677.953	298.27
678.363	307.63
678.773	331.04
679.182	317
679.592	309.97
680.001	321.68
680.411	293.59
680.82	314.66
681.23	363.81
681.639	286.57
682.048	394.23
682.457	286.57
682.866	326.36
683.275	302.95
683.684	302.95
684.093	295.93
684.502	326.36
684.911	359.13
685.32	272.53
685.728	230.4
686.137	260.82
686.546	331.04
686.954	324.02
687.363	333.38
687.771	288.91
688.179	307.63
688.588	300.61
688.996	363.81
689.404	284.23
689.812	284.23
690.22	349.76
690.628	291.25
691.036	321.68
691.444	342.74
691.852	342.74
692.26	305.29
692.667	366.15
693.075	277.21
693.483	265.5
693.89	307.63
694.298	284.23
694.705	305.29
695.112	340.4
695.52	342.74
695.927	298.27
696.334	324.02
696.741	377.85
697.148	277.21
697.555	340.4
697.962	279.55
698.369	321.68
698.776	305.29
699.183	284.23
699.59	267.85
699.996	270.19
700.403	319.34
700.81	228.06
701.216	328.7
701.623	274.87
702.029	307.63
702.435	291.25
702.842	309.97
703.248	291.25
703.654	319.34
704.06	284.23
704.466	319.34
704.872	314.66
705.278	263.16
705.684	347.42
706.09	333.38
706.496	309.97
706.901	349.76
707.307	375.51
707.712	309.97
708.118	312.32
708.523	309.97
708.929	361.47
709.334	258.48
709.74	291.25
710.145	347.42
710.55	258.48
710.955	302.95
711.36	335.72
711.765	249.12
712.17	309.97
712.575	354.44
712.98	820.21
713.385	317
713.789	321.68
714.194	314.66
714.599	288.91
715.003	317
715.408	195.29
715.812	342.74
716.217	302.95
716.621	326.36
717.025	354.44
717.429	335.72
717.833	293.59
718.238	338.06
718.642	298.27
719.046	256.14
719.449	326.36
719.853	333.38
720.257	235.08
720.661	354.44
721.065	314.66
721.468	270.19
721.872	279.55
722.275	272.53
722.679	246.78
723.082	279.55
723.485	242.1
723.889	228.06
724.292	361.47
724.695	333.38
725.098	302.95
725.501	298.27
725.904	267.85
726.307	331.04
726.71	293.59
727.113	338.06
727.516	288.91
727.918	335.72
728.321	272.53
728.724	286.57
729.126	258.48
729.529	288.91
729.931	326.36
730.333	291.25
730.736	298.27
731.138	293.59
731.54	359.13
731.942	307.63
732.344	281.89
732.746	279.55
733.148	277.21
733.55	258.48
733.952	298.27
734.354	333.38
734.756	270.19
735.157	270.19
735.559	321.68
735.96	293.59
736.362	349.76
736.763	237.42
737.165	232.74
737.566	277.21
737.967	295.93
738.368	356.79
738.77	286.57
739.171	340.4
739.572	354.44
739.973	312.32
740.374	286.57
740.774	270.19
741.175	295.93
741.576	312.32
741.977	324.02
742.377	312.32
742.778	185.93
743.178	307.63
743.579	305.29
743.979	317
744.379	366.15
744.78	359.13
745.18	274.87
745.58	335.72
745.98	312.32
746.38	272.53
746.78	281.89
747.18	347.42
747.58	260.82
747.98	272.53
748.38	253.8
748.779	309.97
749.179	300.61
749.578	326.36
749.978	291.25
750.377	272.53
750.777	314.66
751.176	291.25
751.575	246.78
751.975	221.03
752.374	347.42
752.773	298.27
753.172	309.97
753.571	291.25
753.97	312.32
754.369	291.25
754.768	298.27
755.166	352.1
755.565	291.25
755.964	277.21
756.362	319.34
756.761	307.63
757.159	298.27
757.558	281.89
757.956	326.36
758.354	300.61
758.753	288.91
759.151	279.55
759.549	267.85
759.947	279.55
760.345	286.57
760.743	251.46
761.141	335.72
761.539	302.95
761.936	237.42
762.334	242.1
762.732	340.4
763.129	326.36
763.527	235.08
763.924	328.7
764.322	307.63
764.719	324.02
765.117	274.87
765.514	253.8
765.911	286.57
766.308	363.81
