Data from Al_FLMS009871__1064__16-27-03-111.txt Node

Date: Fri Mar 08 16:27:03 CST 2024
User: pe5414po
Spectrometer: FLMS00987
Trigger mode: 0
Integration Time (sec): 1.000000E-1
Scans to average: 1
Electric dark correction enabled: true
Nonlinearity correction enabled: false
Boxcar width: 0
XAxis mode: Wavelengths
Number of Pixels in Spectrum: 2048
>>>>>Begin Spectral Data<<<<<
188.938	-78.7
189.409	-78.7
189.879	-78.7
190.349	-186.37
190.819	-74.02
191.29	-76.36
191.76	-116.15
192.23	-127.85
192.7	-78.7
193.17	-83.38
193.64	-34.23
194.109	-34.23
194.579	-31.89
195.049	45.35
195.519	61.73
195.988	-8.48
196.458	85.14
196.927	73.43
197.397	73.43
197.866	87.48
198.336	164.72
198.805	145.99
199.274	195.14
199.744	223.23
200.213	197.48
200.682	227.91
201.151	213.87
201.62	223.23
202.089	181.1
202.558	192.8
203.027	258.34
203.495	218.55
203.964	195.14
204.433	263.02
204.902	274.72
205.37	265.36
205.839	272.38
206.307	237.27
206.776	300.47
207.244	258.34
207.712	281.74
208.181	230.25
208.649	267.7
209.117	239.61
209.585	293.44
210.053	314.51
210.521	265.36
210.989	312.17
211.457	232.59
211.925	263.02
212.393	260.68
212.861	295.79
213.328	277.06
213.796	288.76
214.264	202.16
214.731	302.81
215.199	260.68
215.666	256
216.133	241.95
216.601	260.68
217.068	192.8
217.535	199.82
218.003	211.53
218.47	227.91
218.937	241.95
219.404	246.63
219.871	206.84
220.338	185.78
220.805	225.57
221.271	260.68
221.738	183.44
222.205	174.08
222.671	237.27
223.138	248.97
223.605	293.44
224.071	307.49
224.538	204.5
225.004	253.66
225.47	241.95
225.937	244.29
226.403	199.82
226.869	251.32
227.335	225.57
227.801	256
228.267	230.25
228.733	291.1
229.199	237.27
229.665	272.38
230.131	248.97
230.597	232.59
231.062	202.16
231.528	234.93
231.994	248.97
232.459	265.36
232.925	227.91
233.39	241.95
233.856	216.21
234.321	246.63
234.786	202.16
235.252	286.42
235.717	251.32
236.182	244.29
236.647	239.61
237.112	195.14
237.577	241.95
238.042	326.21
238.507	277.06
238.972	260.68
239.436	260.68
239.901	284.08
240.366	274.72
240.83	284.08
241.295	237.27
241.76	293.44
242.224	248.97
242.688	234.93
243.153	258.34
243.617	183.44
244.081	174.08
244.545	260.68
245.01	239.61
245.474	302.81
245.938	265.36
246.402	218.55
246.866	260.68
247.33	298.13
247.793	225.57
248.257	277.06
248.721	220.89
249.185	241.95
249.648	241.95
250.112	263.02
250.575	190.46
251.039	246.63
251.502	232.59
251.965	223.23
252.429	291.1
252.892	258.34
253.355	225.57
253.818	270.04
254.281	293.44
254.744	230.25
255.207	279.4
255.67	291.1
256.133	293.44
256.596	216.21
257.059	293.44
257.522	302.81
257.984	370.68
258.447	248.97
258.909	248.97
259.372	206.84
259.834	277.06
260.297	274.72
260.759	246.63
261.221	218.55
261.684	253.66
262.146	274.72
262.608	295.79
263.07	258.34
263.532	291.1
263.994	253.66
264.456	328.55
264.918	237.27
265.38	316.85
265.842	295.79
266.303	234.93
266.765	253.66
267.227	314.51
267.688	223.23
268.15	302.81
268.611	300.47
269.072	206.84
269.534	256
269.995	307.49
270.456	234.93
270.918	230.25
271.379	253.66
271.84	239.61
272.301	270.04
272.762	272.38
273.223	256
273.684	230.25
274.144	321.53
274.605	274.72
275.066	258.34
275.527	234.93
275.987	274.72
276.448	305.15
276.908	309.83
277.369	298.13
277.829	309.83
278.289	258.34
278.75	321.53
279.21	281.74
279.67	307.49
280.13	253.66
280.59	298.13
281.05	197.48
281.51	319.19
281.97	284.08
282.43	277.06
282.89	288.76
283.35	263.02
283.809	192.8
284.269	333.23
284.729	241.95
285.188	279.4
285.648	323.87
286.107	316.85
286.567	326.21
287.026	251.32
287.485	284.08
287.944	246.63
288.404	349.62
288.863	302.81
289.322	307.49
289.781	314.51
290.24	314.51
290.699	347.28
291.158	263.02
291.616	316.85
292.075	256
292.534	246.63
292.992	309.83
293.451	267.7
293.91	298.13
294.368	286.42
294.827	234.93
295.285	248.97
295.743	260.68
296.202	279.4
296.66	232.59
297.118	211.53
297.576	293.44
298.034	284.08
298.492	256
298.95	335.57
299.408	265.36
299.866	309.83
300.324	263.02
300.781	253.66
301.239	284.08
301.697	277.06
302.154	192.8
302.612	239.61
303.069	225.57
303.527	309.83
303.984	227.91
304.441	330.89
304.899	293.44
305.356	258.34
305.813	351.96
306.27	291.1
306.727	211.53
307.184	230.25
307.641	284.08
308.098	340.26
308.555	300.47
309.012	321.53
309.468	298.13
309.925	202.16
310.382	263.02
310.838	342.6
311.295	295.79
311.751	284.08
312.208	321.53
312.664	234.93
313.12	302.81
313.577	312.17
314.033	309.83
314.489	305.15
314.945	258.34
315.401	319.19
315.857	253.66
316.313	277.06
316.769	270.04
317.225	354.3
317.681	351.96
318.136	300.47
318.592	293.44
319.048	251.32
319.503	284.08
319.959	321.53
320.414	230.25
320.869	267.7
321.325	288.76
321.78	277.06
322.235	272.38
322.691	256
323.146	326.21
323.601	270.04
324.056	344.94
324.511	309.83
324.966	244.29
325.421	307.49
325.875	190.46
326.33	326.21
326.785	309.83
327.24	281.74
327.694	251.32
328.149	244.29
328.603	321.53
329.058	267.7
329.512	286.42
329.966	344.94
330.421	305.15
330.875	244.29
331.329	265.36
331.783	279.4
332.237	321.53
332.691	302.81
333.145	239.61
333.599	272.38
334.053	293.44
334.507	281.74
334.96	347.28
335.414	251.32
335.868	323.87
336.321	309.83
336.775	319.19
337.228	314.51
337.682	307.49
338.135	307.49
338.588	277.06
339.042	277.06
339.495	274.72
339.948	321.53
340.401	354.3
340.854	312.17
341.307	274.72
341.76	258.34
342.213	314.51
342.666	344.94
343.119	286.42
343.571	267.7
344.024	307.49
344.477	293.44
344.929	316.85
345.382	321.53
345.834	321.53
346.287	288.76
346.739	272.38
347.191	326.21
347.644	375.36
348.096	319.19
348.548	251.32
349	286.42
349.452	293.44
349.904	309.83
350.356	267.7
350.808	307.49
351.26	270.04
351.711	277.06
352.163	281.74
352.615	321.53
353.066	298.13
353.518	307.49
353.969	241.95
354.421	309.83
354.872	277.06
355.324	312.17
355.775	373.02
356.226	288.76
356.677	323.87
357.128	265.36
357.579	291.1
358.03	307.49
358.481	279.4
358.932	284.08
359.383	277.06
359.834	253.66
360.285	279.4
360.735	321.53
361.186	347.28
361.637	354.3
362.087	272.38
362.538	274.72
362.988	305.15
363.438	234.93
363.889	312.17
364.339	253.66
364.789	314.51
365.239	256
365.689	272.38
366.139	314.51
366.589	291.1
367.039	312.17
367.489	300.47
367.939	305.15
368.389	330.89
368.839	286.42
369.288	305.15
369.738	319.19
370.187	302.81
370.637	347.28
371.086	288.76
371.536	326.21
371.985	314.51
372.434	295.79
372.884	351.96
373.333	288.76
373.782	223.23
374.231	265.36
374.68	312.17
375.129	260.68
375.578	223.23
376.027	251.32
376.475	314.51
376.924	323.87
377.373	284.08
377.822	330.89
378.27	279.4
378.719	246.63
379.167	251.32
379.616	305.15
380.064	291.1
380.512	330.89
380.961	337.91
381.409	302.81
381.857	330.89
382.305	323.87
382.753	286.42
383.201	286.42
383.649	267.7
384.097	253.66
384.545	274.72
384.992	288.76
385.44	284.08
385.888	293.44
386.335	323.87
386.783	342.6
387.231	256
387.678	281.74
388.125	277.06
388.573	326.21
389.02	330.89
389.467	333.23
389.914	295.79
390.362	274.72
390.809	274.72
391.256	286.42
391.703	241.95
392.15	284.08
392.596	281.74
393.043	319.19
393.49	344.94
393.937	265.36
394.383	272.38
394.83	305.15
395.276	277.06
395.723	279.4
396.169	295.79
396.616	375.36
397.062	279.4
397.508	274.72
397.954	316.85
398.401	330.89
398.847	286.42
399.293	260.68
399.739	305.15
400.185	326.21
400.631	319.19
401.076	298.13
401.522	284.08
401.968	288.76
402.414	237.27
402.859	291.1
403.305	265.36
403.75	192.8
404.196	326.21
404.641	239.61
405.086	263.02
405.532	244.29
405.977	326.21
406.422	274.72
406.867	316.85
407.312	263.02
407.757	337.91
408.202	237.27
408.647	291.1
409.092	326.21
409.537	347.28
409.982	305.15
410.426	281.74
410.871	286.42
411.316	302.81
411.76	234.93
412.205	246.63
412.649	239.61
413.093	237.27
413.538	206.84
413.982	300.47
414.426	328.55
414.87	293.44
415.314	328.55
415.758	305.15
416.202	333.23
416.646	263.02
417.09	263.02
417.534	248.97
417.978	321.53
418.421	270.04
418.865	300.47
419.309	361.32
419.752	368.34
420.196	244.29
420.639	265.36
421.083	281.74
421.526	251.32
421.969	319.19
422.412	366
422.856	258.34
423.299	333.23
423.742	368.34
424.185	258.34
424.628	258.34
425.071	288.76
425.513	293.44
425.956	300.47
426.399	326.21
426.842	284.08
427.284	307.49
427.727	323.87
428.169	300.47
428.612	218.55
429.054	272.38
429.497	256
429.939	373.02
430.381	309.83
430.823	239.61
431.265	291.1
431.707	295.79
432.149	307.49
432.591	239.61
433.033	312.17
433.475	239.61
433.917	279.4
434.359	354.3
434.8	218.55
435.242	309.83
435.684	312.17
436.125	298.13
436.567	288.76
437.008	272.38
437.449	351.96
437.891	295.79
438.332	321.53
438.773	321.53
439.214	305.15
439.656	274.72
440.097	354.3
440.538	337.91
440.978	328.55
441.419	302.81
441.86	305.15
442.301	293.44
442.742	309.83
443.182	295.79
443.623	295.79
444.063	330.89
444.504	263.02
444.944	319.19
445.385	321.53
445.825	274.72
446.265	328.55
446.706	277.06
447.146	342.6
447.586	183.44
448.026	351.96
448.466	319.19
448.906	279.4
449.346	307.49
449.786	330.89
450.225	256
450.665	314.51
451.105	227.91
451.544	274.72
451.984	258.34
452.424	323.87
452.863	326.21
453.302	272.38
453.742	370.68
454.181	265.36
454.62	256
455.059	344.94
455.499	305.15
455.938	335.57
456.377	300.47
456.816	281.74
457.254	368.34
457.693	326.21
458.132	349.62
458.571	277.06
459.01	305.15
459.448	286.42
459.887	274.72
460.325	295.79
460.764	316.85
461.202	279.4
461.641	288.76
462.079	309.83
462.517	293.44
462.955	293.44
463.393	335.57
463.832	340.26
464.27	239.61
464.708	267.7
465.145	263.02
465.583	274.72
466.021	263.02
466.459	321.53
466.897	237.27
467.334	263.02
467.772	239.61
468.209	253.66
468.647	305.15
469.084	253.66
469.522	328.55
469.959	260.68
470.396	248.97
470.833	265.36
471.271	314.51
471.708	244.29
472.145	340.26
472.582	340.26
473.019	281.74
473.456	288.76
473.892	263.02
474.329	323.87
474.766	295.79
475.202	291.1
475.639	330.89
476.076	267.7
476.512	307.49
476.949	307.49
477.385	337.91
477.821	333.23
478.258	302.81
478.694	330.89
479.13	326.21
479.566	277.06
480.002	340.26
480.438	295.79
480.874	267.7
481.31	340.26
481.746	279.4
482.181	281.74
482.617	344.94
483.053	302.81
483.488	277.06
483.924	246.63
484.36	267.7
484.795	419.83
485.23	281.74
485.666	307.49
486.101	263.02
486.536	330.89
486.971	321.53
487.407	277.06
487.842	330.89
488.277	314.51
488.712	305.15
489.146	300.47
489.581	335.57
490.016	342.6
490.451	270.04
490.885	344.94
491.32	248.97
491.755	312.17
492.189	302.81
492.624	293.44
493.058	358.98
493.492	237.27
493.927	291.1
494.361	351.96
494.795	361.32
495.229	323.87
495.663	309.83
496.097	239.61
496.531	256
496.965	312.17
497.399	316.85
497.833	281.74
498.266	326.21
498.7	351.96
499.134	295.79
499.567	260.68
500.001	328.55
500.434	344.94
500.868	316.85
501.301	284.08
501.734	284.08
502.168	253.66
502.601	298.13
503.034	270.04
503.467	248.97
503.9	319.19
504.333	253.66
504.766	284.08
505.199	302.81
505.632	288.76
506.064	356.64
506.497	305.15
506.93	314.51
507.362	314.51
507.795	302.81
508.227	314.51
508.66	349.62
509.092	335.57
509.524	246.63
509.956	323.87
510.389	298.13
510.821	286.42
511.253	321.53
511.685	300.47
512.117	246.63
512.549	265.36
512.981	312.17
513.412	356.64
513.844	291.1
514.276	328.55
514.707	277.06
515.139	281.74
515.571	370.68
516.002	309.83
516.433	314.51
516.865	387.07
517.296	300.47
517.727	270.04
518.159	263.02
518.59	256
519.021	309.83
519.452	253.66
519.883	288.76
520.314	356.64
520.744	300.47
521.175	337.91
521.606	291.1
522.037	307.49
522.467	323.87
522.898	314.51
523.328	305.15
523.759	277.06
524.189	265.36
524.62	270.04
525.05	209.19
525.48	349.62
525.91	340.26
526.341	328.55
526.771	270.04
527.201	248.97
527.631	258.34
528.061	277.06
528.49	291.1
528.92	307.49
529.35	302.81
529.78	316.85
530.209	344.94
530.639	319.19
531.068	288.76
531.498	309.83
531.927	340.26
532.357	312.17
532.786	295.79
533.215	260.68
533.644	309.83
534.074	295.79
534.503	291.1
534.932	307.49
535.361	302.81
535.79	305.15
536.218	293.44
536.647	216.21
537.076	274.72
537.505	258.34
537.933	302.81
538.362	351.96
538.79	244.29
539.219	291.1
539.647	270.04
540.076	248.97
540.504	298.13
540.932	272.38
541.36	342.6
541.788	265.36
542.217	218.55
542.645	218.55
543.073	277.06
543.5	241.95
543.928	309.83
544.356	300.47
544.784	300.47
545.211	368.34
545.639	293.44
546.067	267.7
546.494	300.47
546.922	319.19
547.349	286.42
547.776	272.38
548.204	293.44
548.631	295.79
549.058	248.97
549.485	321.53
549.912	272.38
550.339	281.74
550.766	316.85
551.193	284.08
551.62	286.42
552.047	319.19
552.474	272.38
552.9	274.72
553.327	239.61
553.754	284.08
554.18	328.55
554.607	305.15
555.033	295.79
555.459	302.81
555.886	286.42
556.312	342.6
556.738	344.94
557.164	288.76
557.59	230.25
558.016	279.4
558.442	293.44
558.868	279.4
559.294	274.72
559.72	330.89
560.145	274.72
560.571	342.6
560.997	274.72
561.422	291.1
561.848	277.06
562.273	309.83
562.699	302.81
563.124	295.79
563.549	286.42
563.974	260.68
564.4	244.29
564.825	342.6
565.25	316.85
565.675	326.21
566.1	265.36
566.525	305.15
566.95	316.85
567.374	279.4
567.799	302.81
568.224	267.7
568.648	302.81
569.073	373.02
569.497	274.72
569.922	309.83
570.346	307.49
570.771	314.51
571.195	260.68
571.619	295.79
572.043	305.15
572.467	335.57
572.891	302.81
573.315	246.63
573.739	246.63
574.163	307.49
574.587	232.59
575.011	319.19
575.435	300.47
575.858	305.15
576.282	288.76
576.705	302.81
577.129	328.55
577.552	305.15
577.976	246.63
578.399	321.53
578.822	244.29
579.245	305.15
579.669	279.4
580.092	291.1
580.515	291.1
580.938	314.51
581.361	288.76
581.784	279.4
582.206	309.83
582.629	291.1
583.052	293.44
583.474	312.17
583.897	312.17
584.32	314.51
584.742	319.19
585.165	333.23
585.587	300.47
586.009	230.25
586.431	237.27
586.854	351.96
587.276	344.94
587.698	267.7
588.12	284.08
588.542	328.55
588.964	302.81
589.386	316.85
589.807	312.17
590.229	239.61
590.651	263.02
591.073	300.47
591.494	293.44
591.916	253.66
592.337	302.81
592.759	202.16
593.18	295.79
593.601	263.02
594.022	305.15
594.444	300.47
594.865	302.81
595.286	302.81
595.707	272.38
596.128	284.08
596.549	333.23
596.97	216.21
597.39	337.91
597.811	319.19
598.232	197.48
598.652	321.53
599.073	277.06
599.494	253.66
599.914	281.74
600.334	323.87
600.755	309.83
601.175	279.4
601.595	295.79
602.015	253.66
602.436	293.44
602.856	436.22
603.276	232.59
603.696	274.72
604.115	258.34
604.535	225.57
604.955	316.85
605.375	363.66
605.794	300.47
606.214	307.49
606.634	305.15
607.053	349.62
607.473	270.04
607.892	333.23
608.311	302.81
608.731	344.94
609.15	314.51
609.569	316.85
609.988	326.21
610.407	319.19
610.826	335.57
611.245	288.76
611.664	312.17
612.083	279.4
612.501	291.1
612.92	373.02
613.339	260.68
613.757	347.28
614.176	387.07
614.594	258.34
615.013	316.85
615.431	316.85
615.85	277.06
616.268	286.42
616.686	307.49
617.104	260.68
617.522	270.04
617.94	298.13
618.358	288.76
618.776	256
619.194	316.85
619.612	368.34
620.03	288.76
620.447	307.49
620.865	248.97
621.282	363.66
621.7	263.02
622.117	330.89
622.535	298.13
622.952	223.23
623.369	340.26
623.787	248.97
624.204	309.83
624.621	246.63
625.038	363.66
625.455	295.79
625.872	241.95
626.289	314.51
626.706	277.06
627.123	279.4
627.539	316.85
627.956	246.63
628.373	270.04
628.789	218.55
629.206	312.17
629.622	326.21
630.038	281.74
630.455	316.85
630.871	384.73
631.287	319.19
631.703	241.95
632.12	309.83
632.536	316.85
632.952	295.79
633.368	356.64
633.783	307.49
634.199	286.42
634.615	330.89
635.031	293.44
635.446	277.06
635.862	298.13
636.277	335.57
636.693	323.87
637.108	337.91
637.524	298.13
637.939	358.98
638.354	326.21
638.77	288.76
639.185	258.34
639.6	256
640.015	328.55
640.43	326.21
640.845	344.94
641.259	279.4
641.674	319.19
642.089	305.15
642.504	316.85
642.918	288.76
643.333	382.39
643.747	314.51
644.162	330.89
644.576	270.04
644.991	256
645.405	274.72
645.819	251.32
646.233	225.57
646.647	326.21
647.061	309.83
647.475	281.74
647.889	307.49
648.303	291.1
648.717	227.91
649.131	253.66
649.545	323.87
649.958	293.44
650.372	328.55
650.785	291.1
651.199	295.79
651.612	288.76
652.026	319.19
652.439	258.34
652.852	267.7
653.266	256
653.679	270.04
654.092	225.57
654.505	241.95
654.918	298.13
655.331	351.96
655.744	312.17
656.156	281.74
656.569	251.32
656.982	316.85
657.394	307.49
657.807	342.6
658.22	375.36
658.632	284.08
659.044	270.04
659.457	326.21
659.869	349.62
660.281	291.1
660.693	337.91
661.106	335.57
661.518	326.21
661.93	323.87
662.342	267.7
662.754	267.7
663.165	284.08
663.577	265.36
663.989	326.21
664.401	302.81
664.812	274.72
665.224	384.73
665.635	267.7
666.047	256
666.458	263.02
666.869	323.87
667.281	309.83
667.692	321.53
668.103	305.15
668.514	347.28
668.925	335.57
669.336	309.83
669.747	300.47
670.158	284.08
670.569	291.1
670.979	312.17
671.39	277.06
671.801	248.97
672.211	291.1
672.622	281.74
673.032	239.61
673.443	232.59
673.853	307.49
674.263	291.1
674.674	337.91
675.084	223.23
675.494	335.57
675.904	344.94
676.314	295.79
676.724	314.51
677.134	260.68
677.544	326.21
677.953	265.36
678.363	405.79
678.773	326.21
679.182	321.53
679.592	288.76
680.001	286.42
680.411	300.47
680.82	358.98
681.23	323.87
681.639	237.27
682.048	354.3
682.457	281.74
682.866	281.74
683.275	302.81
683.684	328.55
684.093	363.66
684.502	281.74
684.911	309.83
685.32	314.51
685.728	286.42
686.137	298.13
686.546	295.79
686.954	225.57
687.363	284.08
687.771	213.87
688.179	335.57
688.588	227.91
688.996	286.42
689.404	351.96
689.812	302.81
690.22	260.68
690.628	342.6
691.036	358.98
691.444	293.44
691.852	295.79
692.26	368.34
692.667	307.49
693.075	216.21
693.483	323.87
693.89	316.85
694.298	295.79
694.705	330.89
695.112	300.47
695.52	326.21
695.927	284.08
696.334	321.53
696.741	342.6
697.148	337.91
697.555	260.68
697.962	295.79
698.369	314.51
698.776	232.59
699.183	267.7
699.59	298.13
699.996	270.04
700.403	321.53
700.81	241.95
701.216	298.13
701.623	349.62
702.029	302.81
702.435	281.74
702.842	307.49
703.248	274.72
703.654	272.38
704.06	347.28
704.466	295.79
704.872	288.76
705.278	277.06
705.684	342.6
706.09	286.42
706.496	321.53
706.901	316.85
707.307	321.53
707.712	213.87
708.118	344.94
708.523	314.51
708.929	298.13
709.334	319.19
709.74	298.13
710.145	298.13
710.55	363.66
710.955	302.81
711.36	309.83
711.765	265.36
712.17	316.85
712.575	307.49
712.98	852.83
713.385	291.1
713.789	319.19
714.194	274.72
714.599	279.4
715.003	286.42
715.408	328.55
715.812	258.34
716.217	300.47
716.621	302.81
717.025	307.49
717.429	309.83
717.833	307.49
718.238	263.02
718.642	333.23
719.046	260.68
719.449	291.1
719.853	321.53
720.257	253.66
720.661	284.08
721.065	349.62
721.468	347.28
721.872	314.51
722.275	347.28
722.679	300.47
723.082	295.79
723.485	263.02
723.889	321.53
724.292	248.97
724.695	230.25
725.098	312.17
725.501	305.15
725.904	342.6
726.307	270.04
726.71	302.81
727.113	309.83
727.516	284.08
727.918	326.21
728.321	279.4
728.724	272.38
729.126	328.55
729.529	277.06
729.931	326.21
730.333	307.49
730.736	300.47
731.138	323.87
731.54	260.68
731.942	307.49
732.344	270.04
732.746	314.51
733.148	354.3
733.55	330.89
733.952	279.4
734.354	288.76
734.756	298.13
735.157	274.72
735.559	272.38
735.96	312.17
736.362	293.44
736.763	265.36
737.165	328.55
737.566	286.42
737.967	263.02
738.368	258.34
738.77	300.47
739.171	272.38
739.572	246.63
739.973	342.6
740.374	232.59
740.774	309.83
741.175	258.34
741.576	267.7
741.977	260.68
742.377	349.62
742.778	295.79
743.178	279.4
743.579	246.63
743.979	284.08
744.379	300.47
744.78	312.17
745.18	298.13
745.58	305.15
745.98	258.34
746.38	244.29
746.78	295.79
747.18	302.81
747.58	302.81
747.98	251.32
748.38	328.55
748.779	330.89
749.179	291.1
749.578	295.79
749.978	279.4
750.377	286.42
750.777	300.47
751.176	300.47
751.575	213.87
751.975	279.4
752.374	241.95
752.773	206.84
753.172	253.66
753.571	307.49
753.97	265.36
754.369	274.72
754.768	253.66
755.166	319.19
755.565	298.13
755.964	272.38
756.362	342.6
756.761	314.51
757.159	286.42
757.558	316.85
757.956	263.02
758.354	330.89
758.753	349.62
759.151	246.63
759.549	284.08
759.947	244.29
760.345	305.15
760.743	272.38
761.141	253.66
761.539	300.47
761.936	281.74
762.334	288.76
762.732	286.42
763.129	305.15
763.527	216.21
763.924	361.32
764.322	302.81
764.719	335.57
765.117	302.81
765.514	267.7
765.911	256
766.308	258.34
