Data from Al_FLMS009871__1062__16-27-02-911.txt Node

Date: Fri Mar 08 16:27:02 CST 2024
User: pe5414po
Spectrometer: FLMS00987
Trigger mode: 0
Integration Time (sec): 1.000000E-1
Scans to average: 1
Electric dark correction enabled: true
Nonlinearity correction enabled: false
Boxcar width: 0
XAxis mode: Wavelengths
Number of Pixels in Spectrum: 2048
>>>>>Begin Spectral Data<<<<<
188.938	-70.8
189.409	-70.8
189.879	-70.8
190.349	-115.27
190.819	-166.76
191.29	-77.82
191.76	-87.18
192.23	-166.76
192.7	-103.57
193.17	-59.1
193.64	-9.95
194.109	-94.21
194.579	-68.46
195.049	18.14
195.519	18.14
195.988	78.99
196.458	83.67
196.927	107.08
197.397	74.31
197.866	125.8
198.336	160.91
198.805	214.74
199.274	193.68
199.744	205.38
200.213	137.51
200.682	170.27
201.151	149.21
201.62	172.61
202.089	205.38
202.558	214.74
203.027	231.13
203.495	270.92
203.964	235.81
204.433	270.92
204.902	270.92
205.37	252.19
205.839	289.64
206.307	329.43
206.776	308.37
207.244	331.77
207.712	294.32
208.181	275.6
208.649	315.39
209.117	289.64
209.585	348.15
210.053	310.71
210.521	287.3
210.989	341.13
211.457	299
211.925	320.07
212.393	310.71
212.861	299
213.328	282.62
213.796	308.37
214.264	273.26
214.731	231.13
215.199	336.45
215.666	217.08
216.133	289.64
216.601	254.53
217.068	280.28
217.535	200.7
218.003	231.13
218.47	331.77
218.937	301.34
219.404	266.24
219.871	259.21
220.338	294.32
220.805	259.21
221.271	287.3
221.738	263.9
222.205	256.87
222.671	287.3
223.138	205.38
223.605	242.83
224.071	273.26
224.538	245.17
225.004	294.32
225.47	242.83
225.937	233.47
226.403	259.21
226.869	301.34
227.335	338.79
227.801	313.05
228.267	313.05
228.733	303.68
229.199	268.58
229.665	320.07
230.131	217.08
230.597	249.85
231.062	348.15
231.528	289.64
231.994	249.85
232.459	291.98
232.925	224.11
233.39	235.81
233.856	284.96
234.321	256.87
234.786	291.98
235.252	256.87
235.717	273.26
236.182	217.08
236.647	282.62
237.112	282.62
237.577	263.9
238.042	273.26
238.507	296.66
238.972	240.49
239.436	301.34
239.901	277.94
240.366	324.75
240.83	280.28
241.295	224.11
241.76	320.07
242.224	242.83
242.688	289.64
243.153	270.92
243.617	284.96
244.081	315.39
244.545	284.96
245.01	261.55
245.474	289.64
245.938	343.47
246.402	299
246.866	287.3
247.33	289.64
247.793	299
248.257	299
248.721	256.87
249.185	275.6
249.648	261.55
250.112	317.73
250.575	299
251.039	263.9
251.502	296.66
251.965	284.96
252.429	308.37
252.892	252.19
253.355	235.81
253.818	266.24
254.281	277.94
254.744	294.32
255.207	284.96
255.67	334.11
256.133	338.79
256.596	289.64
257.059	324.75
257.522	287.3
257.984	280.28
258.447	296.66
258.909	284.96
259.372	303.68
259.834	261.55
260.297	238.15
260.759	341.13
261.221	291.98
261.684	352.84
262.146	303.68
262.608	207.72
263.07	324.75
263.532	268.58
263.994	341.13
264.456	296.66
264.918	277.94
265.38	317.73
265.842	308.37
266.303	343.47
266.765	313.05
267.227	317.73
267.688	275.6
268.15	289.64
268.611	280.28
269.072	263.9
269.534	313.05
269.995	315.39
270.456	233.47
270.918	299
271.379	291.98
271.84	254.53
272.301	261.55
272.762	280.28
273.223	327.09
273.684	310.71
274.144	296.66
274.605	336.45
275.066	289.64
275.527	331.77
275.987	380.92
276.448	327.09
276.908	322.41
277.369	345.81
277.829	282.62
278.289	284.96
278.75	345.81
279.21	334.11
279.67	275.6
280.13	334.11
280.59	301.34
281.05	313.05
281.51	331.77
281.97	338.79
282.43	289.64
282.89	273.26
283.35	310.71
283.809	320.07
284.269	249.85
284.729	308.37
285.188	320.07
285.648	235.81
286.107	296.66
286.567	242.83
287.026	317.73
287.485	259.21
287.944	301.34
288.404	355.18
288.863	336.45
289.322	322.41
289.781	317.73
290.24	268.58
290.699	331.77
291.158	364.54
291.616	329.43
292.075	327.09
292.534	284.96
292.992	259.21
293.451	327.09
293.91	301.34
294.368	341.13
294.827	338.79
295.285	289.64
295.743	247.51
296.202	343.47
296.66	282.62
297.118	291.98
297.576	355.18
298.034	338.79
298.492	299
298.95	277.94
299.408	277.94
299.866	280.28
300.324	315.39
300.781	364.54
301.239	308.37
301.697	284.96
302.154	275.6
302.612	331.77
303.069	284.96
303.527	317.73
303.984	296.66
304.441	291.98
304.899	282.62
305.356	291.98
305.813	280.28
306.27	313.05
306.727	235.81
307.184	268.58
307.641	296.66
308.098	261.55
308.555	301.34
309.012	306.03
309.468	369.22
309.925	317.73
310.382	299
310.838	287.3
311.295	224.11
311.751	254.53
312.208	275.6
312.664	256.87
313.12	327.09
313.577	313.05
314.033	357.52
314.489	315.39
314.945	301.34
315.401	303.68
315.857	301.34
316.313	324.75
316.769	299
317.225	259.21
317.681	263.9
318.136	310.71
318.592	350.5
319.048	327.09
319.503	313.05
319.959	301.34
320.414	287.3
320.869	282.62
321.325	261.55
321.78	329.43
322.235	348.15
322.691	303.68
323.146	291.98
323.601	261.55
324.056	315.39
324.511	362.2
324.966	277.94
325.421	259.21
325.875	331.77
326.33	294.32
326.785	341.13
327.24	331.77
327.694	378.58
328.149	357.52
328.603	320.07
329.058	338.79
329.512	249.85
329.966	296.66
330.421	287.3
330.875	343.47
331.329	282.62
331.783	303.68
332.237	345.81
332.691	369.22
333.145	317.73
333.599	291.98
334.053	301.34
334.507	331.77
334.96	334.11
335.414	355.18
335.868	348.15
336.321	301.34
336.775	357.52
337.228	308.37
337.682	270.92
338.135	249.85
338.588	259.21
339.042	324.75
339.495	266.24
339.948	266.24
340.401	266.24
340.854	308.37
341.307	303.68
341.76	273.26
342.213	343.47
342.666	296.66
343.119	359.86
343.571	320.07
344.024	343.47
344.477	369.22
344.929	275.6
345.382	235.81
345.834	334.11
346.287	331.77
346.739	291.98
347.191	254.53
347.644	357.52
348.096	313.05
348.548	343.47
349	231.13
349.452	282.62
349.904	273.26
350.356	376.24
350.808	275.6
351.26	401.99
351.711	306.03
352.163	287.3
352.615	301.34
353.066	334.11
353.518	359.86
353.969	336.45
354.421	280.28
354.872	324.75
355.324	350.5
355.775	282.62
356.226	317.73
356.677	289.64
357.128	275.6
357.579	287.3
358.03	315.39
358.481	341.13
358.932	294.32
359.383	296.66
359.834	331.77
360.285	350.5
360.735	371.56
361.186	310.71
361.637	284.96
362.087	357.52
362.538	320.07
362.988	336.45
363.438	301.34
363.889	329.43
364.339	352.84
364.789	291.98
365.239	266.24
365.689	301.34
366.139	306.03
366.589	313.05
367.039	343.47
367.489	240.49
367.939	334.11
368.389	270.92
368.839	310.71
369.288	270.92
369.738	392.62
370.187	336.45
370.637	289.64
371.086	268.58
371.536	308.37
371.985	313.05
372.434	355.18
372.884	294.32
373.333	364.54
373.782	299
374.231	362.2
374.68	280.28
375.129	324.75
375.578	303.68
376.027	313.05
376.475	317.73
376.924	341.13
377.373	327.09
377.822	310.71
378.27	343.47
378.719	322.41
379.167	277.94
379.616	317.73
380.064	338.79
380.512	308.37
380.961	324.75
381.409	280.28
381.857	303.68
382.305	371.56
382.753	359.86
383.201	322.41
383.649	317.73
384.097	338.79
384.545	308.37
384.992	296.66
385.44	282.62
385.888	284.96
386.335	352.84
386.783	336.45
387.231	303.68
387.678	357.52
388.125	235.81
388.573	341.13
389.02	256.87
389.467	287.3
389.914	334.11
390.362	315.39
390.809	277.94
391.256	310.71
391.703	294.32
392.15	299
392.596	294.32
393.043	345.81
393.49	306.03
393.937	296.66
394.383	331.77
394.83	399.65
395.276	289.64
395.723	350.5
396.169	289.64
396.616	301.34
397.062	308.37
397.508	322.41
397.954	329.43
398.401	308.37
398.847	371.56
399.293	369.22
399.739	320.07
400.185	348.15
400.631	355.18
401.076	331.77
401.522	320.07
401.968	306.03
402.414	334.11
402.859	294.32
403.305	287.3
403.75	329.43
404.196	303.68
404.641	308.37
405.086	352.84
405.532	308.37
405.977	306.03
406.422	301.34
406.867	378.58
407.312	350.5
407.757	299
408.202	280.28
408.647	310.71
409.092	371.56
409.537	385.6
409.982	359.86
410.426	284.96
410.871	334.11
411.316	336.45
411.76	324.75
412.205	338.79
412.649	334.11
413.093	336.45
413.538	275.6
413.982	336.45
414.426	296.66
414.87	247.51
415.314	256.87
415.758	277.94
416.202	331.77
416.646	322.41
417.09	320.07
417.534	348.15
417.978	313.05
418.421	249.85
418.865	334.11
419.309	348.15
419.752	343.47
420.196	376.24
420.639	331.77
421.083	313.05
421.526	348.15
421.969	284.96
422.412	287.3
422.856	324.75
423.299	371.56
423.742	306.03
424.185	334.11
424.628	280.28
425.071	266.24
425.513	308.37
425.956	336.45
426.399	299
426.842	313.05
427.284	380.92
427.727	336.45
428.169	313.05
428.612	247.51
429.054	296.66
429.497	364.54
429.939	322.41
430.381	277.94
430.823	338.79
431.265	317.73
431.707	308.37
432.149	235.81
432.591	350.5
433.033	291.98
433.475	392.62
433.917	345.81
434.359	324.75
434.8	348.15
435.242	315.39
435.684	289.64
436.125	350.5
436.567	378.58
437.008	343.47
437.449	327.09
437.891	336.45
438.332	357.52
438.773	315.39
439.214	322.41
439.656	299
440.097	308.37
440.538	348.15
440.978	284.96
441.419	315.39
441.86	345.81
442.301	378.58
442.742	320.07
443.182	273.26
443.623	331.77
444.063	303.68
444.504	357.52
444.944	296.66
445.385	296.66
445.825	315.39
446.265	310.71
446.706	315.39
447.146	387.94
447.586	303.68
448.026	284.96
448.466	352.84
448.906	331.77
449.346	329.43
449.786	324.75
450.225	287.3
450.665	331.77
451.105	315.39
451.544	338.79
451.984	345.81
452.424	359.86
452.863	254.53
453.302	317.73
453.742	343.47
454.181	289.64
454.62	273.26
455.059	291.98
455.499	284.96
455.938	322.41
456.377	280.28
456.816	310.71
457.254	296.66
457.693	301.34
458.132	366.88
458.571	355.18
459.01	324.75
459.448	308.37
459.887	291.98
460.325	362.2
460.764	364.54
461.202	303.68
461.641	303.68
462.079	357.52
462.517	373.9
462.955	336.45
463.393	301.34
463.832	254.53
464.27	282.62
464.708	369.22
465.145	369.22
465.583	306.03
466.021	254.53
466.459	249.85
466.897	366.88
467.334	320.07
467.772	383.26
468.209	315.39
468.647	294.32
469.084	338.79
469.522	329.43
469.959	280.28
470.396	317.73
470.833	277.94
471.271	329.43
471.708	357.52
472.145	322.41
472.582	256.87
473.019	336.45
473.456	263.9
473.892	348.15
474.329	287.3
474.766	268.58
475.202	359.86
475.639	315.39
476.076	348.15
476.512	313.05
476.949	233.47
477.385	277.94
477.821	416.03
478.258	343.47
478.694	310.71
479.13	341.13
479.566	275.6
480.002	348.15
480.438	247.51
480.874	310.71
481.31	310.71
481.746	320.07
482.181	296.66
482.617	301.34
483.053	259.21
483.488	343.47
483.924	259.21
484.36	303.68
484.795	362.2
485.23	270.92
485.666	294.32
486.101	336.45
486.536	306.03
486.971	341.13
487.407	336.45
487.842	352.84
488.277	331.77
488.712	355.18
489.146	301.34
489.581	299
490.016	336.45
490.451	409.01
490.885	336.45
491.32	296.66
491.755	303.68
492.189	355.18
492.624	359.86
493.058	364.54
493.492	322.41
493.927	366.88
494.361	364.54
494.795	334.11
495.229	299
495.663	268.58
496.097	268.58
496.531	280.28
496.965	345.81
497.399	280.28
497.833	308.37
498.266	336.45
498.7	341.13
499.134	284.96
499.567	327.09
500.001	341.13
500.434	242.83
500.868	334.11
501.301	329.43
501.734	299
502.168	301.34
502.601	331.77
503.034	359.86
503.467	343.47
503.9	280.28
504.333	320.07
504.766	329.43
505.199	249.85
505.632	317.73
506.064	308.37
506.497	296.66
506.93	277.94
507.362	299
507.795	355.18
508.227	313.05
508.66	341.13
509.092	327.09
509.524	299
509.956	294.32
510.389	306.03
510.821	334.11
511.253	289.64
511.685	313.05
512.117	324.75
512.549	275.6
512.981	275.6
513.412	313.05
513.844	352.84
514.276	369.22
514.707	306.03
515.139	291.98
515.571	320.07
516.002	308.37
516.433	287.3
516.865	270.92
517.296	352.84
517.727	282.62
518.159	341.13
518.59	373.9
519.021	341.13
519.452	289.64
519.883	352.84
520.314	287.3
520.744	313.05
521.175	329.43
521.606	299
522.037	322.41
522.467	355.18
522.898	338.79
523.328	282.62
523.759	327.09
524.189	273.26
524.62	341.13
525.05	380.92
525.48	268.58
525.91	341.13
526.341	282.62
526.771	296.66
527.201	303.68
527.631	303.68
528.061	296.66
528.49	334.11
528.92	331.77
529.35	399.65
529.78	366.88
530.209	331.77
530.639	369.22
531.068	277.94
531.498	317.73
531.927	320.07
532.357	310.71
532.786	306.03
533.215	317.73
533.644	299
534.074	334.11
534.503	352.84
534.932	284.96
535.361	317.73
535.79	303.68
536.218	373.9
536.647	327.09
537.076	315.39
537.505	355.18
537.933	263.9
538.362	289.64
538.79	242.83
539.219	313.05
539.647	280.28
540.076	357.52
540.504	275.6
540.932	359.86
541.36	380.92
541.788	350.5
542.217	296.66
542.645	338.79
543.073	282.62
543.5	242.83
543.928	306.03
544.356	322.41
544.784	343.47
545.211	348.15
545.639	284.96
546.067	261.55
546.494	376.24
546.922	280.28
547.349	273.26
547.776	362.2
548.204	252.19
548.631	287.3
549.058	224.11
549.485	226.45
549.912	242.83
550.339	322.41
550.766	247.51
551.193	299
551.62	273.26
552.047	350.5
552.474	296.66
552.9	371.56
553.327	331.77
553.754	315.39
554.18	277.94
554.607	322.41
555.033	355.18
555.459	334.11
555.886	327.09
556.312	359.86
556.738	357.52
557.164	275.6
557.59	252.19
558.016	341.13
558.442	287.3
558.868	301.34
559.294	277.94
559.72	350.5
560.145	334.11
560.571	345.81
560.997	315.39
561.422	383.26
561.848	306.03
562.273	284.96
562.699	373.9
563.124	327.09
563.549	270.92
563.974	299
564.4	287.3
564.825	355.18
565.25	256.87
565.675	387.94
566.1	359.86
566.525	350.5
566.95	341.13
567.374	296.66
567.799	263.9
568.224	348.15
568.648	291.98
569.073	338.79
569.497	313.05
569.922	306.03
570.346	338.79
570.771	324.75
571.195	390.28
571.619	376.24
572.043	327.09
572.467	249.85
572.891	275.6
573.315	411.35
573.739	399.65
574.163	392.62
574.587	350.5
575.011	320.07
575.435	350.5
575.858	308.37
576.282	327.09
576.705	282.62
577.129	352.84
577.552	343.47
577.976	266.24
578.399	355.18
578.822	324.75
579.245	322.41
579.669	280.28
580.092	301.34
580.515	327.09
580.938	317.73
581.361	343.47
581.784	336.45
582.206	296.66
582.629	299
583.052	299
583.474	350.5
583.897	303.68
584.32	238.15
584.742	313.05
585.165	359.86
585.587	329.43
586.009	287.3
586.431	296.66
586.854	306.03
587.276	296.66
587.698	324.75
588.12	345.81
588.542	317.73
588.964	289.64
589.386	331.77
589.807	341.13
590.229	327.09
590.651	313.05
591.073	327.09
591.494	324.75
591.916	306.03
592.337	317.73
592.759	282.62
593.18	350.5
593.601	387.94
594.022	317.73
594.444	270.92
594.865	334.11
595.286	385.6
595.707	263.9
596.128	369.22
596.549	336.45
596.97	345.81
597.39	343.47
597.811	380.92
598.232	315.39
598.652	322.41
599.073	303.68
599.494	327.09
599.914	317.73
600.334	313.05
600.755	296.66
601.175	320.07
601.595	336.45
602.015	313.05
602.436	301.34
602.856	416.03
603.276	301.34
603.696	341.13
604.115	357.52
604.535	310.71
604.955	329.43
605.375	301.34
605.794	291.98
606.214	310.71
606.634	310.71
607.053	315.39
607.473	380.92
607.892	273.26
608.311	366.88
608.731	390.28
609.15	303.68
609.569	289.64
609.988	352.84
610.407	376.24
610.826	313.05
611.245	329.43
611.664	289.64
612.083	322.41
612.501	315.39
612.92	371.56
613.339	380.92
613.757	317.73
614.176	390.28
614.594	336.45
615.013	308.37
615.431	280.28
615.85	299
616.268	275.6
616.686	331.77
617.104	355.18
617.522	294.32
617.94	299
618.358	315.39
618.776	338.79
619.194	308.37
619.612	334.11
620.03	331.77
620.447	313.05
620.865	348.15
621.282	373.9
621.7	359.86
622.117	324.75
622.535	320.07
622.952	324.75
623.369	289.64
623.787	315.39
624.204	345.81
624.621	371.56
625.038	327.09
625.455	303.68
625.872	303.68
626.289	364.54
626.706	364.54
627.123	294.32
627.539	352.84
627.956	306.03
628.373	373.9
628.789	336.45
629.206	296.66
629.622	294.32
630.038	303.68
630.455	350.5
630.871	355.18
631.287	275.6
631.703	291.98
632.12	320.07
632.536	352.84
632.952	322.41
633.368	324.75
633.783	334.11
634.199	287.3
634.615	313.05
635.031	320.07
635.446	280.28
635.862	256.87
636.277	355.18
636.693	268.58
637.108	306.03
637.524	341.13
637.939	287.3
638.354	345.81
638.77	322.41
639.185	331.77
639.6	273.26
640.015	322.41
640.43	289.64
640.845	315.39
641.259	320.07
641.674	301.34
642.089	334.11
642.504	350.5
642.918	345.81
643.333	310.71
643.747	357.52
644.162	313.05
644.576	334.11
644.991	299
645.405	320.07
645.819	409.01
646.233	348.15
646.647	322.41
647.061	327.09
647.475	287.3
647.889	327.09
648.303	357.52
648.717	282.62
649.131	327.09
649.545	303.68
649.958	275.6
650.372	306.03
650.785	338.79
651.199	336.45
651.612	362.2
652.026	263.9
652.439	303.68
652.852	362.2
653.266	275.6
653.679	313.05
654.092	310.71
654.505	352.84
654.918	373.9
655.331	301.34
655.744	362.2
656.156	277.94
656.569	303.68
656.982	238.15
657.394	329.43
657.807	350.5
658.22	327.09
658.632	306.03
659.044	287.3
659.457	343.47
659.869	324.75
660.281	331.77
660.693	364.54
661.106	392.62
661.518	341.13
661.93	317.73
662.342	296.66
662.754	261.55
663.165	369.22
663.577	320.07
663.989	275.6
664.401	327.09
664.812	308.37
665.224	324.75
665.635	343.47
666.047	301.34
666.458	313.05
666.869	327.09
667.281	331.77
667.692	303.68
668.103	338.79
668.514	306.03
668.925	289.64
669.336	348.15
669.747	380.92
670.158	324.75
670.569	336.45
670.979	261.55
671.39	315.39
671.801	275.6
672.211	331.77
672.622	266.24
673.032	275.6
673.443	369.22
673.853	320.07
674.263	357.52
674.674	221.77
675.084	282.62
675.494	301.34
675.904	315.39
676.314	343.47
676.724	392.62
677.134	329.43
677.544	329.43
677.953	303.68
678.363	242.83
678.773	308.37
679.182	324.75
679.592	348.15
680.001	334.11
680.411	336.45
680.82	303.68
681.23	284.96
681.639	329.43
682.048	373.9
682.457	308.37
682.866	343.47
683.275	277.94
683.684	310.71
684.093	299
684.502	308.37
684.911	336.45
685.32	294.32
685.728	348.15
686.137	313.05
686.546	294.32
686.954	256.87
687.363	357.52
687.771	301.34
688.179	310.71
688.588	282.62
688.996	334.11
689.404	315.39
689.812	306.03
690.22	273.26
690.628	338.79
691.036	322.41
691.444	369.22
691.852	341.13
692.26	268.58
692.667	291.98
693.075	343.47
693.483	324.75
693.89	245.17
694.298	313.05
694.705	348.15
695.112	378.58
695.52	280.28
695.927	296.66
696.334	277.94
696.741	287.3
697.148	380.92
697.555	355.18
697.962	284.96
698.369	303.68
698.776	313.05
699.183	294.32
699.59	378.58
699.996	282.62
700.403	315.39
700.81	371.56
701.216	357.52
701.623	324.75
702.029	291.98
702.435	270.92
702.842	336.45
703.248	273.26
703.654	294.32
704.06	296.66
704.466	303.68
704.872	341.13
705.278	357.52
705.684	343.47
706.09	317.73
706.496	352.84
706.901	310.71
707.307	329.43
707.712	341.13
708.118	242.83
708.523	280.28
708.929	334.11
709.334	310.71
709.74	235.81
710.145	364.54
710.55	345.81
710.955	369.22
711.36	301.34
711.765	334.11
712.17	336.45
712.575	303.68
712.98	727.32
713.385	324.75
713.789	317.73
714.194	294.32
714.599	376.24
715.003	406.67
715.408	359.86
715.812	303.68
716.217	320.07
716.621	291.98
717.025	282.62
717.429	376.24
717.833	329.43
718.238	320.07
718.642	320.07
719.046	277.94
719.449	320.07
719.853	306.03
720.257	301.34
720.661	259.21
721.065	275.6
721.468	324.75
721.872	373.9
722.275	343.47
722.679	275.6
723.082	338.79
723.485	331.77
723.889	219.43
724.292	299
724.695	362.2
725.098	343.47
725.501	362.2
725.904	287.3
726.307	308.37
726.71	299
727.113	327.09
727.516	317.73
727.918	313.05
728.321	289.64
728.724	397.31
729.126	294.32
729.529	322.41
729.931	357.52
730.333	322.41
730.736	296.66
731.138	310.71
731.54	338.79
731.942	301.34
732.344	329.43
732.746	299
733.148	348.15
733.55	282.62
733.952	291.98
734.354	240.49
734.756	299
735.157	343.47
735.559	324.75
735.96	249.85
736.362	289.64
736.763	331.77
737.165	299
737.566	369.22
737.967	336.45
738.368	238.15
738.77	306.03
739.171	345.81
739.572	291.98
739.973	299
740.374	324.75
740.774	313.05
741.175	299
741.576	320.07
741.977	355.18
742.377	299
742.778	366.88
743.178	341.13
743.579	320.07
743.979	359.86
744.379	327.09
744.78	287.3
745.18	296.66
745.58	338.79
745.98	324.75
746.38	331.77
746.78	275.6
747.18	359.86
747.58	245.17
747.98	364.54
748.38	324.75
748.779	371.56
749.179	268.58
749.578	268.58
749.978	327.09
750.377	303.68
750.777	313.05
751.176	373.9
751.575	280.28
751.975	350.5
752.374	254.53
752.773	277.94
753.172	303.68
753.571	294.32
753.97	291.98
754.369	273.26
754.768	261.55
755.166	385.6
755.565	334.11
755.964	291.98
756.362	334.11
756.761	322.41
757.159	301.34
757.558	322.41
757.956	315.39
758.354	299
758.753	296.66
759.151	310.71
759.549	291.98
759.947	299
760.345	331.77
760.743	345.81
761.141	338.79
761.539	334.11
761.936	280.28
762.334	306.03
762.732	331.77
763.129	352.84
763.527	359.86
763.924	308.37
764.322	294.32
764.719	273.26
765.117	350.5
765.514	291.98
765.911	317.73
766.308	254.53
766.705	301.34
767.102	329.43
767.499	320.07
