Data from Al_FLMS009871__534__14-41-46-322.txt Node

Date: Fri Mar 08 14:41:46 CST 2024
User: pe5414po
Spectrometer: FLMS00987
Trigger mode: 0
Integration Time (sec): 1.000000E-1
Scans to average: 1
Electric dark correction enabled: true
Nonlinearity correction enabled: false
Boxcar width: 0
XAxis mode: Wavelengths
Number of Pixels in Spectrum: 2048
>>>>>Begin Spectral Data<<<<<
188.938	-57.34
189.409	-57.34
189.879	-57.34
190.349	-127.56
190.819	-155.65
191.29	-127.56
191.76	-85.43
192.23	-136.92
192.7	-36.28
193.17	-101.81
193.64	-92.45
194.109	-47.98
194.579	57.34
195.049	38.62
195.519	29.26
195.988	43.3
196.458	17.55
196.927	62.02
197.397	150.96
197.866	118.2
198.336	111.18
198.805	125.22
199.274	176.71
199.744	193.09
200.213	214.16
200.682	153.31
201.151	272.67
201.62	275.01
202.089	218.84
202.558	251.61
203.027	211.82
203.495	291.4
203.964	230.54
204.433	253.95
204.902	298.42
205.37	345.23
205.839	216.5
206.307	349.91
206.776	272.67
207.244	246.93
207.712	293.74
208.181	342.89
208.649	370.97
209.117	305.44
209.585	277.35
210.053	389.7
210.521	284.38
210.989	284.38
211.457	359.27
211.925	303.1
212.393	298.42
212.861	300.76
213.328	319.48
213.796	267.99
214.264	342.89
214.731	312.46
215.199	300.76
215.666	296.08
216.133	242.25
216.601	312.46
217.068	291.4
217.535	296.08
218.003	298.42
218.47	303.1
218.937	263.31
219.404	244.59
219.871	279.69
220.338	335.87
220.805	253.95
221.271	244.59
221.738	347.57
222.205	279.69
222.671	265.65
223.138	258.63
223.605	277.35
224.071	267.99
224.538	265.65
225.004	221.18
225.47	275.01
225.937	204.8
226.403	265.65
226.869	202.46
227.335	246.93
227.801	296.08
228.267	209.48
228.733	258.63
229.199	218.84
229.665	282.03
230.131	275.01
230.597	263.31
231.062	289.06
231.528	244.59
231.994	235.22
232.459	272.67
232.925	230.54
233.39	218.84
233.856	324.16
234.321	272.67
234.786	235.22
235.252	260.97
235.717	319.48
236.182	265.65
236.647	310.12
237.112	282.03
237.577	237.56
238.042	310.12
238.507	310.12
238.972	253.95
239.436	253.95
239.901	314.8
240.366	319.48
240.83	314.8
241.295	310.12
241.76	296.08
242.224	242.25
242.688	291.4
243.153	218.84
243.617	286.72
244.081	256.29
244.545	265.65
245.01	249.27
245.474	249.27
245.938	298.42
246.402	258.63
246.866	235.22
247.33	270.33
247.793	279.69
248.257	335.87
248.721	260.97
249.185	314.8
249.648	251.61
250.112	265.65
250.575	214.16
251.039	303.1
251.502	228.2
251.965	256.29
252.429	249.27
252.892	289.06
253.355	300.76
253.818	370.97
254.281	333.53
254.744	186.07
255.207	251.61
255.67	328.85
256.133	284.38
256.596	317.14
257.059	284.38
257.522	307.78
257.984	258.63
258.447	310.12
258.909	270.33
259.372	258.63
259.834	373.32
260.297	349.91
260.759	286.72
261.221	284.38
261.684	279.69
262.146	256.29
262.608	328.85
263.07	331.19
263.532	305.44
263.994	279.69
264.456	277.35
264.918	310.12
265.38	286.72
265.842	293.74
266.303	265.65
266.765	317.14
267.227	277.35
267.688	340.55
268.15	342.89
268.611	296.08
269.072	289.06
269.534	232.88
269.995	310.12
270.456	284.38
270.918	307.78
271.379	284.38
271.84	209.48
272.301	225.86
272.762	314.8
273.223	303.1
273.684	375.66
274.144	319.48
274.605	300.76
275.066	275.01
275.527	352.25
275.987	366.29
276.448	277.35
276.908	305.44
277.369	328.85
277.829	326.5
278.289	296.08
278.75	317.14
279.21	256.29
279.67	258.63
280.13	331.19
280.59	246.93
281.05	279.69
281.51	277.35
281.97	260.97
282.43	272.67
282.89	300.76
283.35	298.42
283.809	326.5
284.269	303.1
284.729	277.35
285.188	296.08
285.648	359.27
286.107	289.06
286.567	319.48
287.026	363.95
287.485	279.69
287.944	324.16
288.404	307.78
288.863	272.67
289.322	284.38
289.781	317.14
290.24	284.38
290.699	335.87
291.158	305.44
291.616	366.29
292.075	275.01
292.534	394.38
292.992	228.2
293.451	307.78
293.91	272.67
294.368	324.16
294.827	361.61
295.285	296.08
295.743	298.42
296.202	305.44
296.66	312.46
297.118	331.19
297.576	345.23
298.034	387.36
298.492	289.06
298.95	291.4
299.408	310.12
299.866	289.06
300.324	314.8
300.781	293.74
301.239	333.53
301.697	324.16
302.154	359.27
302.612	340.55
303.069	305.44
303.527	368.63
303.984	279.69
304.441	282.03
304.899	296.08
305.356	331.19
305.813	239.9
306.27	307.78
306.727	300.76
307.184	349.91
307.641	286.72
308.098	373.32
308.555	312.46
309.012	282.03
309.468	267.99
309.925	345.23
310.382	359.27
310.838	305.44
311.295	267.99
311.751	279.69
312.208	317.14
312.664	300.76
313.12	242.25
313.577	345.23
314.033	303.1
314.489	331.19
314.945	356.93
315.401	256.29
315.857	284.38
316.313	314.8
316.769	249.27
317.225	282.03
317.681	389.7
318.136	291.4
318.592	307.78
319.048	284.38
319.503	267.99
319.959	368.63
320.414	277.35
320.869	251.61
321.325	333.53
321.78	284.38
322.235	239.9
322.691	275.01
323.146	326.5
323.601	289.06
324.056	324.16
324.511	340.55
324.966	310.12
325.421	326.5
325.875	317.14
326.33	349.91
326.785	310.12
327.24	370.97
327.694	317.14
328.149	312.46
328.603	282.03
329.058	310.12
329.512	284.38
329.966	340.55
330.421	310.12
330.875	296.08
331.329	347.57
331.783	291.4
332.237	267.99
332.691	319.48
333.145	284.38
333.599	296.08
334.053	338.21
334.507	312.46
334.96	282.03
335.414	370.97
335.868	256.29
336.321	333.53
336.775	272.67
337.228	296.08
337.682	406.08
338.135	277.35
338.588	321.82
339.042	291.4
339.495	298.42
339.948	277.35
340.401	326.5
340.854	356.93
341.307	286.72
341.76	279.69
342.213	298.42
342.666	363.95
343.119	305.44
343.571	307.78
344.024	317.14
344.477	373.32
344.929	293.74
345.382	340.55
345.834	326.5
346.287	321.82
346.739	387.36
347.191	310.12
347.644	366.29
348.096	293.74
348.548	328.85
349	314.8
349.452	305.44
349.904	338.21
350.356	319.48
350.808	347.57
351.26	298.42
351.711	270.33
352.163	272.67
352.615	324.16
353.066	324.16
353.518	298.42
353.969	392.04
354.421	249.27
354.872	349.91
355.324	321.82
355.775	270.33
356.226	335.87
356.677	279.69
357.128	328.85
357.579	305.44
358.03	326.5
358.481	279.69
358.932	284.38
359.383	272.67
359.834	307.78
360.285	312.46
360.735	284.38
361.186	366.29
361.637	356.93
362.087	326.5
362.538	314.8
362.988	333.53
363.438	291.4
363.889	333.53
364.339	326.5
364.789	265.65
365.239	321.82
365.689	267.99
366.139	359.27
366.589	331.19
367.039	300.76
367.489	277.35
367.939	335.87
368.389	253.95
368.839	347.57
369.288	282.03
369.738	335.87
370.187	279.69
370.637	267.99
371.086	347.57
371.536	305.44
371.985	312.46
372.434	265.65
372.884	331.19
373.333	375.66
373.782	420.13
374.231	324.16
374.68	267.99
375.129	394.38
375.578	305.44
376.027	317.14
376.475	335.87
376.924	284.38
377.373	319.48
377.822	387.36
378.27	354.59
378.719	293.74
379.167	347.57
379.616	375.66
380.064	328.85
380.512	340.55
380.961	328.85
381.409	352.25
381.857	291.4
382.305	352.25
382.753	356.93
383.201	333.53
383.649	387.36
384.097	319.48
384.545	293.74
384.992	375.66
385.44	298.42
385.888	333.53
386.335	328.85
386.783	291.4
387.231	282.03
387.678	312.46
388.125	275.01
388.573	342.89
389.02	324.16
389.467	310.12
389.914	361.61
390.362	324.16
390.809	298.42
391.256	331.19
391.703	277.35
392.15	359.27
392.596	293.74
393.043	331.19
393.49	328.85
393.937	279.69
394.383	319.48
394.83	296.08
395.276	385.02
395.723	253.95
396.169	289.06
396.616	366.29
397.062	312.46
397.508	314.8
397.954	324.16
398.401	265.65
398.847	244.59
399.293	342.89
399.739	317.14
400.185	373.32
400.631	319.48
401.076	282.03
401.522	298.42
401.968	275.01
402.414	326.5
402.859	338.21
403.305	380.34
403.75	312.46
404.196	333.53
404.641	378
405.086	310.12
405.532	392.04
405.977	277.35
406.422	335.87
406.867	286.72
407.312	342.89
407.757	321.82
408.202	298.42
408.647	321.82
409.092	345.23
409.537	349.91
409.982	422.47
410.426	349.91
410.871	394.38
411.316	326.5
411.76	305.44
412.205	263.31
412.649	356.93
413.093	356.93
413.538	312.46
413.982	293.74
414.426	338.21
414.87	314.8
415.314	305.44
415.758	375.66
416.202	319.48
416.646	333.53
417.09	317.14
417.534	246.93
417.978	324.16
418.421	356.93
418.865	265.65
419.309	312.46
419.752	296.08
420.196	293.74
420.639	333.53
421.083	310.12
421.526	356.93
421.969	363.95
422.412	328.85
422.856	321.82
423.299	370.97
423.742	324.16
424.185	270.33
424.628	328.85
425.071	375.66
425.513	242.25
425.956	312.46
426.399	317.14
426.842	319.48
427.284	324.16
427.727	289.06
428.169	338.21
428.612	289.06
429.054	366.29
429.497	331.19
429.939	345.23
430.381	328.85
430.823	312.46
431.265	333.53
431.707	370.97
432.149	279.69
432.591	305.44
433.033	230.54
433.475	256.29
433.917	265.65
434.359	284.38
434.8	284.38
435.242	242.25
435.684	370.97
436.125	310.12
436.567	272.67
437.008	310.12
437.449	260.97
437.891	251.61
438.332	342.89
438.773	319.48
439.214	286.72
439.656	392.04
440.097	335.87
440.538	298.42
440.978	286.72
441.419	340.55
441.86	312.46
442.301	307.78
442.742	317.14
443.182	321.82
443.623	291.4
444.063	263.31
444.504	354.59
444.944	284.38
445.385	291.4
445.825	305.44
446.265	356.93
446.706	284.38
447.146	347.57
447.586	375.66
448.026	293.74
448.466	328.85
448.906	286.72
449.346	305.44
449.786	319.48
450.225	305.44
450.665	361.61
451.105	321.82
451.544	349.91
451.984	324.16
452.424	424.81
452.863	326.5
453.302	319.48
453.742	347.57
454.181	303.1
454.62	286.72
455.059	251.61
455.499	333.53
455.938	342.89
456.377	333.53
456.816	321.82
457.254	270.33
457.693	307.78
458.132	214.16
458.571	275.01
459.01	356.93
459.448	326.5
459.887	298.42
460.325	270.33
460.764	305.44
461.202	300.76
461.641	345.23
462.079	335.87
462.517	340.55
462.955	293.74
463.393	314.8
463.832	293.74
464.27	387.36
464.708	338.21
465.145	291.4
465.583	335.87
466.021	324.16
466.459	319.48
466.897	342.89
467.334	305.44
467.772	321.82
468.209	331.19
468.647	291.4
469.084	326.5
469.522	293.74
469.959	375.66
470.396	324.16
470.833	310.12
471.271	307.78
471.708	352.25
472.145	380.34
472.582	312.46
473.019	342.89
473.456	354.59
473.892	279.69
474.329	312.46
474.766	361.61
475.202	293.74
475.639	349.91
476.076	289.06
476.512	333.53
476.949	382.68
477.385	333.53
477.821	375.66
478.258	331.19
478.694	349.91
479.13	335.87
479.566	298.42
480.002	277.35
480.438	361.61
480.874	338.21
481.31	279.69
481.746	321.82
482.181	359.27
482.617	317.14
483.053	370.97
483.488	321.82
483.924	338.21
484.36	352.25
484.795	321.82
485.23	317.14
485.666	314.8
486.101	366.29
486.536	312.46
486.971	333.53
487.407	331.19
487.842	284.38
488.277	300.76
488.712	328.85
489.146	293.74
489.581	300.76
490.016	389.7
490.451	338.21
490.885	324.16
491.32	282.03
491.755	305.44
492.189	298.42
492.624	310.12
493.058	289.06
493.492	272.67
493.927	326.5
494.361	298.42
494.795	338.21
495.229	307.78
495.663	239.9
496.097	303.1
496.531	326.5
496.965	314.8
497.399	317.14
497.833	340.55
498.266	352.25
498.7	354.59
499.134	335.87
499.567	312.46
500.001	267.99
500.434	349.91
500.868	321.82
501.301	293.74
501.734	286.72
502.168	382.68
502.601	286.72
503.034	253.95
503.467	338.21
503.9	354.59
504.333	363.95
504.766	298.42
505.199	258.63
505.632	258.63
506.064	326.5
506.497	317.14
506.93	387.36
507.362	303.1
507.795	335.87
508.227	335.87
508.66	340.55
509.092	263.31
509.524	305.44
509.956	331.19
510.389	326.5
510.821	291.4
511.253	338.21
511.685	387.36
512.117	291.4
512.549	378
512.981	385.02
513.412	258.63
513.844	282.03
514.276	356.93
514.707	305.44
515.139	277.35
515.571	289.06
516.002	305.44
516.433	356.93
516.865	293.74
517.296	317.14
517.727	387.36
518.159	345.23
518.59	291.4
519.021	333.53
519.452	335.87
519.883	319.48
520.314	387.36
520.744	333.53
521.175	293.74
521.606	279.69
522.037	333.53
522.467	352.25
522.898	284.38
523.328	267.99
523.759	335.87
524.189	260.97
524.62	284.38
525.05	291.4
525.48	345.23
525.91	256.29
526.341	303.1
526.771	324.16
527.201	342.89
527.631	303.1
528.061	272.67
528.49	300.76
528.92	392.04
529.35	345.23
529.78	272.67
530.209	267.99
530.639	324.16
531.068	349.91
531.498	345.23
531.927	328.85
532.357	378
532.786	335.87
533.215	342.89
533.644	275.01
534.074	328.85
534.503	291.4
534.932	363.95
535.361	307.78
535.79	333.53
536.218	249.27
536.647	356.93
537.076	345.23
537.505	378
537.933	293.74
538.362	368.63
538.79	310.12
539.219	317.14
539.647	361.61
540.076	314.8
540.504	324.16
540.932	286.72
541.36	312.46
541.788	326.5
542.217	373.32
542.645	349.91
543.073	279.69
543.5	319.48
543.928	303.1
544.356	293.74
544.784	347.57
545.211	321.82
545.639	277.35
546.067	328.85
546.494	333.53
546.922	300.76
547.349	277.35
547.776	331.19
548.204	361.61
548.631	321.82
549.058	385.02
549.485	349.91
549.912	239.9
550.339	298.42
550.766	356.93
551.193	324.16
551.62	342.89
552.047	326.5
552.474	345.23
552.9	356.93
553.327	335.87
553.754	312.46
554.18	317.14
554.607	373.32
555.033	300.76
555.459	251.61
555.886	338.21
556.312	396.72
556.738	331.19
557.164	319.48
557.59	378
558.016	310.12
558.442	296.08
558.868	291.4
559.294	338.21
559.72	319.48
560.145	352.25
560.571	345.23
560.997	305.44
561.422	328.85
561.848	286.72
562.273	284.38
562.699	326.5
563.124	368.63
563.549	366.29
563.974	326.5
564.4	370.97
564.825	335.87
565.25	356.93
565.675	305.44
566.1	275.01
566.525	307.78
566.95	307.78
567.374	333.53
567.799	284.38
568.224	333.53
568.648	289.06
569.073	321.82
569.497	312.46
569.922	319.48
570.346	349.91
570.771	284.38
571.195	267.99
571.619	328.85
572.043	319.48
572.467	366.29
572.891	352.25
573.315	373.32
573.739	366.29
574.163	366.29
574.587	310.12
575.011	270.33
575.435	265.65
575.858	282.03
576.282	324.16
576.705	282.03
577.129	237.56
577.552	324.16
577.976	324.16
578.399	270.33
578.822	319.48
579.245	282.03
579.669	260.97
580.092	335.87
580.515	321.82
580.938	314.8
581.361	352.25
581.784	349.91
582.206	331.19
582.629	328.85
583.052	354.59
583.474	378
583.897	366.29
584.32	253.95
584.742	267.99
585.165	392.04
585.587	286.72
586.009	342.89
586.431	314.8
586.854	260.97
587.276	359.27
587.698	265.65
588.12	396.72
588.542	387.36
588.964	298.42
589.386	338.21
589.807	267.99
590.229	305.44
590.651	324.16
591.073	242.25
591.494	282.03
591.916	284.38
592.337	349.91
592.759	307.78
593.18	232.88
593.601	328.85
594.022	291.4
594.444	272.67
594.865	359.27
595.286	270.33
595.707	305.44
596.128	324.16
596.549	282.03
596.97	394.38
597.39	331.19
597.811	335.87
598.232	359.27
598.652	324.16
599.073	356.93
599.494	324.16
599.914	312.46
600.334	314.8
600.755	331.19
601.175	319.48
601.595	321.82
602.015	300.76
602.436	312.46
602.856	427.15
603.276	291.4
603.696	347.57
604.115	324.16
604.535	356.93
604.955	284.38
605.375	291.4
605.794	291.4
606.214	256.29
606.634	385.02
607.053	356.93
607.473	305.44
607.892	253.95
608.311	403.74
608.731	291.4
609.15	282.03
609.569	340.55
609.988	319.48
610.407	277.35
610.826	328.85
611.245	333.53
611.664	352.25
612.083	356.93
612.501	335.87
612.92	314.8
613.339	354.59
613.757	335.87
614.176	305.44
614.594	293.74
615.013	232.88
615.431	298.42
615.85	270.33
616.268	307.78
616.686	366.29
617.104	317.14
617.522	317.14
617.94	293.74
618.358	317.14
618.776	324.16
619.194	335.87
619.612	321.82
620.03	305.44
620.447	312.46
620.865	326.5
621.282	317.14
621.7	333.53
622.117	410.76
622.535	282.03
622.952	289.06
623.369	289.06
623.787	349.91
624.204	326.5
624.621	342.89
625.038	321.82
625.455	298.42
625.872	319.48
626.289	298.42
626.706	335.87
627.123	342.89
627.539	382.68
627.956	361.61
628.373	359.27
628.789	340.55
629.206	279.69
629.622	303.1
630.038	340.55
630.455	286.72
630.871	291.4
631.287	289.06
631.703	319.48
632.12	324.16
632.536	270.33
632.952	277.35
633.368	382.68
633.783	370.97
634.199	307.78
634.615	260.97
635.031	368.63
635.446	321.82
635.862	289.06
636.277	321.82
636.693	373.32
637.108	305.44
637.524	328.85
637.939	359.27
638.354	230.54
638.77	298.42
639.185	289.06
639.6	342.89
640.015	352.25
640.43	303.1
640.845	349.91
641.259	321.82
641.674	307.78
642.089	256.29
642.504	342.89
642.918	296.08
643.333	277.35
643.747	382.68
644.162	375.66
644.576	256.29
644.991	345.23
645.405	354.59
645.819	265.65
646.233	352.25
646.647	352.25
647.061	265.65
647.475	270.33
647.889	263.31
648.303	303.1
648.717	298.42
649.131	286.72
649.545	331.19
649.958	300.76
650.372	291.4
650.785	349.91
651.199	298.42
651.612	347.57
652.026	314.8
652.439	319.48
652.852	324.16
653.266	303.1
653.679	300.76
654.092	401.4
654.505	347.57
654.918	317.14
655.331	352.25
655.744	342.89
656.156	335.87
656.569	361.61
656.982	359.27
657.394	279.69
657.807	317.14
658.22	349.91
658.632	317.14
659.044	366.29
659.457	303.1
659.869	326.5
660.281	300.76
660.693	279.69
661.106	282.03
661.518	300.76
661.93	265.65
662.342	300.76
662.754	279.69
663.165	324.16
663.577	370.97
663.989	310.12
664.401	380.34
664.812	284.38
665.224	317.14
665.635	363.95
666.047	310.12
666.458	307.78
666.869	258.63
667.281	326.5
667.692	317.14
668.103	282.03
668.514	345.23
668.925	289.06
669.336	289.06
669.747	303.1
670.158	310.12
670.569	326.5
670.979	359.27
671.39	307.78
671.801	310.12
672.211	347.57
672.622	275.01
673.032	375.66
673.443	326.5
673.853	356.93
674.263	300.76
674.674	324.16
675.084	342.89
675.494	289.06
675.904	380.34
676.314	366.29
676.724	307.78
677.134	321.82
677.544	335.87
677.953	307.78
678.363	272.67
678.773	368.63
679.182	347.57
679.592	345.23
680.001	307.78
680.411	347.57
680.82	291.4
681.23	333.53
681.639	331.19
682.048	317.14
682.457	356.93
682.866	333.53
683.275	289.06
683.684	286.72
684.093	303.1
684.502	356.93
684.911	289.06
685.32	284.38
685.728	307.78
686.137	319.48
686.546	328.85
686.954	251.61
687.363	305.44
687.771	321.82
688.179	291.4
688.588	338.21
688.996	237.56
689.404	420.13
689.812	319.48
690.22	314.8
690.628	239.9
691.036	366.29
691.444	340.55
691.852	328.85
692.26	326.5
692.667	237.56
693.075	225.86
693.483	300.76
693.89	305.44
694.298	326.5
694.705	366.29
695.112	263.31
695.52	342.89
695.927	298.42
696.334	321.82
696.741	296.08
697.148	356.93
697.555	424.81
697.962	251.61
698.369	319.48
698.776	326.5
699.183	300.76
699.59	286.72
699.996	307.78
700.403	319.48
700.81	293.74
701.216	319.48
701.623	335.87
702.029	335.87
702.435	319.48
702.842	375.66
703.248	366.29
703.654	335.87
704.06	275.01
704.466	296.08
704.872	394.38
705.278	305.44
705.684	279.69
706.09	375.66
706.496	335.87
706.901	370.97
707.307	326.5
707.712	331.19
708.118	300.76
708.523	359.27
708.929	289.06
709.334	326.5
709.74	310.12
710.145	319.48
710.55	375.66
710.955	321.82
711.36	354.59
711.765	347.57
712.17	328.85
712.575	310.12
712.98	820.36
713.385	359.27
713.789	328.85
714.194	310.12
714.599	305.44
715.003	289.06
715.408	267.99
715.812	286.72
716.217	328.85
716.621	293.74
717.025	293.74
717.429	256.29
717.833	303.1
718.238	338.21
718.642	305.44
719.046	319.48
719.449	310.12
719.853	333.53
720.257	319.48
720.661	270.33
721.065	370.97
721.468	291.4
721.872	368.63
722.275	296.08
722.679	279.69
723.082	312.46
723.485	319.48
723.889	356.93
724.292	293.74
724.695	317.14
725.098	282.03
725.501	328.85
725.904	338.21
726.307	380.34
726.71	326.5
727.113	324.16
727.516	310.12
727.918	267.99
728.321	326.5
728.724	289.06
729.126	335.87
729.529	366.29
729.931	298.42
730.333	354.59
730.736	331.19
731.138	317.14
731.54	338.21
731.942	363.95
732.344	284.38
732.746	282.03
733.148	373.32
733.55	328.85
733.952	260.97
734.354	249.27
734.756	347.57
735.157	378
735.559	310.12
735.96	246.93
736.362	256.29
736.763	342.89
737.165	267.99
737.566	300.76
737.967	333.53
738.368	310.12
738.77	289.06
739.171	298.42
739.572	258.63
739.973	317.14
740.374	310.12
740.774	265.65
741.175	293.74
741.576	279.69
741.977	307.78
742.377	249.27
742.778	338.21
743.178	314.8
743.579	279.69
743.979	340.55
744.379	359.27
744.78	305.44
745.18	345.23
745.58	321.82
745.98	272.67
746.38	324.16
746.78	354.59
747.18	303.1
747.58	319.48
747.98	314.8
748.38	303.1
748.779	289.06
749.179	263.31
749.578	356.93
749.978	331.19
750.377	263.31
750.777	303.1
751.176	272.67
751.575	310.12
751.975	286.72
752.374	333.53
752.773	352.25
753.172	282.03
753.571	352.25
753.97	312.46
754.369	363.95
754.768	312.46
755.166	277.35
755.565	312.46
755.964	305.44
756.362	349.91
756.761	333.53
757.159	326.5
757.558	310.12
757.956	359.27
758.354	342.89
758.753	331.19
759.151	317.14
759.549	333.53
759.947	258.63
760.345	298.42
760.743	291.4
761.141	256.29
761.539	303.1
761.936	331.19
762.334	335.87
762.732	319.48
763.129	300.76
763.527	300.76
763.924	272.67
764.322	331.19
764.719	300.76
765.117	319.48
765.514	300.76
