Data from Al_FLMS009871__523__14-41-45-223.txt Node

Date: Fri Mar 08 14:41:45 CST 2024
User: pe5414po
Spectrometer: FLMS00987
Trigger mode: 0
Integration Time (sec): 1.000000E-1
Scans to average: 1
Electric dark correction enabled: true
Nonlinearity correction enabled: false
Boxcar width: 0
XAxis mode: Wavelengths
Number of Pixels in Spectrum: 2048
>>>>>Begin Spectral Data<<<<<
188.938	-79.87
189.409	-79.87
189.879	-79.87
190.349	-166.47
190.819	-70.51
191.29	-47.1
191.76	-107.96
192.23	-107.96
192.7	-77.53
193.17	-98.6
193.64	-44.76
194.109	-42.42
194.579	41.84
195.049	-23.7
195.519	32.47
195.988	39.5
196.458	37.16
196.927	88.65
197.397	79.29
197.866	158.86
198.336	72.26
198.805	133.12
199.274	144.82
199.744	238.44
200.213	198.65
200.682	191.63
201.151	179.93
201.62	247.8
202.089	285.25
202.558	226.74
203.027	294.61
203.495	236.1
203.964	238.44
204.433	224.4
204.902	245.46
205.37	294.61
205.839	282.91
206.307	303.98
206.776	315.68
207.244	245.46
207.712	247.8
208.181	301.64
208.649	280.57
209.117	238.44
209.585	296.96
210.053	280.57
210.521	264.19
210.989	282.91
211.457	266.53
211.925	266.53
212.393	329.72
212.861	292.27
213.328	339.09
213.796	303.98
214.264	285.25
214.731	222.06
215.199	254.83
215.666	264.19
216.133	196.31
216.601	257.17
217.068	299.3
217.535	273.55
218.003	226.74
218.47	287.59
218.937	261.85
219.404	311
219.871	334.4
220.338	217.38
220.805	229.08
221.271	231.42
221.738	278.23
222.205	229.08
222.671	226.74
223.138	313.34
223.605	200.99
224.071	257.17
224.538	294.61
225.004	259.51
225.47	294.61
225.937	294.61
226.403	294.61
226.869	172.91
227.335	299.3
227.801	289.93
228.267	275.89
228.733	257.17
229.199	233.76
229.665	189.29
230.131	245.46
230.597	261.85
231.062	313.34
231.528	245.46
231.994	231.42
232.459	282.91
232.925	184.61
233.39	271.21
233.856	320.36
234.321	238.44
234.786	226.74
235.252	318.02
235.717	301.64
236.182	273.55
236.647	299.3
237.112	282.91
237.577	259.51
238.042	268.87
238.507	311
238.972	315.68
239.436	282.91
239.901	219.72
240.366	191.63
240.83	245.46
241.295	219.72
241.76	245.46
242.224	238.44
242.688	229.08
243.153	287.59
243.617	275.89
244.081	292.27
244.545	205.67
245.01	327.38
245.474	252.49
245.938	369.51
246.402	254.83
246.866	245.46
247.33	273.55
247.793	259.51
248.257	285.25
248.721	236.1
249.185	282.91
249.648	268.87
250.112	247.8
250.575	243.12
251.039	264.19
251.502	273.55
251.965	266.53
252.429	266.53
252.892	292.27
253.355	259.51
253.818	292.27
254.281	238.44
254.744	313.34
255.207	268.87
255.67	215.04
256.133	259.51
256.596	186.95
257.059	280.57
257.522	303.98
257.984	278.23
258.447	294.61
258.909	339.09
259.372	306.32
259.834	318.02
260.297	266.53
260.759	289.93
261.221	296.96
261.684	303.98
262.146	306.32
262.608	229.08
263.07	292.27
263.532	318.02
263.994	285.25
264.456	303.98
264.918	289.93
265.38	240.78
265.842	240.78
266.303	308.66
266.765	332.06
267.227	273.55
267.688	336.74
268.15	285.25
268.611	306.32
269.072	257.17
269.534	273.55
269.995	325.04
270.456	341.43
270.918	266.53
271.379	341.43
271.84	254.83
272.301	294.61
272.762	280.57
273.223	238.44
273.684	219.72
274.144	254.83
274.605	247.8
275.066	339.09
275.527	280.57
275.987	346.11
276.448	329.72
276.908	289.93
277.369	315.68
277.829	273.55
278.289	292.27
278.75	325.04
279.21	259.51
279.67	322.7
280.13	273.55
280.59	329.72
281.05	303.98
281.51	299.3
281.97	313.34
282.43	273.55
282.89	222.06
283.35	285.25
283.809	311
284.269	271.21
284.729	301.64
285.188	303.98
285.648	289.93
286.107	315.68
286.567	339.09
287.026	301.64
287.485	341.43
287.944	217.38
288.404	355.47
288.863	264.19
289.322	287.59
289.781	285.25
290.24	259.51
290.699	240.78
291.158	282.91
291.616	318.02
292.075	332.06
292.534	303.98
292.992	303.98
293.451	198.65
293.91	329.72
294.368	332.06
294.827	266.53
295.285	275.89
295.743	311
296.202	278.23
296.66	303.98
297.118	215.04
297.576	308.66
298.034	189.29
298.492	224.4
298.95	322.7
299.408	353.13
299.866	325.04
300.324	287.59
300.781	329.72
301.239	313.34
301.697	313.34
302.154	224.4
302.612	238.44
303.069	325.04
303.527	294.61
303.984	294.61
304.441	301.64
304.899	285.25
305.356	275.89
305.813	257.17
306.27	299.3
306.727	273.55
307.184	327.38
307.641	294.61
308.098	294.61
308.555	282.91
309.012	278.23
309.468	278.23
309.925	294.61
310.382	252.49
310.838	259.51
311.295	308.66
311.751	271.21
312.208	289.93
312.664	273.55
313.12	318.02
313.577	287.59
314.033	329.72
314.489	278.23
314.945	245.46
315.401	236.1
315.857	322.7
316.313	325.04
316.769	341.43
317.225	306.32
317.681	325.04
318.136	285.25
318.592	289.93
319.048	318.02
319.503	308.66
319.959	294.61
320.414	247.8
320.869	254.83
321.325	325.04
321.78	329.72
322.235	322.7
322.691	327.38
323.146	273.55
323.601	285.25
324.056	254.83
324.511	275.89
324.966	259.51
325.421	264.19
325.875	280.57
326.33	353.13
326.785	313.34
327.24	318.02
327.694	320.36
328.149	292.27
328.603	332.06
329.058	247.8
329.512	325.04
329.966	334.4
330.421	353.13
330.875	327.38
331.329	289.93
331.783	294.61
332.237	303.98
332.691	257.17
333.145	254.83
333.599	208.02
334.053	327.38
334.507	303.98
334.96	280.57
335.414	311
335.868	231.42
336.321	301.64
336.775	285.25
337.228	292.27
337.682	268.87
338.135	257.17
338.588	315.68
339.042	247.8
339.495	287.59
339.948	336.74
340.401	299.3
340.854	313.34
341.307	360.15
341.76	280.57
342.213	343.77
342.666	296.96
343.119	360.15
343.571	257.17
344.024	287.59
344.477	275.89
344.929	364.83
345.382	261.85
345.834	346.11
346.287	299.3
346.739	303.98
347.191	287.59
347.644	296.96
348.096	357.81
348.548	240.78
349	308.66
349.452	421
349.904	313.34
350.356	306.32
350.808	271.21
351.26	371.85
351.711	311
352.163	318.02
352.615	280.57
353.066	315.68
353.518	299.3
353.969	311
354.421	217.38
354.872	278.23
355.324	285.25
355.775	353.13
356.226	357.81
356.677	287.59
357.128	332.06
357.579	322.7
358.03	350.79
358.481	273.55
358.932	257.17
359.383	233.76
359.834	318.02
360.285	322.7
360.735	264.19
361.186	336.74
361.637	259.51
362.087	282.91
362.538	303.98
362.988	334.4
363.438	311
363.889	336.74
364.339	362.49
364.789	303.98
365.239	341.43
365.689	399.94
366.139	306.32
366.589	280.57
367.039	271.21
367.489	247.8
367.939	411.64
368.389	266.53
368.839	329.72
369.288	287.59
369.738	336.74
370.187	367.17
370.637	318.02
371.086	292.27
371.536	252.49
371.985	348.45
372.434	306.32
372.884	320.36
373.333	339.09
373.782	287.59
374.231	320.36
374.68	294.61
375.129	306.32
375.578	264.19
376.027	392.92
376.475	278.23
376.924	294.61
377.373	355.47
377.822	254.83
378.27	315.68
378.719	350.79
379.167	294.61
379.616	362.49
380.064	339.09
380.512	285.25
380.961	318.02
381.409	271.21
381.857	243.12
382.305	353.13
382.753	280.57
383.201	329.72
383.649	320.36
384.097	311
384.545	350.79
384.992	282.91
385.44	292.27
385.888	325.04
386.335	311
386.783	303.98
387.231	301.64
387.678	287.59
388.125	280.57
388.573	334.4
389.02	313.34
389.467	339.09
389.914	303.98
390.362	320.36
390.809	266.53
391.256	327.38
391.703	278.23
392.15	294.61
392.596	329.72
393.043	308.66
393.49	250.14
393.937	271.21
394.383	275.89
394.83	311
395.276	282.91
395.723	299.3
396.169	385.9
396.616	303.98
397.062	306.32
397.508	250.14
397.954	296.96
398.401	278.23
398.847	261.85
399.293	271.21
399.739	299.3
400.185	341.43
400.631	266.53
401.076	306.32
401.522	325.04
401.968	329.72
402.414	308.66
402.859	332.06
403.305	374.19
403.75	308.66
404.196	315.68
404.641	343.77
405.086	318.02
405.532	315.68
405.977	357.81
406.422	350.79
406.867	266.53
407.312	325.04
407.757	289.93
408.202	273.55
408.647	341.43
409.092	275.89
409.537	322.7
409.982	287.59
410.426	315.68
410.871	332.06
411.316	327.38
411.76	266.53
412.205	313.34
412.649	280.57
413.093	346.11
413.538	320.36
413.982	280.57
414.426	378.87
414.87	282.91
415.314	367.17
415.758	315.68
416.202	325.04
416.646	411.64
417.09	278.23
417.534	343.77
417.978	303.98
418.421	289.93
418.865	268.87
419.309	266.53
419.752	299.3
420.196	336.74
420.639	329.72
421.083	378.87
421.526	289.93
421.969	357.81
422.412	282.91
422.856	325.04
423.299	341.43
423.742	348.45
424.185	343.77
424.628	357.81
425.071	261.85
425.513	355.47
425.956	334.4
426.399	327.38
426.842	320.36
427.284	292.27
427.727	306.32
428.169	257.17
428.612	367.17
429.054	339.09
429.497	311
429.939	341.43
430.381	332.06
430.823	353.13
431.265	292.27
431.707	329.72
432.149	294.61
432.591	322.7
433.033	247.8
433.475	320.36
433.917	301.64
434.359	332.06
434.8	411.64
435.242	341.43
435.684	287.59
436.125	348.45
436.567	299.3
437.008	306.32
437.449	332.06
437.891	285.25
438.332	282.91
438.773	268.87
439.214	285.25
439.656	341.43
440.097	275.89
440.538	334.4
440.978	360.15
441.419	285.25
441.86	383.56
442.301	341.43
442.742	369.51
443.182	313.34
443.623	266.53
444.063	329.72
444.504	280.57
444.944	350.79
445.385	261.85
445.825	308.66
446.265	250.14
446.706	282.91
447.146	294.61
447.586	278.23
448.026	325.04
448.466	280.57
448.906	348.45
449.346	303.98
449.786	289.93
450.225	271.21
450.665	311
451.105	339.09
451.544	294.61
451.984	339.09
452.424	320.36
452.863	315.68
453.302	385.9
453.742	303.98
454.181	222.06
454.62	311
455.059	280.57
455.499	348.45
455.938	364.83
456.377	346.11
456.816	334.4
457.254	282.91
457.693	381.21
458.132	334.4
458.571	287.59
459.01	355.47
459.448	311
459.887	289.93
460.325	360.15
460.764	261.85
461.202	325.04
461.641	320.36
462.079	320.36
462.517	327.38
462.955	311
463.393	275.89
463.832	301.64
464.27	311
464.708	343.77
465.145	334.4
465.583	308.66
466.021	320.36
466.459	306.32
466.897	346.11
467.334	294.61
467.772	329.72
468.209	287.59
468.647	332.06
469.084	259.51
469.522	332.06
469.959	250.14
470.396	243.12
470.833	313.34
471.271	322.7
471.708	318.02
472.145	332.06
472.582	245.46
473.019	257.17
473.456	280.57
473.892	208.02
474.329	271.21
474.766	371.85
475.202	308.66
475.639	306.32
476.076	320.36
476.512	329.72
476.949	294.61
477.385	259.51
477.821	303.98
478.258	311
478.694	278.23
479.13	299.3
479.566	252.49
480.002	275.89
480.438	301.64
480.874	299.3
481.31	264.19
481.746	348.45
482.181	285.25
482.617	259.51
483.053	287.59
483.488	348.45
483.924	296.96
484.36	303.98
484.795	280.57
485.23	322.7
485.666	353.13
486.101	355.47
486.536	318.02
486.971	287.59
487.407	332.06
487.842	313.34
488.277	357.81
488.712	259.51
489.146	318.02
489.581	355.47
490.016	336.74
490.451	264.19
490.885	313.34
491.32	292.27
491.755	325.04
492.189	268.87
492.624	343.77
493.058	322.7
493.492	348.45
493.927	364.83
494.361	402.28
494.795	299.3
495.229	299.3
495.663	311
496.097	334.4
496.531	320.36
496.965	306.32
497.399	287.59
497.833	259.51
498.266	299.3
498.7	315.68
499.134	261.85
499.567	313.34
500.001	289.93
500.434	259.51
500.868	383.56
501.301	343.77
501.734	327.38
502.168	296.96
502.601	318.02
503.034	231.42
503.467	266.53
503.9	268.87
504.333	327.38
504.766	320.36
505.199	346.11
505.632	341.43
506.064	271.21
506.497	353.13
506.93	320.36
507.362	259.51
507.795	332.06
508.227	273.55
508.66	350.79
509.092	278.23
509.524	322.7
509.956	275.89
510.389	334.4
510.821	332.06
511.253	313.34
511.685	303.98
512.117	341.43
512.549	257.17
512.981	308.66
513.412	285.25
513.844	341.43
514.276	294.61
514.707	350.79
515.139	306.32
515.571	299.3
516.002	303.98
516.433	332.06
516.865	313.34
517.296	261.85
517.727	282.91
518.159	327.38
518.59	374.19
519.021	313.34
519.452	282.91
519.883	320.36
520.314	301.64
520.744	282.91
521.175	364.83
521.606	348.45
522.037	376.53
522.467	315.68
522.898	320.36
523.328	320.36
523.759	325.04
524.189	311
524.62	280.57
525.05	287.59
525.48	357.81
525.91	299.3
526.341	306.32
526.771	306.32
527.201	266.53
527.631	325.04
528.061	301.64
528.49	275.89
528.92	346.11
529.35	271.21
529.78	332.06
530.209	273.55
530.639	336.74
531.068	301.64
531.498	348.45
531.927	378.87
532.357	264.19
532.786	292.27
533.215	320.36
533.644	292.27
534.074	299.3
534.503	320.36
534.932	348.45
535.361	320.36
535.79	273.55
536.218	296.96
536.647	296.96
537.076	357.81
537.505	278.23
537.933	311
538.362	303.98
538.79	318.02
539.219	320.36
539.647	308.66
540.076	292.27
540.504	303.98
540.932	236.1
541.36	362.49
541.788	292.27
542.217	329.72
542.645	294.61
543.073	320.36
543.5	289.93
543.928	282.91
544.356	292.27
544.784	299.3
545.211	311
545.639	287.59
546.067	334.4
546.494	301.64
546.922	339.09
547.349	278.23
547.776	219.72
548.204	247.8
548.631	311
549.058	278.23
549.485	355.47
549.912	332.06
550.339	280.57
550.766	371.85
551.193	332.06
551.62	339.09
552.047	252.49
552.474	254.83
552.9	383.56
553.327	266.53
553.754	273.55
554.18	357.81
554.607	329.72
555.033	268.87
555.459	350.79
555.886	320.36
556.312	381.21
556.738	357.81
557.164	275.89
557.59	219.72
558.016	315.68
558.442	289.93
558.868	315.68
559.294	332.06
559.72	341.43
560.145	322.7
560.571	292.27
560.997	289.93
561.422	285.25
561.848	275.89
562.273	261.85
562.699	306.32
563.124	339.09
563.549	346.11
563.974	285.25
564.4	334.4
564.825	341.43
565.25	329.72
565.675	320.36
566.1	303.98
566.525	285.25
566.95	327.38
567.374	315.68
567.799	353.13
568.224	346.11
568.648	224.4
569.073	334.4
569.497	374.19
569.922	322.7
570.346	278.23
570.771	311
571.195	313.34
571.619	320.36
572.043	327.38
572.467	247.8
572.891	254.83
573.315	336.74
573.739	287.59
574.163	362.49
574.587	341.43
575.011	306.32
575.435	301.64
575.858	313.34
576.282	346.11
576.705	336.74
577.129	299.3
577.552	320.36
577.976	369.51
578.399	264.19
578.822	282.91
579.245	325.04
579.669	329.72
580.092	308.66
580.515	339.09
580.938	325.04
581.361	364.83
581.784	273.55
582.206	226.74
582.629	226.74
583.052	327.38
583.474	250.14
583.897	250.14
584.32	301.64
584.742	259.51
585.165	245.46
585.587	266.53
586.009	299.3
586.431	278.23
586.854	355.47
587.276	306.32
587.698	252.49
588.12	292.27
588.542	271.21
588.964	329.72
589.386	280.57
589.807	315.68
590.229	325.04
590.651	339.09
591.073	348.45
591.494	315.68
591.916	289.93
592.337	364.83
592.759	325.04
593.18	325.04
593.601	280.57
594.022	357.81
594.444	334.4
594.865	369.51
595.286	313.34
595.707	334.4
596.128	343.77
596.549	322.7
596.97	332.06
597.39	299.3
597.811	303.98
598.232	318.02
598.652	308.66
599.073	332.06
599.494	306.32
599.914	336.74
600.334	362.49
600.755	282.91
601.175	271.21
601.595	318.02
602.015	348.45
602.436	294.61
602.856	516.97
603.276	334.4
603.696	339.09
604.115	306.32
604.535	360.15
604.955	348.45
605.375	289.93
605.794	282.91
606.214	308.66
606.634	294.61
607.053	329.72
607.473	296.96
607.892	320.36
608.311	282.91
608.731	313.34
609.15	292.27
609.569	299.3
609.988	296.96
610.407	367.17
610.826	303.98
611.245	264.19
611.664	278.23
612.083	271.21
612.501	362.49
612.92	332.06
613.339	278.23
613.757	261.85
614.176	320.36
614.594	332.06
615.013	350.79
615.431	289.93
615.85	362.49
616.268	264.19
616.686	247.8
617.104	285.25
617.522	311
617.94	205.67
618.358	236.1
618.776	252.49
619.194	318.02
619.612	329.72
620.03	296.96
620.447	306.32
620.865	296.96
621.282	381.21
621.7	296.96
622.117	299.3
622.535	350.79
622.952	303.98
623.369	341.43
623.787	327.38
624.204	315.68
624.621	336.74
625.038	327.38
625.455	247.8
625.872	325.04
626.289	318.02
626.706	376.53
627.123	287.59
627.539	275.89
627.956	318.02
628.373	339.09
628.789	273.55
629.206	275.89
629.622	303.98
630.038	353.13
630.455	311
630.871	292.27
631.287	303.98
631.703	355.47
632.12	308.66
632.536	259.51
632.952	306.32
633.368	280.57
633.783	287.59
634.199	348.45
634.615	271.21
635.031	332.06
635.446	339.09
635.862	275.89
636.277	348.45
636.693	268.87
637.108	224.4
637.524	362.49
637.939	332.06
638.354	343.77
638.77	332.06
639.185	306.32
639.6	303.98
640.015	313.34
640.43	355.47
640.845	346.11
641.259	355.47
641.674	299.3
642.089	341.43
642.504	245.46
642.918	301.64
643.333	287.59
643.747	320.36
644.162	346.11
644.576	339.09
644.991	306.32
645.405	303.98
645.819	325.04
646.233	306.32
646.647	287.59
647.061	289.93
647.475	275.89
647.889	289.93
648.303	383.56
648.717	308.66
649.131	273.55
649.545	341.43
649.958	343.77
650.372	306.32
650.785	320.36
651.199	325.04
651.612	299.3
652.026	318.02
652.439	374.19
652.852	301.64
653.266	261.85
653.679	259.51
654.092	306.32
654.505	296.96
654.918	296.96
655.331	301.64
655.744	327.38
656.156	322.7
656.569	280.57
656.982	275.89
657.394	311
657.807	371.85
658.22	289.93
658.632	315.68
659.044	303.98
659.457	306.32
659.869	313.34
660.281	292.27
660.693	257.17
661.106	280.57
661.518	332.06
661.93	299.3
662.342	320.36
662.754	322.7
663.165	334.4
663.577	360.15
663.989	264.19
664.401	259.51
664.812	294.61
665.224	261.85
665.635	299.3
666.047	278.23
666.458	369.51
666.869	313.34
667.281	343.77
667.692	343.77
668.103	327.38
668.514	322.7
668.925	308.66
669.336	238.44
669.747	346.11
670.158	362.49
670.569	294.61
670.979	390.58
671.39	318.02
671.801	311
672.211	285.25
672.622	303.98
673.032	247.8
673.443	320.36
673.853	311
674.263	318.02
674.674	257.17
675.084	224.4
675.494	287.59
675.904	362.49
676.314	311
676.724	261.85
677.134	240.78
677.544	252.49
677.953	275.89
678.363	306.32
678.773	334.4
679.182	275.89
679.592	273.55
680.001	322.7
680.411	313.34
680.82	350.79
681.23	318.02
681.639	315.68
682.048	294.61
682.457	322.7
682.866	275.89
683.275	315.68
683.684	313.34
684.093	327.38
684.502	360.15
684.911	336.74
685.32	308.66
685.728	294.61
686.137	311
686.546	336.74
686.954	325.04
687.363	329.72
687.771	322.7
688.179	329.72
688.588	296.96
688.996	308.66
689.404	339.09
689.812	275.89
690.22	259.51
690.628	355.47
691.036	282.91
691.444	268.87
691.852	261.85
692.26	355.47
692.667	292.27
693.075	296.96
693.483	280.57
693.89	334.4
694.298	311
694.705	254.83
695.112	261.85
695.52	357.81
695.927	327.38
696.334	357.81
696.741	325.04
697.148	250.14
697.555	278.23
697.962	325.04
698.369	320.36
698.776	280.57
699.183	332.06
699.59	289.93
699.996	313.34
700.403	348.45
700.81	320.36
701.216	299.3
701.623	362.49
702.029	285.25
702.435	357.81
702.842	315.68
703.248	306.32
703.654	299.3
704.06	369.51
704.466	339.09
704.872	327.38
705.278	299.3
705.684	325.04
706.09	332.06
706.496	268.87
706.901	311
707.307	390.58
707.712	369.51
708.118	271.21
708.523	252.49
708.929	306.32
709.334	313.34
709.74	336.74
710.145	296.96
710.55	325.04
710.955	238.44
711.36	318.02
711.765	245.46
712.17	280.57
712.575	252.49
712.98	739.32
713.385	306.32
713.789	339.09
714.194	371.85
714.599	278.23
715.003	343.77
715.408	378.87
715.812	325.04
716.217	336.74
716.621	327.38
717.025	346.11
717.429	303.98
717.833	271.21
718.238	240.78
718.642	320.36
719.046	311
719.449	318.02
719.853	362.49
720.257	285.25
720.661	231.42
721.065	306.32
721.468	264.19
721.872	280.57
722.275	303.98
722.679	289.93
723.082	266.53
723.485	292.27
723.889	296.96
724.292	280.57
724.695	320.36
725.098	285.25
725.501	306.32
725.904	360.15
726.307	287.59
726.71	320.36
727.113	257.17
727.516	294.61
727.918	261.85
728.321	275.89
728.724	325.04
729.126	322.7
729.529	303.98
729.931	339.09
730.333	275.89
730.736	294.61
731.138	299.3
731.54	346.11
731.942	381.21
732.344	294.61
732.746	257.17
733.148	240.78
733.55	264.19
733.952	327.38
734.354	303.98
734.756	275.89
735.157	355.47
735.559	278.23
735.96	264.19
736.362	280.57
736.763	271.21
737.165	292.27
737.566	318.02
737.967	278.23
738.368	357.81
738.77	306.32
739.171	236.1
739.572	292.27
739.973	318.02
740.374	278.23
740.774	280.57
741.175	353.13
741.576	296.96
741.977	273.55
742.377	247.8
742.778	371.85
743.178	280.57
743.579	313.34
743.979	339.09
744.379	280.57
744.78	350.79
745.18	282.91
745.58	303.98
745.98	311
746.38	292.27
746.78	294.61
747.18	348.45
747.58	285.25
747.98	268.87
748.38	339.09
748.779	257.17
749.179	325.04
749.578	289.93
749.978	341.43
750.377	292.27
750.777	289.93
751.176	243.12
751.575	311
751.975	271.21
752.374	329.72
752.773	353.13
753.172	282.91
753.571	348.45
753.97	329.72
754.369	287.59
754.768	332.06
755.166	357.81
755.565	282.91
755.964	292.27
756.362	257.17
756.761	289.93
757.159	311
757.558	311
757.956	226.74
758.354	280.57
758.753	264.19
759.151	325.04
759.549	292.27
759.947	287.59
760.345	311
760.743	282.91
761.141	318.02
761.539	343.77
761.936	289.93
762.334	367.17
762.732	296.96
763.129	315.68
763.527	285.25
763.924	273.55
764.322	315.68
764.719	332.06
765.117	294.61
765.514	289.93
765.911	301.64
766.308	313.34
766.705	318.02
767.102	336.74
767.499	357.81
