Data from Al_FLMS009871__532__14-41-46-124.txt Node

Date: Fri Mar 08 14:41:46 CST 2024
User: pe5414po
Spectrometer: FLMS00987
Trigger mode: 0
Integration Time (sec): 1.000000E-1
Scans to average: 1
Electric dark correction enabled: true
Nonlinearity correction enabled: false
Boxcar width: 0
XAxis mode: Wavelengths
Number of Pixels in Spectrum: 2048
>>>>>Begin Spectral Data<<<<<
188.938	-83.09
189.409	-83.09
189.879	-83.09
190.349	-101.81
190.819	-33.94
191.29	-106.49
191.76	-101.81
192.23	-85.43
192.7	-40.96
193.17	-76.07
193.64	-29.26
194.109	-78.41
194.579	-36.28
195.049	-38.62
195.519	-12.87
195.988	94.79
196.458	12.87
196.927	104.15
197.397	99.47
197.866	134.58
198.336	160.33
198.805	153.31
199.274	132.24
199.744	214.16
200.213	214.16
200.682	225.86
201.151	237.56
201.62	244.59
202.089	207.14
202.558	286.72
203.027	244.59
203.495	317.14
203.964	263.31
204.433	282.03
204.902	260.97
205.37	272.67
205.839	310.12
206.307	338.21
206.776	324.16
207.244	296.08
207.712	296.08
208.181	244.59
208.649	244.59
209.117	317.14
209.585	256.29
210.053	270.33
210.521	286.72
210.989	272.67
211.457	286.72
211.925	298.42
212.393	272.67
212.861	260.97
213.328	263.31
213.796	298.42
214.264	286.72
214.731	272.67
215.199	235.22
215.666	244.59
216.133	272.67
216.601	260.97
217.068	230.54
217.535	239.9
218.003	202.46
218.47	277.35
218.937	277.35
219.404	275.01
219.871	228.2
220.338	260.97
220.805	275.01
221.271	265.65
221.738	237.56
222.205	246.93
222.671	207.14
223.138	228.2
223.605	214.16
224.071	232.88
224.538	246.93
225.004	282.03
225.47	260.97
225.937	277.35
226.403	235.22
226.869	251.61
227.335	286.72
227.801	314.8
228.267	228.2
228.733	356.93
229.199	282.03
229.665	195.43
230.131	279.69
230.597	265.65
231.062	300.76
231.528	253.95
231.994	258.63
232.459	310.12
232.925	293.74
233.39	197.78
233.856	239.9
234.321	242.25
234.786	319.48
235.252	289.06
235.717	216.5
236.182	298.42
236.647	263.31
237.112	235.22
237.577	328.85
238.042	267.99
238.507	230.54
238.972	296.08
239.436	277.35
239.901	267.99
240.366	289.06
240.83	246.93
241.295	307.78
241.76	289.06
242.224	223.52
242.688	282.03
243.153	218.84
243.617	258.63
244.081	239.9
244.545	305.44
245.01	263.31
245.474	349.91
245.938	260.97
246.402	251.61
246.866	251.61
247.33	253.95
247.793	279.69
248.257	258.63
248.721	249.27
249.185	380.34
249.648	253.95
250.112	235.22
250.575	256.29
251.039	242.25
251.502	331.19
251.965	235.22
252.429	305.44
252.892	260.97
253.355	239.9
253.818	209.48
254.281	267.99
254.744	326.5
255.207	296.08
255.67	223.52
256.133	265.65
256.596	317.14
257.059	296.08
257.522	251.61
257.984	310.12
258.447	237.56
258.909	324.16
259.372	359.27
259.834	342.89
260.297	267.99
260.759	298.42
261.221	270.33
261.684	293.74
262.146	237.56
262.608	265.65
263.07	249.27
263.532	324.16
263.994	307.78
264.456	303.1
264.918	275.01
265.38	289.06
265.842	284.38
266.303	296.08
266.765	303.1
267.227	312.46
267.688	305.44
268.15	307.78
268.611	307.78
269.072	237.56
269.534	284.38
269.995	251.61
270.456	282.03
270.918	249.27
271.379	265.65
271.84	335.87
272.301	305.44
272.762	277.35
273.223	214.16
273.684	317.14
274.144	249.27
274.605	317.14
275.066	307.78
275.527	263.31
275.987	272.67
276.448	326.5
276.908	267.99
277.369	253.95
277.829	282.03
278.289	296.08
278.75	202.46
279.21	242.25
279.67	324.16
280.13	263.31
280.59	275.01
281.05	307.78
281.51	296.08
281.97	251.61
282.43	319.48
282.89	289.06
283.35	253.95
283.809	303.1
284.269	263.31
284.729	310.12
285.188	291.4
285.648	361.61
286.107	270.33
286.567	319.48
287.026	342.89
287.485	272.67
287.944	251.61
288.404	319.48
288.863	305.44
289.322	298.42
289.781	356.93
290.24	361.61
290.699	286.72
291.158	246.93
291.616	296.08
292.075	296.08
292.534	251.61
292.992	321.82
293.451	298.42
293.91	265.65
294.368	270.33
294.827	319.48
295.285	256.29
295.743	258.63
296.202	317.14
296.66	319.48
297.118	338.21
297.576	270.33
298.034	298.42
298.492	333.53
298.95	267.99
299.408	300.76
299.866	263.31
300.324	310.12
300.781	303.1
301.239	312.46
301.697	300.76
302.154	328.85
302.612	314.8
303.069	279.69
303.527	237.56
303.984	296.08
304.441	249.27
304.899	223.52
305.356	282.03
305.813	293.74
306.27	335.87
306.727	303.1
307.184	249.27
307.641	338.21
308.098	298.42
308.555	342.89
309.012	228.2
309.468	260.97
309.925	296.08
310.382	267.99
310.838	209.48
311.295	303.1
311.751	235.22
312.208	321.82
312.664	289.06
313.12	335.87
313.577	321.82
314.033	319.48
314.489	312.46
314.945	286.72
315.401	324.16
315.857	298.42
316.313	235.22
316.769	293.74
317.225	317.14
317.681	260.97
318.136	286.72
318.592	338.21
319.048	293.74
319.503	366.29
319.959	272.67
320.414	298.42
320.869	230.54
321.325	307.78
321.78	258.63
322.235	441.19
322.691	342.89
323.146	363.95
323.601	244.59
324.056	307.78
324.511	296.08
324.966	345.23
325.421	277.35
325.875	249.27
326.33	324.16
326.785	307.78
327.24	300.76
327.694	260.97
328.149	289.06
328.603	345.23
329.058	296.08
329.512	324.16
329.966	310.12
330.421	296.08
330.875	277.35
331.329	242.25
331.783	275.01
332.237	342.89
332.691	265.65
333.145	312.46
333.599	328.85
334.053	321.82
334.507	275.01
334.96	298.42
335.414	331.19
335.868	319.48
336.321	293.74
336.775	349.91
337.228	286.72
337.682	237.56
338.135	291.4
338.588	317.14
339.042	312.46
339.495	331.19
339.948	307.78
340.401	356.93
340.854	300.76
341.307	345.23
341.76	298.42
342.213	328.85
342.666	277.35
343.119	347.57
343.571	324.16
344.024	282.03
344.477	263.31
344.929	345.23
345.382	356.93
345.834	275.01
346.287	333.53
346.739	328.85
347.191	305.44
347.644	394.38
348.096	340.55
348.548	256.29
349	272.67
349.452	256.29
349.904	300.76
350.356	284.38
350.808	321.82
351.26	328.85
351.711	289.06
352.163	319.48
352.615	359.27
353.066	279.69
353.518	399.06
353.969	258.63
354.421	385.02
354.872	284.38
355.324	310.12
355.775	246.93
356.226	331.19
356.677	300.76
357.128	317.14
357.579	277.35
358.03	340.55
358.481	363.95
358.932	282.03
359.383	338.21
359.834	349.91
360.285	293.74
360.735	300.76
361.186	328.85
361.637	305.44
362.087	303.1
362.538	293.74
362.988	300.76
363.438	305.44
363.889	345.23
364.339	298.42
364.789	354.59
365.239	314.8
365.689	256.29
366.139	263.31
366.589	328.85
367.039	286.72
367.489	232.88
367.939	359.27
368.389	291.4
368.839	305.44
369.288	237.56
369.738	296.08
370.187	312.46
370.637	272.67
371.086	275.01
371.536	335.87
371.985	312.46
372.434	349.91
372.884	267.99
373.333	298.42
373.782	389.7
374.231	354.59
374.68	293.74
375.129	331.19
375.578	324.16
376.027	363.95
376.475	333.53
376.924	260.97
377.373	335.87
377.822	359.27
378.27	314.8
378.719	293.74
379.167	328.85
379.616	267.99
380.064	298.42
380.512	275.01
380.961	363.95
381.409	389.7
381.857	265.65
382.305	282.03
382.753	312.46
383.201	305.44
383.649	289.06
384.097	303.1
384.545	296.08
384.992	326.5
385.44	368.63
385.888	258.63
386.335	307.78
386.783	293.74
387.231	300.76
387.678	326.5
388.125	312.46
388.573	296.08
389.02	303.1
389.467	291.4
389.914	296.08
390.362	303.1
390.809	321.82
391.256	359.27
391.703	300.76
392.15	251.61
392.596	279.69
393.043	345.23
393.49	307.78
393.937	328.85
394.383	338.21
394.83	310.12
395.276	282.03
395.723	366.29
396.169	319.48
396.616	291.4
397.062	352.25
397.508	282.03
397.954	319.48
398.401	296.08
398.847	314.8
399.293	284.38
399.739	282.03
400.185	338.21
400.631	368.63
401.076	279.69
401.522	321.82
401.968	286.72
402.414	267.99
402.859	345.23
403.305	300.76
403.75	335.87
404.196	317.14
404.641	307.78
405.086	328.85
405.532	338.21
405.977	235.22
406.422	319.48
406.867	314.8
407.312	319.48
407.757	375.66
408.202	328.85
408.647	305.44
409.092	321.82
409.537	286.72
409.982	249.27
410.426	282.03
410.871	289.06
411.316	321.82
411.76	392.04
412.205	312.46
412.649	239.9
413.093	286.72
413.538	331.19
413.982	310.12
414.426	279.69
414.87	270.33
415.314	317.14
415.758	270.33
416.202	356.93
416.646	296.08
417.09	347.57
417.534	347.57
417.978	314.8
418.421	342.89
418.865	368.63
419.309	286.72
419.752	310.12
420.196	303.1
420.639	349.91
421.083	382.68
421.526	317.14
421.969	324.16
422.412	317.14
422.856	312.46
423.299	291.4
423.742	286.72
424.185	246.93
424.628	249.27
425.071	270.33
425.513	263.31
425.956	289.06
426.399	331.19
426.842	345.23
427.284	291.4
427.727	347.57
428.169	408.42
428.612	303.1
429.054	272.67
429.497	296.08
429.939	375.66
430.381	345.23
430.823	298.42
431.265	314.8
431.707	307.78
432.149	300.76
432.591	380.34
433.033	352.25
433.475	359.27
433.917	347.57
434.359	267.99
434.8	434.17
435.242	312.46
435.684	321.82
436.125	267.99
436.567	289.06
437.008	298.42
437.449	359.27
437.891	265.65
438.332	246.93
438.773	319.48
439.214	319.48
439.656	312.46
440.097	270.33
440.538	293.74
440.978	286.72
441.419	282.03
441.86	326.5
442.301	338.21
442.742	200.12
443.182	275.01
443.623	249.27
444.063	282.03
444.504	244.59
444.944	293.74
445.385	317.14
445.825	335.87
446.265	399.06
446.706	267.99
447.146	326.5
447.586	277.35
448.026	342.89
448.466	293.74
448.906	312.46
449.346	328.85
449.786	307.78
450.225	312.46
450.665	354.59
451.105	317.14
451.544	333.53
451.984	333.53
452.424	284.38
452.863	277.35
453.302	314.8
453.742	321.82
454.181	293.74
454.62	298.42
455.059	270.33
455.499	345.23
455.938	279.69
456.377	331.19
456.816	356.93
457.254	291.4
457.693	319.48
458.132	277.35
458.571	317.14
459.01	333.53
459.448	296.08
459.887	310.12
460.325	279.69
460.764	319.48
461.202	326.5
461.641	293.74
462.079	277.35
462.517	310.12
462.955	338.21
463.393	291.4
463.832	317.14
464.27	303.1
464.708	305.44
465.145	305.44
465.583	282.03
466.021	305.44
466.459	326.5
466.897	317.14
467.334	265.65
467.772	286.72
468.209	298.42
468.647	333.53
469.084	291.4
469.522	373.32
469.959	331.19
470.396	333.53
470.833	345.23
471.271	324.16
471.708	342.89
472.145	354.59
472.582	312.46
473.019	314.8
473.456	373.32
473.892	312.46
474.329	314.8
474.766	312.46
475.202	275.01
475.639	347.57
476.076	378
476.512	317.14
476.949	382.68
477.385	368.63
477.821	319.48
478.258	335.87
478.694	305.44
479.13	253.95
479.566	251.61
480.002	324.16
480.438	347.57
480.874	363.95
481.31	300.76
481.746	300.76
482.181	298.42
482.617	310.12
483.053	310.12
483.488	328.85
483.924	310.12
484.36	258.63
484.795	347.57
485.23	333.53
485.666	328.85
486.101	305.44
486.536	289.06
486.971	319.48
487.407	326.5
487.842	328.85
488.277	298.42
488.712	347.57
489.146	291.4
489.581	347.57
490.016	356.93
490.451	319.48
490.885	314.8
491.32	282.03
491.755	272.67
492.189	300.76
492.624	328.85
493.058	335.87
493.492	300.76
493.927	333.53
494.361	291.4
494.795	342.89
495.229	277.35
495.663	305.44
496.097	293.74
496.531	356.93
496.965	275.01
497.399	307.78
497.833	270.33
498.266	345.23
498.7	319.48
499.134	401.4
499.567	282.03
500.001	310.12
500.434	370.97
500.868	310.12
501.301	328.85
501.734	314.8
502.168	272.67
502.601	251.61
503.034	319.48
503.467	342.89
503.9	345.23
504.333	333.53
504.766	291.4
505.199	370.97
505.632	242.25
506.064	324.16
506.497	345.23
506.93	324.16
507.362	260.97
507.795	361.61
508.227	307.78
508.66	319.48
509.092	307.78
509.524	310.12
509.956	321.82
510.389	300.76
510.821	263.31
511.253	328.85
511.685	310.12
512.117	289.06
512.549	361.61
512.981	324.16
513.412	338.21
513.844	296.08
514.276	324.16
514.707	349.91
515.139	265.65
515.571	286.72
516.002	293.74
516.433	349.91
516.865	284.38
517.296	303.1
517.727	312.46
518.159	279.69
518.59	340.55
519.021	317.14
519.452	321.82
519.883	326.5
520.314	291.4
520.744	293.74
521.175	291.4
521.606	260.97
522.037	314.8
522.467	305.44
522.898	307.78
523.328	300.76
523.759	263.31
524.189	340.55
524.62	251.61
525.05	272.67
525.48	263.31
525.91	291.4
526.341	345.23
526.771	328.85
527.201	282.03
527.631	333.53
528.061	338.21
528.49	267.99
528.92	230.54
529.35	324.16
529.78	270.33
530.209	319.48
530.639	289.06
531.068	260.97
531.498	289.06
531.927	324.16
532.357	253.95
532.786	277.35
533.215	239.9
533.644	370.97
534.074	335.87
534.503	338.21
534.932	321.82
535.361	298.42
535.79	392.04
536.218	300.76
536.647	328.85
537.076	284.38
537.505	375.66
537.933	352.25
538.362	319.48
538.79	305.44
539.219	368.63
539.647	277.35
540.076	321.82
540.504	282.03
540.932	232.88
541.36	275.01
541.788	363.95
542.217	321.82
542.645	328.85
543.073	324.16
543.5	303.1
543.928	314.8
544.356	317.14
544.784	319.48
545.211	317.14
545.639	312.46
546.067	326.5
546.494	324.16
546.922	366.29
547.349	314.8
547.776	321.82
548.204	277.35
548.631	279.69
549.058	277.35
549.485	298.42
549.912	349.91
550.339	275.01
550.766	253.95
551.193	298.42
551.62	267.99
552.047	340.55
552.474	303.1
552.9	300.76
553.327	305.44
553.754	340.55
554.18	349.91
554.607	246.93
555.033	267.99
555.459	223.52
555.886	312.46
556.312	321.82
556.738	303.1
557.164	279.69
557.59	267.99
558.016	349.91
558.442	298.42
558.868	275.01
559.294	380.34
559.72	307.78
560.145	345.23
560.571	361.61
560.997	307.78
561.422	349.91
561.848	286.72
562.273	380.34
562.699	298.42
563.124	291.4
563.549	275.01
563.974	335.87
564.4	345.23
564.825	352.25
565.25	282.03
565.675	345.23
566.1	333.53
566.525	324.16
566.95	289.06
567.374	310.12
567.799	319.48
568.224	298.42
568.648	289.06
569.073	291.4
569.497	314.8
569.922	282.03
570.346	291.4
570.771	314.8
571.195	356.93
571.619	321.82
572.043	305.44
572.467	249.27
572.891	335.87
573.315	300.76
573.739	223.52
574.163	279.69
574.587	363.95
575.011	319.48
575.435	253.95
575.858	342.89
576.282	310.12
576.705	305.44
577.129	361.61
577.552	253.95
577.976	326.5
578.399	282.03
578.822	293.74
579.245	298.42
579.669	338.21
580.092	291.4
580.515	272.67
580.938	331.19
581.361	328.85
581.784	305.44
582.206	380.34
582.629	352.25
583.052	340.55
583.474	347.57
583.897	392.04
584.32	326.5
584.742	307.78
585.165	303.1
585.587	310.12
586.009	314.8
586.431	272.67
586.854	375.66
587.276	340.55
587.698	249.27
588.12	303.1
588.542	366.29
588.964	338.21
589.386	275.01
589.807	317.14
590.229	378
590.651	282.03
591.073	324.16
591.494	326.5
591.916	342.89
592.337	289.06
592.759	286.72
593.18	293.74
593.601	277.35
594.022	232.88
594.444	286.72
594.865	317.14
595.286	321.82
595.707	331.19
596.128	300.76
596.549	289.06
596.97	342.89
597.39	331.19
597.811	284.38
598.232	305.44
598.652	328.85
599.073	326.5
599.494	275.01
599.914	209.48
600.334	331.19
600.755	314.8
601.175	342.89
601.595	331.19
602.015	303.1
602.436	251.61
602.856	415.45
603.276	237.56
603.696	307.78
604.115	237.56
604.535	305.44
604.955	317.14
605.375	317.14
605.794	277.35
606.214	317.14
606.634	368.63
607.053	305.44
607.473	319.48
607.892	284.38
608.311	380.34
608.731	260.97
609.15	321.82
609.569	267.99
609.988	298.42
610.407	335.87
610.826	300.76
611.245	298.42
611.664	349.91
612.083	310.12
612.501	272.67
612.92	319.48
613.339	338.21
613.757	354.59
614.176	394.38
614.594	389.7
615.013	356.93
615.431	328.85
615.85	239.9
616.268	375.66
616.686	317.14
617.104	347.57
617.522	291.4
617.94	326.5
618.358	310.12
618.776	319.48
619.194	310.12
619.612	324.16
620.03	324.16
620.447	300.76
620.865	286.72
621.282	413.1
621.7	326.5
622.117	312.46
622.535	310.12
622.952	335.87
623.369	235.22
623.787	333.53
624.204	354.59
624.621	272.67
625.038	356.93
625.455	291.4
625.872	326.5
626.289	361.61
626.706	300.76
627.123	328.85
627.539	263.31
627.956	235.22
628.373	260.97
628.789	361.61
629.206	324.16
629.622	300.76
630.038	347.57
630.455	296.08
630.871	307.78
631.287	298.42
631.703	291.4
632.12	282.03
632.536	246.93
632.952	324.16
633.368	291.4
633.783	328.85
634.199	342.89
634.615	270.33
635.031	326.5
635.446	333.53
635.862	319.48
636.277	298.42
636.693	342.89
637.108	310.12
637.524	317.14
637.939	361.61
638.354	258.63
638.77	270.33
639.185	305.44
639.6	366.29
640.015	270.33
640.43	326.5
640.845	399.06
641.259	307.78
641.674	324.16
642.089	296.08
642.504	356.93
642.918	293.74
643.333	319.48
643.747	373.32
644.162	298.42
644.576	263.31
644.991	298.42
645.405	291.4
645.819	263.31
646.233	328.85
646.647	300.76
647.061	347.57
647.475	314.8
647.889	310.12
648.303	282.03
648.717	324.16
649.131	300.76
649.545	321.82
649.958	333.53
650.372	263.31
650.785	349.91
651.199	263.31
651.612	289.06
652.026	270.33
652.439	333.53
652.852	307.78
653.266	333.53
653.679	319.48
654.092	319.48
654.505	335.87
654.918	263.31
655.331	335.87
655.744	291.4
656.156	319.48
656.569	296.08
656.982	319.48
657.394	282.03
657.807	366.29
658.22	385.02
658.632	275.01
659.044	319.48
659.457	328.85
659.869	263.31
660.281	314.8
660.693	307.78
661.106	305.44
661.518	324.16
661.93	338.21
662.342	349.91
662.754	267.99
663.165	298.42
663.577	275.01
663.989	310.12
664.401	317.14
664.812	354.59
665.224	338.21
665.635	312.46
666.047	375.66
666.458	300.76
666.869	314.8
667.281	328.85
667.692	303.1
668.103	319.48
668.514	282.03
668.925	265.65
669.336	333.53
669.747	279.69
670.158	333.53
670.569	310.12
670.979	307.78
671.39	363.95
671.801	263.31
672.211	345.23
672.622	282.03
673.032	296.08
673.443	338.21
673.853	324.16
674.263	385.02
674.674	333.53
675.084	317.14
675.494	328.85
675.904	298.42
676.314	300.76
676.724	331.19
677.134	277.35
677.544	319.48
677.953	272.67
678.363	277.35
678.773	326.5
679.182	289.06
679.592	267.99
680.001	300.76
680.411	331.19
680.82	282.03
681.23	347.57
681.639	260.97
682.048	324.16
682.457	289.06
682.866	296.08
683.275	361.61
683.684	305.44
684.093	387.36
684.502	291.4
684.911	275.01
685.32	326.5
685.728	321.82
686.137	303.1
686.546	291.4
686.954	312.46
687.363	291.4
687.771	298.42
688.179	317.14
688.588	282.03
688.996	279.69
689.404	352.25
689.812	370.97
690.22	338.21
690.628	286.72
691.036	277.35
691.444	345.23
691.852	349.91
692.26	263.31
692.667	340.55
693.075	326.5
693.483	305.44
693.89	317.14
694.298	305.44
694.705	246.93
695.112	356.93
695.52	298.42
695.927	366.29
696.334	275.01
696.741	298.42
697.148	286.72
697.555	338.21
697.962	300.76
698.369	331.19
698.776	258.63
699.183	270.33
699.59	310.12
699.996	347.57
700.403	354.59
700.81	289.06
701.216	286.72
701.623	277.35
702.029	230.54
702.435	314.8
702.842	314.8
703.248	359.27
703.654	289.06
704.06	307.78
704.466	340.55
704.872	303.1
705.278	237.56
705.684	291.4
706.09	305.44
706.496	331.19
706.901	298.42
707.307	363.95
707.712	333.53
708.118	307.78
708.523	293.74
708.929	324.16
709.334	244.59
709.74	307.78
710.145	314.8
710.55	312.46
710.955	312.46
711.36	394.38
711.765	319.48
712.17	260.97
712.575	246.93
712.98	836.74
713.385	356.93
713.789	286.72
714.194	314.8
714.599	293.74
715.003	335.87
715.408	319.48
715.812	326.5
716.217	349.91
716.621	326.5
717.025	300.76
717.429	314.8
717.833	347.57
718.238	307.78
718.642	314.8
719.046	338.21
719.449	275.01
719.853	267.99
720.257	352.25
720.661	340.55
721.065	267.99
721.468	265.65
721.872	321.82
722.275	382.68
722.679	307.78
723.082	317.14
723.485	256.29
723.889	293.74
724.292	324.16
724.695	286.72
725.098	380.34
725.501	260.97
725.904	317.14
726.307	363.95
726.71	289.06
727.113	289.06
727.516	244.59
727.918	328.85
728.321	286.72
728.724	319.48
729.126	249.27
729.529	319.48
729.931	263.31
730.333	270.33
730.736	300.76
731.138	237.56
731.54	296.08
731.942	211.82
732.344	249.27
732.746	286.72
733.148	303.1
733.55	335.87
733.952	345.23
734.354	275.01
734.756	293.74
735.157	293.74
735.559	310.12
735.96	272.67
736.362	392.04
736.763	317.14
737.165	321.82
737.566	272.67
737.967	324.16
738.368	286.72
738.77	338.21
739.171	312.46
739.572	347.57
739.973	293.74
740.374	331.19
740.774	352.25
741.175	270.33
741.576	282.03
741.977	326.5
742.377	275.01
742.778	303.1
743.178	310.12
743.579	305.44
743.979	267.99
744.379	359.27
744.78	265.65
745.18	324.16
745.58	335.87
745.98	321.82
746.38	317.14
746.78	284.38
747.18	279.69
747.58	319.48
747.98	289.06
748.38	380.34
748.779	275.01
749.179	253.95
749.578	258.63
749.978	361.61
750.377	284.38
750.777	265.65
751.176	277.35
751.575	321.82
751.975	317.14
752.374	270.33
752.773	317.14
753.172	293.74
753.571	260.97
753.97	291.4
754.369	286.72
754.768	291.4
755.166	387.36
755.565	277.35
755.964	324.16
756.362	354.59
756.761	314.8
757.159	359.27
757.558	331.19
757.956	298.42
758.354	356.93
758.753	270.33
759.151	321.82
759.549	401.4
759.947	310.12
760.345	319.48
760.743	286.72
761.141	368.63
761.539	399.06
761.936	408.42
762.334	356.93
762.732	326.5
763.129	326.5
763.527	289.06
763.924	312.46
764.322	291.4
764.719	324.16
765.117	305.44
