Data from Al_FLMS009871__522__14-41-45-122.txt Node

Date: Fri Mar 08 14:41:45 CST 2024
User: pe5414po
Spectrometer: FLMS00987
Trigger mode: 0
Integration Time (sec): 1.000000E-1
Scans to average: 1
Electric dark correction enabled: true
Nonlinearity correction enabled: false
Boxcar width: 0
XAxis mode: Wavelengths
Number of Pixels in Spectrum: 2048
>>>>>Begin Spectral Data<<<<<
188.938	-149.36
189.409	-149.36
189.879	-149.36
190.349	-90.84
190.819	-114.25
191.29	-81.48
191.76	-90.84
192.23	-90.84
192.7	-93.18
193.17	-20.63
193.64	-60.42
194.109	-65.1
194.579	-60.42
195.049	-1.9
195.519	40.23
195.988	47.25
196.458	82.36
196.927	65.97
197.397	119.81
197.866	117.47
198.336	91.72
198.805	180.66
199.274	190.02
199.744	171.3
200.213	192.36
200.682	213.43
201.151	248.54
201.62	262.58
202.089	201.72
202.558	225.13
203.027	232.15
203.495	281.3
203.964	264.92
204.433	285.98
204.902	307.05
205.37	335.14
205.839	269.6
206.307	253.22
206.776	342.16
207.244	269.6
207.712	358.54
208.181	353.86
208.649	321.09
209.117	346.84
209.585	283.64
210.053	300.03
210.521	274.28
210.989	290.67
211.457	274.28
211.925	215.77
212.393	307.05
212.861	300.03
213.328	283.64
213.796	309.39
214.264	269.6
214.731	297.69
215.199	246.2
215.666	281.3
216.133	297.69
216.601	274.28
217.068	316.41
217.535	332.79
218.003	241.51
218.47	232.15
218.937	337.48
219.404	288.32
219.871	328.11
220.338	241.51
220.805	288.32
221.271	222.79
221.738	269.6
222.205	232.15
222.671	246.2
223.138	260.24
223.605	222.79
224.071	264.92
224.538	255.56
225.004	206.41
225.47	222.79
225.937	255.56
226.403	276.62
226.869	267.26
227.335	311.73
227.801	250.88
228.267	281.3
228.733	276.62
229.199	262.58
229.665	267.26
230.131	255.56
230.597	255.56
231.062	276.62
231.528	208.75
231.994	248.54
232.459	285.98
232.925	281.3
233.39	285.98
233.856	304.71
234.321	295.35
234.786	271.94
235.252	218.11
235.717	318.75
236.182	257.9
236.647	309.39
237.112	316.41
237.577	314.07
238.042	222.79
238.507	253.22
238.972	283.64
239.436	274.28
239.901	234.49
240.366	236.83
240.83	260.24
241.295	239.17
241.76	285.98
242.224	311.73
242.688	248.54
243.153	260.24
243.617	304.71
244.081	276.62
244.545	234.49
245.01	281.3
245.474	311.73
245.938	262.58
246.402	262.58
246.866	269.6
247.33	311.73
247.793	267.26
248.257	283.64
248.721	283.64
249.185	255.56
249.648	281.3
250.112	295.35
250.575	257.9
251.039	300.03
251.502	168.96
251.965	264.92
252.429	300.03
252.892	342.16
253.355	213.43
253.818	274.28
254.281	314.07
254.744	311.73
255.207	318.75
255.67	302.37
256.133	276.62
256.596	332.79
257.059	262.58
257.522	297.69
257.984	300.03
258.447	281.3
258.909	304.71
259.372	227.47
259.834	241.51
260.297	255.56
260.759	321.09
261.221	351.52
261.684	271.94
262.146	330.45
262.608	239.17
263.07	253.22
263.532	309.39
263.994	250.88
264.456	323.43
264.918	271.94
265.38	335.14
265.842	339.82
266.303	339.82
266.765	309.39
267.227	260.24
267.688	335.14
268.15	309.39
268.611	248.54
269.072	297.69
269.534	307.05
269.995	246.2
270.456	302.37
270.918	257.9
271.379	316.41
271.84	316.41
272.301	314.07
272.762	323.43
273.223	295.35
273.684	325.77
274.144	260.24
274.605	337.48
275.066	295.35
275.527	267.26
275.987	293.01
276.448	353.86
276.908	283.64
277.369	290.67
277.829	215.77
278.289	257.9
278.75	307.05
279.21	295.35
279.67	264.92
280.13	283.64
280.59	253.22
281.05	316.41
281.51	281.3
281.97	328.11
282.43	267.26
282.89	344.5
283.35	316.41
283.809	278.96
284.269	335.14
284.729	215.77
285.188	213.43
285.648	260.24
286.107	213.43
286.567	278.96
287.026	264.92
287.485	325.77
287.944	311.73
288.404	330.45
288.863	227.47
289.322	234.49
289.781	264.92
290.24	346.84
290.699	300.03
291.158	300.03
291.616	297.69
292.075	257.9
292.534	316.41
292.992	283.64
293.451	311.73
293.91	260.24
294.368	285.98
294.827	274.28
295.285	314.07
295.743	276.62
296.202	274.28
296.66	267.26
297.118	290.67
297.576	248.54
298.034	271.94
298.492	304.71
298.95	253.22
299.408	241.51
299.866	304.71
300.324	316.41
300.781	323.43
301.239	297.69
301.697	293.01
302.154	346.84
302.612	255.56
303.069	337.48
303.527	264.92
303.984	332.79
304.441	218.11
304.899	267.26
305.356	316.41
305.813	295.35
306.27	323.43
306.727	304.71
307.184	356.2
307.641	321.09
308.098	318.75
308.555	300.03
309.012	309.39
309.468	339.82
309.925	304.71
310.382	274.28
310.838	288.32
311.295	353.86
311.751	243.85
312.208	309.39
312.664	318.75
313.12	278.96
313.577	307.05
314.033	321.09
314.489	297.69
314.945	302.37
315.401	381.95
315.857	302.37
316.313	276.62
316.769	307.05
317.225	356.2
317.681	302.37
318.136	300.03
318.592	276.62
319.048	325.77
319.503	325.77
319.959	271.94
320.414	297.69
320.869	281.3
321.325	307.05
321.78	335.14
322.235	330.45
322.691	283.64
323.146	302.37
323.601	255.56
324.056	241.51
324.511	314.07
324.966	243.85
325.421	281.3
325.875	309.39
326.33	293.01
326.785	295.35
327.24	335.14
327.694	358.54
328.149	349.18
328.603	281.3
329.058	271.94
329.512	311.73
329.966	337.48
330.421	295.35
330.875	283.64
331.329	283.64
331.783	295.35
332.237	307.05
332.691	281.3
333.145	271.94
333.599	267.26
334.053	318.75
334.507	321.09
334.96	325.77
335.414	358.54
335.868	356.2
336.321	335.14
336.775	271.94
337.228	349.18
337.682	360.88
338.135	283.64
338.588	283.64
339.042	307.05
339.495	285.98
339.948	304.71
340.401	356.2
340.854	314.07
341.307	391.31
341.76	304.71
342.213	328.11
342.666	325.77
343.119	328.11
343.571	297.69
344.024	276.62
344.477	353.86
344.929	335.14
345.382	241.51
345.834	250.88
346.287	285.98
346.739	344.5
347.191	269.6
347.644	316.41
348.096	269.6
348.548	323.43
349	297.69
349.452	321.09
349.904	349.18
350.356	311.73
350.808	351.52
351.26	316.41
351.711	374.92
352.163	328.11
352.615	295.35
353.066	300.03
353.518	293.01
353.969	241.51
354.421	330.45
354.872	332.79
355.324	250.88
355.775	323.43
356.226	232.15
356.677	295.35
357.128	323.43
357.579	288.32
358.03	332.79
358.481	297.69
358.932	314.07
359.383	281.3
359.834	330.45
360.285	328.11
360.735	302.37
361.186	356.2
361.637	307.05
362.087	281.3
362.538	316.41
362.988	285.98
363.438	269.6
363.889	363.22
364.339	335.14
364.789	283.64
365.239	323.43
365.689	339.82
366.139	344.5
366.589	363.22
367.039	314.07
367.489	342.16
367.939	360.88
368.389	325.77
368.839	316.41
369.288	328.11
369.738	346.84
370.187	281.3
370.637	250.88
371.086	316.41
371.536	311.73
371.985	363.22
372.434	293.01
372.884	278.96
373.333	283.64
373.782	285.98
374.231	344.5
374.68	281.3
375.129	316.41
375.578	318.75
376.027	300.03
376.475	353.86
376.924	330.45
377.373	335.14
377.822	297.69
378.27	288.32
378.719	335.14
379.167	328.11
379.616	339.82
380.064	321.09
380.512	302.37
380.961	255.56
381.409	344.5
381.857	323.43
382.305	271.94
382.753	281.3
383.201	262.58
383.649	293.01
384.097	285.98
384.545	325.77
384.992	325.77
385.44	349.18
385.888	342.16
386.335	314.07
386.783	297.69
387.231	208.75
387.678	285.98
388.125	309.39
388.573	276.62
389.02	311.73
389.467	225.13
389.914	262.58
390.362	297.69
390.809	323.43
391.256	281.3
391.703	255.56
392.15	288.32
392.596	283.64
393.043	328.11
393.49	353.86
393.937	271.94
394.383	264.92
394.83	328.11
395.276	274.28
395.723	297.69
396.169	344.5
396.616	262.58
397.062	293.01
397.508	267.26
397.954	321.09
398.401	339.82
398.847	264.92
399.293	314.07
399.739	365.56
400.185	318.75
400.631	253.22
401.076	351.52
401.522	337.48
401.968	307.05
402.414	335.14
402.859	335.14
403.305	332.79
403.75	316.41
404.196	325.77
404.641	236.83
405.086	307.05
405.532	300.03
405.977	321.09
406.422	288.32
406.867	309.39
407.312	278.96
407.757	335.14
408.202	285.98
408.647	358.54
409.092	330.45
409.537	316.41
409.982	353.86
410.426	290.67
410.871	356.2
411.316	304.71
411.76	321.09
412.205	316.41
412.649	264.92
413.093	278.96
413.538	304.71
413.982	360.88
414.426	283.64
414.87	314.07
415.314	330.45
415.758	257.9
416.202	342.16
416.646	295.35
417.09	365.56
417.534	323.43
417.978	318.75
418.421	300.03
418.865	309.39
419.309	278.96
419.752	290.67
420.196	335.14
420.639	349.18
421.083	260.24
421.526	278.96
421.969	311.73
422.412	330.45
422.856	356.2
423.299	278.96
423.742	386.63
424.185	365.56
424.628	332.79
425.071	311.73
425.513	321.09
425.956	276.62
426.399	311.73
426.842	346.84
427.284	285.98
427.727	318.75
428.169	304.71
428.612	234.49
429.054	311.73
429.497	239.17
429.939	358.54
430.381	346.84
430.823	321.09
431.265	304.71
431.707	342.16
432.149	309.39
432.591	311.73
433.033	318.75
433.475	295.35
433.917	351.52
434.359	325.77
434.8	370.24
435.242	307.05
435.684	360.88
436.125	323.43
436.567	325.77
437.008	285.98
437.449	344.5
437.891	318.75
438.332	346.84
438.773	288.32
439.214	314.07
439.656	269.6
440.097	344.5
440.538	293.01
440.978	236.83
441.419	215.77
441.86	325.77
442.301	302.37
442.742	262.58
443.182	309.39
443.623	321.09
444.063	293.01
444.504	351.52
444.944	372.58
445.385	391.31
445.825	342.16
446.265	295.35
446.706	314.07
447.146	297.69
447.586	330.45
448.026	365.56
448.466	342.16
448.906	356.2
449.346	264.92
449.786	342.16
450.225	274.28
450.665	365.56
451.105	283.64
451.544	309.39
451.984	314.07
452.424	379.61
452.863	349.18
453.302	304.71
453.742	325.77
454.181	271.94
454.62	328.11
455.059	337.48
455.499	304.71
455.938	297.69
456.377	400.67
456.816	353.86
457.254	321.09
457.693	356.2
458.132	353.86
458.571	232.15
459.01	307.05
459.448	379.61
459.887	428.76
460.325	288.32
460.764	264.92
461.202	353.86
461.641	281.3
462.079	330.45
462.517	269.6
462.955	342.16
463.393	278.96
463.832	307.05
464.27	309.39
464.708	293.01
465.145	328.11
465.583	293.01
466.021	302.37
466.459	307.05
466.897	300.03
467.334	358.54
467.772	285.98
468.209	328.11
468.647	311.73
469.084	325.77
469.522	370.24
469.959	267.26
470.396	236.83
470.833	285.98
471.271	349.18
471.708	314.07
472.145	360.88
472.582	356.2
473.019	281.3
473.456	332.79
473.892	290.67
474.329	328.11
474.766	321.09
475.202	288.32
475.639	370.24
476.076	358.54
476.512	288.32
476.949	360.88
477.385	307.05
477.821	314.07
478.258	304.71
478.694	241.51
479.13	337.48
479.566	264.92
480.002	262.58
480.438	285.98
480.874	358.54
481.31	367.9
481.746	276.62
482.181	335.14
482.617	337.48
483.053	332.79
483.488	304.71
483.924	323.43
484.36	339.82
484.795	311.73
485.23	300.03
485.666	323.43
486.101	276.62
486.536	360.88
486.971	346.84
487.407	363.22
487.842	360.88
488.277	332.79
488.712	300.03
489.146	321.09
489.581	386.63
490.016	393.65
490.451	304.71
490.885	344.5
491.32	360.88
491.755	328.11
492.189	288.32
492.624	267.26
493.058	260.24
493.492	290.67
493.927	302.37
494.361	321.09
494.795	271.94
495.229	302.37
495.663	283.64
496.097	281.3
496.531	243.85
496.965	363.22
497.399	304.71
497.833	300.03
498.266	293.01
498.7	293.01
499.134	321.09
499.567	295.35
500.001	255.56
500.434	262.58
500.868	290.67
501.301	271.94
501.734	351.52
502.168	267.26
502.601	264.92
503.034	339.82
503.467	330.45
503.9	309.39
504.333	332.79
504.766	379.61
505.199	276.62
505.632	295.35
506.064	353.86
506.497	300.03
506.93	384.29
507.362	285.98
507.795	328.11
508.227	321.09
508.66	353.86
509.092	293.01
509.524	285.98
509.956	316.41
510.389	309.39
510.821	335.14
511.253	309.39
511.685	300.03
512.117	307.05
512.549	283.64
512.981	264.92
513.412	344.5
513.844	293.01
514.276	302.37
514.707	318.75
515.139	370.24
515.571	344.5
516.002	309.39
516.433	271.94
516.865	278.96
517.296	342.16
517.727	335.14
518.159	325.77
518.59	297.69
519.021	311.73
519.452	314.07
519.883	372.58
520.314	260.24
520.744	302.37
521.175	276.62
521.606	257.9
522.037	335.14
522.467	325.77
522.898	323.43
523.328	304.71
523.759	351.52
524.189	339.82
524.62	339.82
525.05	328.11
525.48	314.07
525.91	309.39
526.341	360.88
526.771	262.58
527.201	367.9
527.631	332.79
528.061	297.69
528.49	290.67
528.92	307.05
529.35	304.71
529.78	309.39
530.209	311.73
530.639	325.77
531.068	353.86
531.498	318.75
531.927	353.86
532.357	342.16
532.786	297.69
533.215	325.77
533.644	274.28
534.074	339.82
534.503	318.75
534.932	302.37
535.361	297.69
535.79	365.56
536.218	328.11
536.647	260.24
537.076	285.98
537.505	283.64
537.933	297.69
538.362	316.41
538.79	316.41
539.219	342.16
539.647	309.39
540.076	241.51
540.504	255.56
540.932	288.32
541.36	267.26
541.788	316.41
542.217	339.82
542.645	332.79
543.073	367.9
543.5	253.22
543.928	311.73
544.356	323.43
544.784	318.75
545.211	304.71
545.639	316.41
546.067	332.79
546.494	318.75
546.922	344.5
547.349	342.16
547.776	316.41
548.204	300.03
548.631	278.96
549.058	255.56
549.485	267.26
549.912	339.82
550.339	274.28
550.766	288.32
551.193	356.2
551.62	271.94
552.047	304.71
552.474	356.2
552.9	316.41
553.327	349.18
553.754	302.37
554.18	323.43
554.607	283.64
555.033	325.77
555.459	300.03
555.886	337.48
556.312	323.43
556.738	351.52
557.164	330.45
557.59	349.18
558.016	335.14
558.442	300.03
558.868	346.84
559.294	309.39
559.72	360.88
560.145	325.77
560.571	363.22
560.997	307.05
561.422	316.41
561.848	267.26
562.273	330.45
562.699	302.37
563.124	250.88
563.549	269.6
563.974	323.43
564.4	318.75
564.825	318.75
565.25	316.41
565.675	307.05
566.1	356.2
566.525	288.32
566.95	358.54
567.374	307.05
567.799	241.51
568.224	372.58
568.648	358.54
569.073	384.29
569.497	330.45
569.922	283.64
570.346	232.15
570.771	332.79
571.195	335.14
571.619	281.3
572.043	300.03
572.467	278.96
572.891	309.39
573.315	302.37
573.739	283.64
574.163	321.09
574.587	307.05
575.011	349.18
575.435	267.26
575.858	323.43
576.282	300.03
576.705	274.28
577.129	314.07
577.552	300.03
577.976	271.94
578.399	302.37
578.822	271.94
579.245	332.79
579.669	321.09
580.092	321.09
580.515	318.75
580.938	405.35
581.361	309.39
581.784	342.16
582.206	379.61
582.629	278.96
583.052	262.58
583.474	307.05
583.897	281.3
584.32	342.16
584.742	339.82
585.165	335.14
585.587	325.77
586.009	330.45
586.431	351.52
586.854	323.43
587.276	307.05
587.698	330.45
588.12	267.26
588.542	309.39
588.964	323.43
589.386	269.6
589.807	374.92
590.229	295.35
590.651	325.77
591.073	346.84
591.494	293.01
591.916	339.82
592.337	262.58
592.759	363.22
593.18	311.73
593.601	356.2
594.022	290.67
594.444	274.28
594.865	307.05
595.286	304.71
595.707	269.6
596.128	297.69
596.549	318.75
596.97	339.82
597.39	323.43
597.811	330.45
598.232	311.73
598.652	325.77
599.073	342.16
599.494	248.54
599.914	314.07
600.334	285.98
600.755	349.18
601.175	318.75
601.595	239.17
602.015	281.3
602.436	304.71
602.856	417.05
603.276	264.92
603.696	295.35
604.115	264.92
604.535	290.67
604.955	271.94
605.375	379.61
605.794	318.75
606.214	234.49
606.634	344.5
607.053	307.05
607.473	304.71
607.892	325.77
608.311	302.37
608.731	339.82
609.15	344.5
609.569	304.71
609.988	274.28
610.407	365.56
610.826	370.24
611.245	316.41
611.664	253.22
612.083	323.43
612.501	335.14
612.92	295.35
613.339	321.09
613.757	297.69
614.176	328.11
614.594	311.73
615.013	323.43
615.431	285.98
615.85	260.24
616.268	283.64
616.686	318.75
617.104	304.71
617.522	318.75
617.94	377.27
618.358	351.52
618.776	283.64
619.194	314.07
619.612	283.64
620.03	332.79
620.447	328.11
620.865	276.62
621.282	295.35
621.7	332.79
622.117	300.03
622.535	330.45
622.952	295.35
623.369	253.22
623.787	304.71
624.204	288.32
624.621	300.03
625.038	318.75
625.455	330.45
625.872	309.39
626.289	325.77
626.706	269.6
627.123	363.22
627.539	295.35
627.956	269.6
628.373	349.18
628.789	321.09
629.206	349.18
629.622	318.75
630.038	293.01
630.455	314.07
630.871	328.11
631.287	318.75
631.703	311.73
632.12	304.71
632.536	285.98
632.952	311.73
633.368	316.41
633.783	360.88
634.199	309.39
634.615	281.3
635.031	351.52
635.446	339.82
635.862	290.67
636.277	311.73
636.693	363.22
637.108	285.98
637.524	374.92
637.939	339.82
638.354	253.22
638.77	297.69
639.185	314.07
639.6	283.64
640.015	304.71
640.43	297.69
640.845	293.01
641.259	318.75
641.674	271.94
642.089	295.35
642.504	288.32
642.918	342.16
643.333	307.05
643.747	246.2
644.162	285.98
644.576	278.96
644.991	398.33
645.405	405.35
645.819	309.39
646.233	271.94
646.647	316.41
647.061	356.2
647.475	225.13
647.889	264.92
648.303	311.73
648.717	288.32
649.131	297.69
649.545	307.05
649.958	304.71
650.372	365.56
650.785	236.83
651.199	293.01
651.612	293.01
652.026	309.39
652.439	288.32
652.852	290.67
653.266	314.07
653.679	314.07
654.092	339.82
654.505	274.28
654.918	349.18
655.331	309.39
655.744	318.75
656.156	295.35
656.569	323.43
656.982	290.67
657.394	363.22
657.807	330.45
658.22	346.84
658.632	300.03
659.044	325.77
659.457	283.64
659.869	346.84
660.281	311.73
660.693	278.96
661.106	278.96
661.518	374.92
661.93	297.69
662.342	356.2
662.754	325.77
663.165	363.22
663.577	311.73
663.989	311.73
664.401	297.69
664.812	344.5
665.224	339.82
665.635	365.56
666.047	351.52
666.458	353.86
666.869	293.01
667.281	304.71
667.692	377.27
668.103	281.3
668.514	260.24
668.925	351.52
669.336	337.48
669.747	300.03
670.158	302.37
670.569	316.41
670.979	323.43
671.39	274.28
671.801	330.45
672.211	314.07
672.622	288.32
673.032	290.67
673.443	370.24
673.853	346.84
674.263	285.98
674.674	339.82
675.084	335.14
675.494	346.84
675.904	297.69
676.314	295.35
676.724	309.39
677.134	307.05
677.544	297.69
677.953	274.28
678.363	285.98
678.773	339.82
679.182	311.73
679.592	283.64
680.001	290.67
680.411	342.16
680.82	318.75
681.23	295.35
681.639	262.58
682.048	372.58
682.457	295.35
682.866	349.18
683.275	281.3
683.684	349.18
684.093	283.64
684.502	290.67
684.911	365.56
685.32	204.07
685.728	285.98
686.137	304.71
686.546	307.05
686.954	363.22
687.363	344.5
687.771	318.75
688.179	332.79
688.588	283.64
688.996	297.69
689.404	321.09
689.812	297.69
690.22	309.39
690.628	309.39
691.036	321.09
691.444	304.71
691.852	325.77
692.26	330.45
692.667	321.09
693.075	351.52
693.483	314.07
693.89	269.6
694.298	243.85
694.705	337.48
695.112	290.67
695.52	314.07
695.927	372.58
696.334	297.69
696.741	302.37
697.148	307.05
697.555	356.2
697.962	274.28
698.369	274.28
698.776	337.48
699.183	339.82
699.59	297.69
699.996	337.48
700.403	309.39
700.81	349.18
701.216	323.43
701.623	274.28
702.029	297.69
702.435	321.09
702.842	300.03
703.248	328.11
703.654	346.84
704.06	293.01
704.466	328.11
704.872	293.01
705.278	321.09
705.684	311.73
706.09	342.16
706.496	377.27
706.901	332.79
707.307	225.13
707.712	360.88
708.118	323.43
708.523	365.56
708.929	285.98
709.334	307.05
709.74	337.48
710.145	281.3
710.55	297.69
710.955	328.11
711.36	283.64
711.765	325.77
712.17	339.82
712.575	297.69
712.98	718.98
713.385	342.16
713.789	288.32
714.194	239.17
714.599	222.79
715.003	274.28
715.408	257.9
715.812	227.47
716.217	403.01
716.621	321.09
717.025	351.52
717.429	285.98
717.833	229.81
718.238	353.86
718.642	360.88
719.046	328.11
719.449	304.71
719.853	323.43
720.257	288.32
720.661	267.26
721.065	353.86
721.468	346.84
721.872	360.88
722.275	339.82
722.679	342.16
723.082	288.32
723.485	260.24
723.889	281.3
724.292	332.79
724.695	365.56
725.098	288.32
725.501	274.28
725.904	330.45
726.307	262.58
726.71	227.47
727.113	278.96
727.516	314.07
727.918	328.11
728.321	297.69
728.724	323.43
729.126	321.09
729.529	360.88
729.931	344.5
730.333	311.73
730.736	332.79
731.138	346.84
731.54	328.11
731.942	307.05
732.344	271.94
732.746	309.39
733.148	353.86
733.55	302.37
733.952	264.92
734.354	311.73
734.756	353.86
735.157	330.45
735.559	370.24
735.96	318.75
736.362	309.39
736.763	307.05
737.165	323.43
737.566	285.98
737.967	288.32
738.368	335.14
738.77	344.5
739.171	370.24
739.572	342.16
739.973	302.37
740.374	316.41
740.774	363.22
741.175	304.71
741.576	285.98
741.977	304.71
742.377	344.5
742.778	278.96
743.178	328.11
743.579	281.3
743.979	332.79
744.379	349.18
744.78	293.01
745.18	335.14
745.58	353.86
745.98	253.22
746.38	262.58
746.78	267.26
747.18	372.58
747.58	278.96
747.98	288.32
748.38	353.86
748.779	328.11
749.179	297.69
749.578	316.41
749.978	367.9
750.377	335.14
750.777	297.69
751.176	316.41
751.575	307.05
751.975	346.84
752.374	293.01
752.773	269.6
753.172	297.69
753.571	278.96
753.97	307.05
754.369	281.3
754.768	278.96
755.166	311.73
755.565	288.32
755.964	358.54
756.362	358.54
756.761	335.14
757.159	304.71
757.558	339.82
757.956	267.26
758.354	295.35
758.753	335.14
759.151	248.54
759.549	323.43
759.947	290.67
760.345	314.07
760.743	330.45
761.141	300.03
761.539	257.9
761.936	283.64
762.334	346.84
762.732	304.71
763.129	330.45
763.527	323.43
763.924	262.58
764.322	367.9
