Data from Al_FLMS009871__524__14-41-45-323.txt Node

Date: Fri Mar 08 14:41:45 CST 2024
User: pe5414po
Spectrometer: FLMS00987
Trigger mode: 0
Integration Time (sec): 1.000000E-1
Scans to average: 1
Electric dark correction enabled: true
Nonlinearity correction enabled: false
Boxcar width: 0
XAxis mode: Wavelengths
Number of Pixels in Spectrum: 2048
>>>>>Begin Spectral Data<<<<<
188.938	-90.55
189.409	-90.55
189.879	-90.55
190.349	-116.3
190.819	-81.19
191.29	-90.55
191.76	-20.33
192.23	-104.59
192.7	-74.17
193.17	-113.95
193.64	7.75
194.109	-17.99
194.579	-22.67
195.049	26.48
195.519	-22.67
195.988	14.77
196.458	26.48
196.927	47.54
197.397	136.48
197.866	108.4
198.336	99.03
198.805	169.25
199.274	152.87
199.744	192.66
200.213	103.71
200.682	164.57
201.151	199.68
201.62	199.68
202.089	216.06
202.558	241.81
203.027	206.7
203.495	255.85
203.964	274.57
204.433	237.13
204.902	290.96
205.37	255.85
205.839	363.51
206.307	321.38
206.776	283.94
207.244	279.26
207.712	293.3
208.181	244.15
208.649	260.53
209.117	279.26
209.585	305
210.053	302.66
210.521	255.85
210.989	370.54
211.457	248.83
211.925	300.32
212.393	260.53
212.861	279.26
213.328	216.06
213.796	290.96
214.264	241.81
214.731	253.51
215.199	262.87
215.666	237.13
216.133	260.53
216.601	244.15
217.068	283.94
217.535	190.31
218.003	274.57
218.47	290.96
218.937	293.3
219.404	326.07
219.871	223.08
220.338	288.62
220.805	232.44
221.271	255.85
221.738	211.38
222.205	272.23
222.671	187.97
223.138	290.96
223.605	227.76
224.071	295.64
224.538	227.76
225.004	283.94
225.47	283.94
225.937	213.72
226.403	202.02
226.869	283.94
227.335	246.49
227.801	232.44
228.267	347.13
228.733	347.13
229.199	246.49
229.665	279.26
230.131	220.74
230.597	260.53
231.062	218.4
231.528	204.36
231.994	216.06
232.459	286.28
232.925	300.32
233.39	241.81
233.856	262.87
234.321	241.81
234.786	225.42
235.252	265.21
235.717	258.19
236.182	213.72
236.647	267.55
237.112	209.04
237.577	326.07
238.042	290.96
238.507	253.51
238.972	272.23
239.436	269.89
239.901	267.55
240.366	279.26
240.83	232.44
241.295	297.98
241.76	319.04
242.224	286.28
242.688	276.91
243.153	351.81
243.617	305
244.081	354.15
244.545	248.83
245.01	248.83
245.474	319.04
245.938	244.15
246.402	276.91
246.866	305
247.33	276.91
247.793	255.85
248.257	260.53
248.721	309.68
249.185	267.55
249.648	211.38
250.112	279.26
250.575	276.91
251.039	293.3
251.502	347.13
251.965	323.73
252.429	272.23
252.892	272.23
253.355	251.17
253.818	209.04
254.281	272.23
254.744	293.3
255.207	283.94
255.67	286.28
256.133	260.53
256.596	312.02
257.059	279.26
257.522	297.98
257.984	230.1
258.447	290.96
258.909	279.26
259.372	220.74
259.834	225.42
260.297	323.73
260.759	293.3
261.221	248.83
261.684	267.55
262.146	237.13
262.608	328.41
263.07	340.11
263.532	281.6
263.994	337.77
264.456	321.38
264.918	288.62
265.38	321.38
265.842	241.81
266.303	251.17
266.765	283.94
267.227	262.87
267.688	293.3
268.15	314.36
268.611	305
269.072	312.02
269.534	302.66
269.995	255.85
270.456	281.6
270.918	258.19
271.379	223.08
271.84	274.57
272.301	274.57
272.762	269.89
273.223	295.64
273.684	328.41
274.144	330.75
274.605	293.3
275.066	314.36
275.527	309.68
275.987	269.89
276.448	330.75
276.908	274.57
277.369	258.19
277.829	279.26
278.289	286.28
278.75	279.26
279.21	255.85
279.67	276.91
280.13	239.47
280.59	281.6
281.05	286.28
281.51	288.62
281.97	234.78
282.43	258.19
282.89	265.21
283.35	258.19
283.809	309.68
284.269	326.07
284.729	305
285.188	279.26
285.648	253.51
286.107	307.34
286.567	314.36
287.026	319.04
287.485	262.87
287.944	326.07
288.404	314.36
288.863	225.42
289.322	297.98
289.781	274.57
290.24	309.68
290.699	328.41
291.158	377.56
291.616	309.68
292.075	340.11
292.534	302.66
292.992	297.98
293.451	288.62
293.91	297.98
294.368	316.7
294.827	349.47
295.285	258.19
295.743	286.28
296.202	328.41
296.66	272.23
297.118	237.13
297.576	314.36
298.034	234.78
298.492	297.98
298.95	321.38
299.408	302.66
299.866	361.17
300.324	302.66
300.781	276.91
301.239	302.66
301.697	302.66
302.154	281.6
302.612	274.57
303.069	248.83
303.527	335.43
303.984	316.7
304.441	265.21
304.899	335.43
305.356	290.96
305.813	356.49
306.27	337.77
306.727	297.98
307.184	323.73
307.641	297.98
308.098	358.83
308.555	307.34
309.012	239.47
309.468	281.6
309.925	244.15
310.382	358.83
310.838	286.28
311.295	267.55
311.751	283.94
312.208	269.89
312.664	321.38
313.12	314.36
313.577	323.73
314.033	316.7
314.489	276.91
314.945	312.02
315.401	333.09
315.857	356.49
316.313	342.45
316.769	323.73
317.225	307.34
317.681	305
318.136	335.43
318.592	253.51
319.048	365.85
319.503	300.32
319.959	323.73
320.414	295.64
320.869	354.15
321.325	335.43
321.78	274.57
322.235	309.68
322.691	276.91
323.146	276.91
323.601	337.77
324.056	316.7
324.511	283.94
324.966	314.36
325.421	300.32
325.875	326.07
326.33	267.55
326.785	274.57
327.24	276.91
327.694	302.66
328.149	290.96
328.603	323.73
329.058	344.79
329.512	314.36
329.966	251.17
330.421	297.98
330.875	305
331.329	281.6
331.783	342.45
332.237	398.62
332.691	300.32
333.145	295.64
333.599	274.57
334.053	356.49
334.507	286.28
334.96	269.89
335.414	305
335.868	316.7
336.321	283.94
336.775	253.51
337.228	244.15
337.682	295.64
338.135	290.96
338.588	312.02
339.042	344.79
339.495	326.07
339.948	347.13
340.401	293.3
340.854	312.02
341.307	286.28
341.76	319.04
342.213	386.92
342.666	321.38
343.119	340.11
343.571	286.28
344.024	265.21
344.477	377.56
344.929	316.7
345.382	251.17
345.834	272.23
346.287	316.7
346.739	363.51
347.191	248.83
347.644	314.36
348.096	274.57
348.548	290.96
349	319.04
349.452	305
349.904	328.41
350.356	297.98
350.808	363.51
351.26	316.7
351.711	300.32
352.163	302.66
352.615	239.47
353.066	328.41
353.518	286.28
353.969	274.57
354.421	302.66
354.872	319.04
355.324	288.62
355.775	272.23
356.226	302.66
356.677	358.83
357.128	354.15
357.579	319.04
358.03	307.34
358.481	326.07
358.932	269.89
359.383	276.91
359.834	340.11
360.285	323.73
360.735	281.6
361.186	267.55
361.637	351.81
362.087	279.26
362.538	272.23
362.988	358.83
363.438	323.73
363.889	314.36
364.339	300.32
364.789	326.07
365.239	335.43
365.689	309.68
366.139	300.32
366.589	288.62
367.039	314.36
367.489	281.6
367.939	269.89
368.389	274.57
368.839	305
369.288	262.87
369.738	316.7
370.187	347.13
370.637	269.89
371.086	314.36
371.536	302.66
371.985	267.55
372.434	316.7
372.884	295.64
373.333	290.96
373.782	279.26
374.231	328.41
374.68	262.87
375.129	337.77
375.578	321.38
376.027	276.91
376.475	293.3
376.924	316.7
377.373	265.21
377.822	274.57
378.27	305
378.719	316.7
379.167	342.45
379.616	335.43
380.064	372.88
380.512	361.17
380.961	319.04
381.409	319.04
381.857	281.6
382.305	365.85
382.753	314.36
383.201	288.62
383.649	274.57
384.097	297.98
384.545	386.92
384.992	333.09
385.44	300.32
385.888	316.7
386.335	272.23
386.783	307.34
387.231	248.83
387.678	302.66
388.125	347.13
388.573	354.15
389.02	305
389.467	281.6
389.914	312.02
390.362	302.66
390.809	314.36
391.256	314.36
391.703	279.26
392.15	358.83
392.596	372.88
393.043	314.36
393.49	384.58
393.937	328.41
394.383	279.26
394.83	267.55
395.276	342.45
395.723	297.98
396.169	288.62
396.616	305
397.062	281.6
397.508	262.87
397.954	342.45
398.401	328.41
398.847	305
399.293	340.11
399.739	344.79
400.185	323.73
400.631	279.26
401.076	351.81
401.522	363.51
401.968	351.81
402.414	281.6
402.859	365.85
403.305	319.04
403.75	305
404.196	375.22
404.641	251.17
405.086	316.7
405.532	302.66
405.977	375.22
406.422	312.02
406.867	333.09
407.312	333.09
407.757	321.38
408.202	321.38
408.647	279.26
409.092	305
409.537	342.45
409.982	340.11
410.426	251.17
410.871	328.41
411.316	328.41
411.76	309.68
412.205	326.07
412.649	286.28
413.093	316.7
413.538	335.43
413.982	321.38
414.426	258.19
414.87	290.96
415.314	319.04
415.758	342.45
416.202	297.98
416.646	305
417.09	326.07
417.534	312.02
417.978	351.81
418.421	356.49
418.865	389.26
419.309	342.45
419.752	297.98
420.196	300.32
420.639	344.79
421.083	300.32
421.526	370.54
421.969	305
422.412	326.07
422.856	389.26
423.299	321.38
423.742	314.36
424.185	300.32
424.628	258.19
425.071	300.32
425.513	293.3
425.956	295.64
426.399	307.34
426.842	290.96
427.284	326.07
427.727	283.94
428.169	342.45
428.612	295.64
429.054	340.11
429.497	286.28
429.939	279.26
430.381	347.13
430.823	333.09
431.265	335.43
431.707	356.49
432.149	314.36
432.591	349.47
433.033	286.28
433.475	337.77
433.917	241.81
434.359	295.64
434.8	269.89
435.242	272.23
435.684	312.02
436.125	286.28
436.567	356.49
437.008	337.77
437.449	400.96
437.891	251.17
438.332	347.13
438.773	312.02
439.214	302.66
439.656	328.41
440.097	337.77
440.538	293.3
440.978	246.49
441.419	386.92
441.86	358.83
442.301	297.98
442.742	307.34
443.182	297.98
443.623	344.79
444.063	396.28
444.504	276.91
444.944	351.81
445.385	333.09
445.825	365.85
446.265	283.94
446.706	309.68
447.146	253.51
447.586	323.73
448.026	330.75
448.466	335.43
448.906	335.43
449.346	302.66
449.786	281.6
450.225	340.11
450.665	365.85
451.105	290.96
451.544	312.02
451.984	326.07
452.424	297.98
452.863	307.34
453.302	377.56
453.742	279.26
454.181	328.41
454.62	319.04
455.059	323.73
455.499	363.51
455.938	295.64
456.377	326.07
456.816	349.47
457.254	258.19
457.693	309.68
458.132	305
458.571	347.13
459.01	302.66
459.448	276.91
459.887	335.43
460.325	319.04
460.764	349.47
461.202	227.76
461.641	351.81
462.079	314.36
462.517	297.98
462.955	279.26
463.393	340.11
463.832	258.19
464.27	347.13
464.708	290.96
465.145	333.09
465.583	382.24
466.021	262.87
466.459	251.17
466.897	283.94
467.334	258.19
467.772	323.73
468.209	260.53
468.647	290.96
469.084	330.75
469.522	333.09
469.959	328.41
470.396	323.73
470.833	316.7
471.271	251.17
471.708	342.45
472.145	307.34
472.582	328.41
473.019	370.54
473.456	281.6
473.892	305
474.329	356.49
474.766	321.38
475.202	305
475.639	302.66
476.076	319.04
476.512	400.96
476.949	288.62
477.385	309.68
477.821	335.43
478.258	288.62
478.694	286.28
479.13	337.77
479.566	312.02
480.002	305
480.438	262.87
480.874	342.45
481.31	283.94
481.746	321.38
482.181	314.36
482.617	321.38
483.053	351.81
483.488	232.44
483.924	326.07
484.36	365.85
484.795	302.66
485.23	384.58
485.666	347.13
486.101	347.13
486.536	335.43
486.971	302.66
487.407	330.75
487.842	358.83
488.277	269.89
488.712	286.28
489.146	288.62
489.581	349.47
490.016	302.66
490.451	323.73
490.885	258.19
491.32	328.41
491.755	330.75
492.189	293.3
492.624	286.28
493.058	300.32
493.492	316.7
493.927	288.62
494.361	326.07
494.795	276.91
495.229	349.47
495.663	281.6
496.097	305
496.531	319.04
496.965	300.32
497.399	326.07
497.833	307.34
498.266	305
498.7	335.43
499.134	316.7
499.567	342.45
500.001	319.04
500.434	342.45
500.868	272.23
501.301	342.45
501.734	342.45
502.168	279.26
502.601	290.96
503.034	241.81
503.467	384.58
503.9	342.45
504.333	290.96
504.766	251.17
505.199	267.55
505.632	227.76
506.064	281.6
506.497	274.57
506.93	337.77
507.362	323.73
507.795	335.43
508.227	293.3
508.66	321.38
509.092	255.85
509.524	295.64
509.956	281.6
510.389	279.26
510.821	260.53
511.253	312.02
511.685	305
512.117	307.34
512.549	319.04
512.981	258.19
513.412	316.7
513.844	370.54
514.276	314.36
514.707	283.94
515.139	319.04
515.571	267.55
516.002	305
516.433	347.13
516.865	363.51
517.296	372.88
517.727	290.96
518.159	314.36
518.59	354.15
519.021	286.28
519.452	319.04
519.883	307.34
520.314	309.68
520.744	337.77
521.175	319.04
521.606	368.2
522.037	319.04
522.467	330.75
522.898	358.83
523.328	279.26
523.759	274.57
524.189	260.53
524.62	307.34
525.05	321.38
525.48	323.73
525.91	312.02
526.341	384.58
526.771	347.13
527.201	283.94
527.631	281.6
528.061	321.38
528.49	279.26
528.92	297.98
529.35	265.21
529.78	288.62
530.209	293.3
530.639	305
531.068	356.49
531.498	321.38
531.927	290.96
532.357	283.94
532.786	276.91
533.215	349.47
533.644	344.79
534.074	358.83
534.503	312.02
534.932	328.41
535.361	297.98
535.79	347.13
536.218	307.34
536.647	340.11
537.076	283.94
537.505	356.49
537.933	269.89
538.362	286.28
538.79	330.75
539.219	368.2
539.647	279.26
540.076	333.09
540.504	192.66
540.932	340.11
541.36	344.79
541.788	309.68
542.217	276.91
542.645	328.41
543.073	372.88
543.5	361.17
543.928	293.3
544.356	305
544.784	354.15
545.211	216.06
545.639	342.45
546.067	288.62
546.494	272.23
546.922	370.54
547.349	288.62
547.776	370.54
548.204	272.23
548.631	326.07
549.058	234.78
549.485	295.64
549.912	305
550.339	251.17
550.766	337.77
551.193	335.43
551.62	333.09
552.047	323.73
552.474	295.64
552.9	321.38
553.327	309.68
553.754	272.23
554.18	309.68
554.607	384.58
555.033	358.83
555.459	312.02
555.886	283.94
556.312	349.47
556.738	302.66
557.164	307.34
557.59	269.89
558.016	293.3
558.442	260.53
558.868	307.34
559.294	328.41
559.72	342.45
560.145	260.53
560.571	290.96
560.997	347.13
561.422	307.34
561.848	244.15
562.273	323.73
562.699	363.51
563.124	344.79
563.549	365.85
563.974	340.11
564.4	337.77
564.825	290.96
565.25	300.32
565.675	349.47
566.1	358.83
566.525	288.62
566.95	316.7
567.374	293.3
567.799	293.3
568.224	312.02
568.648	300.32
569.073	356.49
569.497	368.2
569.922	340.11
570.346	344.79
570.771	274.57
571.195	283.94
571.619	335.43
572.043	293.3
572.467	351.81
572.891	354.15
573.315	326.07
573.739	305
574.163	330.75
574.587	328.41
575.011	262.87
575.435	328.41
575.858	276.91
576.282	297.98
576.705	349.47
577.129	297.98
577.552	297.98
577.976	337.77
578.399	309.68
578.822	358.83
579.245	262.87
579.669	286.28
580.092	302.66
580.515	274.57
580.938	293.3
581.361	274.57
581.784	333.09
582.206	283.94
582.629	297.98
583.052	302.66
583.474	288.62
583.897	361.17
584.32	326.07
584.742	309.68
585.165	344.79
585.587	295.64
586.009	281.6
586.431	281.6
586.854	274.57
587.276	281.6
587.698	314.36
588.12	316.7
588.542	321.38
588.964	335.43
589.386	302.66
589.807	290.96
590.229	295.64
590.651	321.38
591.073	323.73
591.494	293.3
591.916	297.98
592.337	342.45
592.759	316.7
593.18	234.78
593.601	354.15
594.022	295.64
594.444	337.77
594.865	300.32
595.286	368.2
595.707	305
596.128	286.28
596.549	312.02
596.97	297.98
597.39	354.15
597.811	300.32
598.232	272.23
598.652	363.51
599.073	300.32
599.494	384.58
599.914	302.66
600.334	288.62
600.755	305
601.175	279.26
601.595	349.47
602.015	307.34
602.436	267.55
602.856	365.85
603.276	328.41
603.696	237.13
604.115	267.55
604.535	305
604.955	354.15
605.375	307.34
605.794	293.3
606.214	337.77
606.634	290.96
607.053	309.68
607.473	305
607.892	265.21
608.311	265.21
608.731	321.38
609.15	279.26
609.569	342.45
609.988	344.79
610.407	297.98
610.826	297.98
611.245	262.87
611.664	300.32
612.083	244.15
612.501	323.73
612.92	351.81
613.339	307.34
613.757	335.43
614.176	307.34
614.594	337.77
615.013	361.17
615.431	323.73
615.85	351.81
616.268	319.04
616.686	354.15
617.104	300.32
617.522	328.41
617.94	314.36
618.358	260.53
618.776	248.83
619.194	316.7
619.612	358.83
620.03	347.13
620.447	351.81
620.865	379.9
621.282	286.28
621.7	260.53
622.117	307.34
622.535	295.64
622.952	272.23
623.369	309.68
623.787	361.17
624.204	319.04
624.621	365.85
625.038	344.79
625.455	326.07
625.872	328.41
626.289	297.98
626.706	321.38
627.123	347.13
627.539	333.09
627.956	326.07
628.373	253.51
628.789	335.43
629.206	297.98
629.622	384.58
630.038	314.36
630.455	344.79
630.871	365.85
631.287	337.77
631.703	283.94
632.12	295.64
632.536	333.09
632.952	302.66
633.368	293.3
633.783	321.38
634.199	319.04
634.615	258.19
635.031	330.75
635.446	265.21
635.862	344.79
636.277	368.2
636.693	309.68
637.108	326.07
637.524	312.02
637.939	328.41
638.354	283.94
638.77	283.94
639.185	300.32
639.6	255.85
640.015	255.85
640.43	213.72
640.845	241.81
641.259	335.43
641.674	232.44
642.089	302.66
642.504	286.28
642.918	248.83
643.333	309.68
643.747	295.64
644.162	321.38
644.576	319.04
644.991	272.23
645.405	377.56
645.819	300.32
646.233	312.02
646.647	302.66
647.061	349.47
647.475	232.44
647.889	293.3
648.303	321.38
648.717	312.02
649.131	321.38
649.545	379.9
649.958	382.24
650.372	354.15
650.785	302.66
651.199	279.26
651.612	290.96
652.026	281.6
652.439	319.04
652.852	368.2
653.266	305
653.679	321.38
654.092	335.43
654.505	283.94
654.918	312.02
655.331	262.87
655.744	293.3
656.156	309.68
656.569	354.15
656.982	265.21
657.394	330.75
657.807	307.34
658.22	349.47
658.632	276.91
659.044	326.07
659.457	269.89
659.869	276.91
660.281	246.49
660.693	342.45
661.106	319.04
661.518	333.09
661.93	319.04
662.342	316.7
662.754	290.96
663.165	326.07
663.577	267.55
663.989	293.3
664.401	286.28
664.812	302.66
665.224	319.04
665.635	342.45
666.047	349.47
666.458	290.96
666.869	312.02
667.281	358.83
667.692	323.73
668.103	349.47
668.514	307.34
668.925	321.38
669.336	326.07
669.747	290.96
670.158	269.89
670.569	323.73
670.979	297.98
671.39	314.36
671.801	288.62
672.211	267.55
672.622	356.49
673.032	356.49
673.443	262.87
673.853	314.36
674.263	347.13
674.674	349.47
675.084	396.28
675.494	283.94
675.904	314.36
676.314	330.75
676.724	307.34
677.134	255.85
677.544	279.26
677.953	239.47
678.363	260.53
678.773	379.9
679.182	410.33
679.592	384.58
680.001	286.28
680.411	356.49
680.82	262.87
681.23	309.68
681.639	335.43
682.048	248.83
682.457	279.26
682.866	326.07
683.275	237.13
683.684	272.23
684.093	267.55
684.502	244.15
684.911	314.36
685.32	349.47
685.728	316.7
686.137	361.17
686.546	232.44
686.954	309.68
687.363	288.62
687.771	328.41
688.179	309.68
688.588	314.36
688.996	312.02
689.404	286.28
689.812	340.11
690.22	279.26
690.628	267.55
691.036	354.15
691.444	370.54
691.852	340.11
692.26	333.09
692.667	276.91
693.075	272.23
693.483	328.41
693.89	391.6
694.298	286.28
694.705	220.74
695.112	321.38
695.52	316.7
695.927	314.36
696.334	328.41
696.741	305
697.148	255.85
697.555	347.13
697.962	328.41
698.369	335.43
698.776	267.55
699.183	251.17
699.59	293.3
699.996	297.98
700.403	319.04
700.81	295.64
701.216	300.32
701.623	312.02
702.029	253.51
702.435	354.15
702.842	319.04
703.248	297.98
703.654	316.7
704.06	288.62
704.466	253.51
704.872	237.13
705.278	337.77
705.684	309.68
706.09	351.81
706.496	265.21
706.901	344.79
707.307	297.98
707.712	354.15
708.118	333.09
708.523	307.34
708.929	356.49
709.334	314.36
709.74	314.36
710.145	286.28
710.55	281.6
710.955	372.88
711.36	351.81
711.765	309.68
712.17	276.91
712.575	358.83
712.98	763.75
713.385	314.36
713.789	326.07
714.194	323.73
714.599	283.94
715.003	361.17
715.408	281.6
715.812	323.73
716.217	328.41
716.621	344.79
717.025	290.96
717.429	330.75
717.833	333.09
718.238	321.38
718.642	337.77
719.046	279.26
719.449	344.79
719.853	281.6
720.257	312.02
720.661	283.94
721.065	281.6
721.468	295.64
721.872	279.26
722.275	330.75
722.679	279.26
723.082	293.3
723.485	333.09
723.889	300.32
724.292	344.79
724.695	342.45
725.098	344.79
725.501	286.28
725.904	307.34
726.307	319.04
726.71	253.51
727.113	290.96
727.516	290.96
727.918	290.96
728.321	251.17
728.724	283.94
729.126	344.79
729.529	335.43
729.931	349.47
730.333	305
730.736	288.62
731.138	300.32
731.54	244.15
731.942	316.7
732.344	267.55
732.746	276.91
733.148	326.07
733.55	312.02
733.952	342.45
734.354	290.96
734.756	262.87
735.157	342.45
735.559	288.62
735.96	314.36
736.362	274.57
736.763	293.3
737.165	295.64
737.566	253.51
737.967	323.73
738.368	283.94
738.77	302.66
739.171	244.15
739.572	293.3
739.973	337.77
740.374	344.79
740.774	274.57
741.175	269.89
741.576	307.34
741.977	312.02
742.377	342.45
742.778	321.38
743.178	305
743.579	272.23
743.979	330.75
744.379	342.45
744.78	316.7
745.18	314.36
745.58	260.53
745.98	283.94
746.38	337.77
746.78	342.45
747.18	361.17
747.58	300.32
747.98	307.34
748.38	368.2
748.779	356.49
749.179	305
749.578	321.38
749.978	220.74
750.377	330.75
750.777	246.49
751.176	290.96
751.575	326.07
751.975	295.64
752.374	288.62
752.773	237.13
753.172	321.38
753.571	239.47
753.97	286.28
754.369	290.96
754.768	297.98
755.166	288.62
755.565	337.77
755.964	295.64
756.362	302.66
756.761	356.49
757.159	295.64
757.558	349.47
757.956	319.04
758.354	302.66
758.753	326.07
759.151	305
759.549	349.47
759.947	307.34
760.345	307.34
760.743	295.64
761.141	267.55
761.539	335.43
761.936	333.09
762.334	309.68
762.732	370.54
763.129	328.41
763.527	309.68
763.924	365.85
764.322	237.13
764.719	300.32
765.117	251.17
765.514	293.3
765.911	321.38
766.308	302.66
766.705	377.56
767.102	351.81
767.499	372.88
