Data from Al_FLMS009871__474__14-34-54-432.txt Node

Date: Fri Mar 08 14:34:54 CST 2024
User: pe5414po
Spectrometer: FLMS00987
Trigger mode: 0
Integration Time (sec): 1.000000E-1
Scans to average: 1
Electric dark correction enabled: true
Nonlinearity correction enabled: false
Boxcar width: 0
XAxis mode: Wavelengths
Number of Pixels in Spectrum: 2048
>>>>>Begin Spectral Data<<<<<
188.938	-122.73
189.409	-122.73
189.879	-122.73
190.349	-139.12
190.819	-125.07
191.29	-104.01
191.76	-150.82
192.23	-75.92
192.7	-80.6
193.17	-50.18
193.64	-71.24
194.109	-80.6
194.579	-19.75
195.049	-22.09
195.519	29.4
195.988	24.72
196.458	104.3
196.927	64.51
197.397	127.71
197.866	116
198.336	188.56
198.805	130.05
199.274	218.99
199.744	169.84
200.213	197.92
200.682	209.62
201.151	223.67
201.62	277.5
202.089	237.71
202.558	251.75
203.027	263.46
203.495	242.39
203.964	235.37
204.433	352.4
204.902	214.31
205.37	284.52
205.839	307.93
206.307	233.03
206.776	300.91
207.244	312.61
207.712	221.33
208.181	242.39
208.649	275.16
209.117	289.2
209.585	314.95
210.053	324.31
210.521	275.16
210.989	296.22
211.457	331.33
211.925	347.72
212.393	286.86
212.861	268.14
213.328	272.82
213.796	282.18
214.264	275.16
214.731	272.82
215.199	268.14
215.666	242.39
216.133	307.93
216.601	268.14
217.068	326.65
217.535	263.46
218.003	289.2
218.47	265.8
218.937	296.22
219.404	261.12
219.871	233.03
220.338	256.43
220.805	254.09
221.271	305.59
221.738	275.16
222.205	298.56
222.671	305.59
223.138	275.16
223.605	249.41
224.071	263.46
224.538	237.71
225.004	230.69
225.47	272.82
225.937	319.63
226.403	293.88
226.869	305.59
227.335	277.5
227.801	265.8
228.267	261.12
228.733	291.54
229.199	254.09
229.665	249.41
230.131	310.27
230.597	256.43
231.062	303.25
231.528	298.56
231.994	286.86
232.459	303.25
232.925	268.14
233.39	286.86
233.856	251.75
234.321	207.28
234.786	258.78
235.252	286.86
235.717	305.59
236.182	242.39
236.647	247.07
237.112	263.46
237.577	300.91
238.042	249.41
238.507	336.01
238.972	235.37
239.436	270.48
239.901	326.65
240.366	286.86
240.83	336.01
241.295	256.43
241.76	275.16
242.224	321.97
242.688	305.59
243.153	326.65
243.617	277.5
244.081	263.46
244.545	263.46
245.01	286.86
245.474	289.2
245.938	282.18
246.402	242.39
246.866	312.61
247.33	216.65
247.793	275.16
248.257	284.52
248.721	321.97
249.185	286.86
249.648	223.67
250.112	286.86
250.575	179.2
251.039	258.78
251.502	328.99
251.965	293.88
252.429	291.54
252.892	247.07
253.355	272.82
253.818	218.99
254.281	254.09
254.744	275.16
255.207	249.41
255.67	321.97
256.133	352.4
256.596	261.12
257.059	291.54
257.522	314.95
257.984	328.99
258.447	249.41
258.909	307.93
259.372	265.8
259.834	235.37
260.297	321.97
260.759	310.27
261.221	336.01
261.684	319.63
262.146	336.01
262.608	338.35
263.07	326.65
263.532	289.2
263.994	364.1
264.456	261.12
264.918	307.93
265.38	303.25
265.842	270.48
266.303	293.88
266.765	345.38
267.227	307.93
267.688	324.31
268.15	237.71
268.611	244.73
269.072	242.39
269.534	270.48
269.995	291.54
270.456	366.44
270.918	298.56
271.379	312.61
271.84	317.29
272.301	284.52
272.762	321.97
273.223	321.97
273.684	333.67
274.144	237.71
274.605	296.22
275.066	296.22
275.527	291.54
275.987	258.78
276.448	310.27
276.908	282.18
277.369	314.95
277.829	247.07
278.289	272.82
278.75	293.88
279.21	223.67
279.67	310.27
280.13	305.59
280.59	303.25
281.05	277.5
281.51	298.56
281.97	340.69
282.43	319.63
282.89	305.59
283.35	328.99
283.809	293.88
284.269	296.22
284.729	293.88
285.188	268.14
285.648	336.01
286.107	352.4
286.567	282.18
287.026	343.03
287.485	296.22
287.944	317.29
288.404	343.03
288.863	284.52
289.322	291.54
289.781	333.67
290.24	396.87
290.699	244.73
291.158	300.91
291.616	373.46
292.075	296.22
292.534	263.46
292.992	251.75
293.451	326.65
293.91	354.74
294.368	286.86
294.827	317.29
295.285	303.25
295.743	420.27
296.202	200.26
296.66	319.63
297.118	289.2
297.576	333.67
298.034	303.25
298.492	277.5
298.95	331.33
299.408	321.97
299.866	249.41
300.324	268.14
300.781	324.31
301.239	328.99
301.697	263.46
302.154	291.54
302.612	371.12
303.069	277.5
303.527	279.84
303.984	275.16
304.441	289.2
304.899	314.95
305.356	291.54
305.813	373.46
306.27	272.82
306.727	242.39
307.184	314.95
307.641	303.25
308.098	354.74
308.555	289.2
309.012	275.16
309.468	380.48
309.925	249.41
310.382	303.25
310.838	265.8
311.295	319.63
311.751	300.91
312.208	310.27
312.664	319.63
313.12	328.99
313.577	350.06
314.033	331.33
314.489	307.93
314.945	336.01
315.401	307.93
315.857	277.5
316.313	319.63
316.769	312.61
317.225	326.65
317.681	270.48
318.136	277.5
318.592	279.84
319.048	305.59
319.503	326.65
319.959	364.1
320.414	286.86
320.869	275.16
321.325	300.91
321.78	289.2
322.235	354.74
322.691	286.86
323.146	286.86
323.601	251.75
324.056	336.01
324.511	275.16
324.966	319.63
325.421	310.27
325.875	242.39
326.33	265.8
326.785	357.08
327.24	317.29
327.694	331.33
328.149	350.06
328.603	352.4
329.058	336.01
329.512	279.84
329.966	230.69
330.421	389.85
330.875	310.27
331.329	350.06
331.783	307.93
332.237	366.44
332.691	282.18
333.145	336.01
333.599	324.31
334.053	261.12
334.507	303.25
334.96	303.25
335.414	256.43
335.868	310.27
336.321	307.93
336.775	230.69
337.228	324.31
337.682	314.95
338.135	336.01
338.588	326.65
339.042	319.63
339.495	385.16
339.948	361.76
340.401	261.12
340.854	340.69
341.307	321.97
341.76	317.29
342.213	305.59
342.666	326.65
343.119	305.59
343.571	357.08
344.024	247.07
344.477	272.82
344.929	247.07
345.382	347.72
345.834	298.56
346.287	272.82
346.739	312.61
347.191	272.82
347.644	279.84
348.096	317.29
348.548	270.48
349	300.91
349.452	284.52
349.904	354.74
350.356	396.87
350.808	336.01
351.26	275.16
351.711	305.59
352.163	284.52
352.615	338.35
353.066	307.93
353.518	263.46
353.969	310.27
354.421	282.18
354.872	270.48
355.324	345.38
355.775	293.88
356.226	279.84
356.677	279.84
357.128	359.42
357.579	350.06
358.03	357.08
358.481	368.78
358.932	312.61
359.383	244.73
359.834	343.03
360.285	307.93
360.735	319.63
361.186	338.35
361.637	284.52
362.087	263.46
362.538	336.01
362.988	279.84
363.438	317.29
363.889	333.67
364.339	293.88
364.789	284.52
365.239	331.33
365.689	373.46
366.139	371.12
366.589	296.22
367.039	324.31
367.489	375.8
367.939	350.06
368.389	314.95
368.839	324.31
369.288	343.03
369.738	359.42
370.187	282.18
370.637	324.31
371.086	263.46
371.536	272.82
371.985	314.95
372.434	396.87
372.884	338.35
373.333	303.25
373.782	317.29
374.231	366.44
374.68	291.54
375.129	350.06
375.578	291.54
376.027	275.16
376.475	303.25
376.924	345.38
377.373	319.63
377.822	312.61
378.27	258.78
378.719	300.91
379.167	331.33
379.616	321.97
380.064	282.18
380.512	333.67
380.961	261.12
381.409	286.86
381.857	314.95
382.305	326.65
382.753	305.59
383.201	247.07
383.649	319.63
384.097	324.31
384.545	279.84
384.992	328.99
385.44	277.5
385.888	345.38
386.335	324.31
386.783	303.25
387.231	307.93
387.678	333.67
388.125	289.2
388.573	277.5
389.02	277.5
389.467	396.87
389.914	333.67
390.362	321.97
390.809	310.27
391.256	310.27
391.703	268.14
392.15	361.76
392.596	343.03
393.043	284.52
393.49	331.33
393.937	286.86
394.383	357.08
394.83	305.59
395.276	296.22
395.723	258.78
396.169	272.82
396.616	312.61
397.062	399.21
397.508	324.31
397.954	319.63
398.401	401.55
398.847	305.59
399.293	347.72
399.739	314.95
400.185	321.97
400.631	336.01
401.076	291.54
401.522	303.25
401.968	291.54
402.414	366.44
402.859	321.97
403.305	293.88
403.75	324.31
404.196	279.84
404.641	387.5
405.086	324.31
405.532	366.44
405.977	366.44
406.422	284.52
406.867	314.95
407.312	375.8
407.757	345.38
408.202	317.29
408.647	277.5
409.092	268.14
409.537	298.56
409.982	265.8
410.426	321.97
410.871	319.63
411.316	343.03
411.76	331.33
412.205	277.5
412.649	324.31
413.093	345.38
413.538	300.91
413.982	291.54
414.426	286.86
414.87	314.95
415.314	359.42
415.758	261.12
416.202	293.88
416.646	338.35
417.09	352.4
417.534	328.99
417.978	298.56
418.421	310.27
418.865	270.48
419.309	305.59
419.752	303.25
420.196	340.69
420.639	312.61
421.083	275.16
421.526	343.03
421.969	319.63
422.412	296.22
422.856	300.91
423.299	300.91
423.742	263.46
424.185	270.48
424.628	375.8
425.071	251.75
425.513	326.65
425.956	321.97
426.399	279.84
426.842	298.56
427.284	354.74
427.727	275.16
428.169	291.54
428.612	303.25
429.054	326.65
429.497	373.46
429.939	328.99
430.381	321.97
430.823	305.59
431.265	312.61
431.707	307.93
432.149	275.16
432.591	347.72
433.033	343.03
433.475	338.35
433.917	350.06
434.359	277.5
434.8	331.33
435.242	333.67
435.684	289.2
436.125	333.67
436.567	314.95
437.008	347.72
437.449	272.82
437.891	321.97
438.332	328.99
438.773	347.72
439.214	275.16
439.656	270.48
440.097	310.27
440.538	307.93
440.978	345.38
441.419	282.18
441.86	284.52
442.301	326.65
442.742	345.38
443.182	392.19
443.623	307.93
444.063	314.95
444.504	326.65
444.944	303.25
445.385	298.56
445.825	321.97
446.265	314.95
446.706	265.8
447.146	291.54
447.586	340.69
448.026	352.4
448.466	286.86
448.906	343.03
449.346	321.97
449.786	286.86
450.225	366.44
450.665	399.21
451.105	314.95
451.544	347.72
451.984	268.14
452.424	321.97
452.863	300.91
453.302	333.67
453.742	354.74
454.181	389.85
454.62	282.18
455.059	289.2
455.499	366.44
455.938	312.61
456.377	300.91
456.816	401.55
457.254	284.52
457.693	368.78
458.132	300.91
458.571	331.33
459.01	378.14
459.448	324.31
459.887	319.63
460.325	359.42
460.764	286.86
461.202	324.31
461.641	324.31
462.079	293.88
462.517	268.14
462.955	249.41
463.393	272.82
463.832	300.91
464.27	319.63
464.708	314.95
465.145	282.18
465.583	261.12
466.021	340.69
466.459	331.33
466.897	324.31
467.334	307.93
467.772	331.33
468.209	324.31
468.647	305.59
469.084	254.09
469.522	336.01
469.959	314.95
470.396	324.31
470.833	347.72
471.271	312.61
471.708	312.61
472.145	286.86
472.582	361.76
473.019	326.65
473.456	291.54
473.892	328.99
474.329	328.99
474.766	352.4
475.202	331.33
475.639	378.14
476.076	307.93
476.512	242.39
476.949	254.09
477.385	305.59
477.821	361.76
478.258	307.93
478.694	307.93
479.13	307.93
479.566	286.86
480.002	310.27
480.438	368.78
480.874	340.69
481.31	293.88
481.746	300.91
482.181	247.07
482.617	291.54
483.053	347.72
483.488	300.91
483.924	275.16
484.36	338.35
484.795	345.38
485.23	401.55
485.666	373.46
486.101	282.18
486.536	373.46
486.971	307.93
487.407	326.65
487.842	303.25
488.277	336.01
488.712	298.56
489.146	317.29
489.581	303.25
490.016	319.63
490.451	350.06
490.885	233.03
491.32	364.1
491.755	268.14
492.189	307.93
492.624	305.59
493.058	233.03
493.492	326.65
493.927	380.48
494.361	350.06
494.795	319.63
495.229	321.97
495.663	275.16
496.097	352.4
496.531	333.67
496.965	368.78
497.399	300.91
497.833	343.03
498.266	258.78
498.7	319.63
499.134	291.54
499.567	237.71
500.001	357.08
500.434	263.46
500.868	387.5
501.301	293.88
501.734	286.86
502.168	289.2
502.601	354.74
503.034	305.59
503.467	352.4
503.9	357.08
504.333	284.52
504.766	303.25
505.199	314.95
505.632	366.44
506.064	247.07
506.497	305.59
506.93	338.35
507.362	277.5
507.795	247.07
508.227	305.59
508.66	347.72
509.092	340.69
509.524	314.95
509.956	286.86
510.389	277.5
510.821	326.65
511.253	319.63
511.685	338.35
512.117	300.91
512.549	343.03
512.981	354.74
513.412	378.14
513.844	331.33
514.276	321.97
514.707	300.91
515.139	392.19
515.571	343.03
516.002	305.59
516.433	314.95
516.865	331.33
517.296	340.69
517.727	310.27
518.159	375.8
518.59	352.4
519.021	286.86
519.452	300.91
519.883	312.61
520.314	373.46
520.744	347.72
521.175	319.63
521.606	303.25
522.037	319.63
522.467	265.8
522.898	298.56
523.328	350.06
523.759	310.27
524.189	373.46
524.62	328.99
525.05	359.42
525.48	328.99
525.91	317.29
526.341	321.97
526.771	331.33
527.201	328.99
527.631	326.65
528.061	303.25
528.49	328.99
528.92	343.03
529.35	265.8
529.78	307.93
530.209	352.4
530.639	345.38
531.068	282.18
531.498	305.59
531.927	345.38
532.357	375.8
532.786	326.65
533.215	345.38
533.644	324.31
534.074	326.65
534.503	317.29
534.932	378.14
535.361	340.69
535.79	352.4
536.218	345.38
536.647	368.78
537.076	347.72
537.505	268.14
537.933	296.22
538.362	307.93
538.79	240.05
539.219	321.97
539.647	352.4
540.076	310.27
540.504	378.14
540.932	286.86
541.36	343.03
541.788	305.59
542.217	307.93
542.645	333.67
543.073	310.27
543.5	314.95
543.928	352.4
544.356	275.16
544.784	310.27
545.211	345.38
545.639	310.27
546.067	286.86
546.494	347.72
546.922	307.93
547.349	331.33
547.776	312.61
548.204	314.95
548.631	275.16
549.058	261.12
549.485	328.99
549.912	343.03
550.339	380.48
550.766	291.54
551.193	359.42
551.62	307.93
552.047	343.03
552.474	291.54
552.9	317.29
553.327	343.03
553.754	317.29
554.18	328.99
554.607	345.38
555.033	279.84
555.459	272.82
555.886	387.5
556.312	321.97
556.738	303.25
557.164	326.65
557.59	382.82
558.016	324.31
558.442	347.72
558.868	375.8
559.294	275.16
559.72	317.29
560.145	277.5
560.571	312.61
560.997	270.48
561.422	244.73
561.848	270.48
562.273	305.59
562.699	333.67
563.124	331.33
563.549	293.88
563.974	298.56
564.4	286.86
564.825	324.31
565.25	366.44
565.675	291.54
566.1	307.93
566.525	328.99
566.95	291.54
567.374	321.97
567.799	303.25
568.224	256.43
568.648	312.61
569.073	284.52
569.497	347.72
569.922	314.95
570.346	268.14
570.771	347.72
571.195	328.99
571.619	261.12
572.043	338.35
572.467	328.99
572.891	350.06
573.315	298.56
573.739	350.06
574.163	247.07
574.587	312.61
575.011	300.91
575.435	317.29
575.858	249.41
576.282	324.31
576.705	338.35
577.129	317.29
577.552	317.29
577.976	277.5
578.399	286.86
578.822	317.29
579.245	350.06
579.669	396.87
580.092	286.86
580.515	385.16
580.938	364.1
581.361	343.03
581.784	268.14
582.206	338.35
582.629	247.07
583.052	289.2
583.474	324.31
583.897	375.8
584.32	364.1
584.742	319.63
585.165	293.88
585.587	291.54
586.009	284.52
586.431	345.38
586.854	345.38
587.276	347.72
587.698	354.74
588.12	333.67
588.542	331.33
588.964	350.06
589.386	345.38
589.807	326.65
590.229	310.27
590.651	371.12
591.073	319.63
591.494	340.69
591.916	312.61
592.337	326.65
592.759	282.18
593.18	373.46
593.601	277.5
594.022	310.27
594.444	317.29
594.865	321.97
595.286	307.93
595.707	328.99
596.128	331.33
596.549	345.38
596.97	343.03
597.39	336.01
597.811	289.2
598.232	291.54
598.652	289.2
599.073	413.25
599.494	223.67
599.914	307.93
600.334	293.88
600.755	270.48
601.175	312.61
601.595	293.88
602.015	326.65
602.436	319.63
602.856	485.81
603.276	361.76
603.696	352.4
604.115	312.61
604.535	303.25
604.955	321.97
605.375	305.59
605.794	324.31
606.214	338.35
606.634	319.63
607.053	277.5
607.473	310.27
607.892	314.95
608.311	321.97
608.731	312.61
609.15	352.4
609.569	270.48
609.988	324.31
610.407	310.27
610.826	371.12
611.245	333.67
611.664	317.29
612.083	310.27
612.501	289.2
612.92	338.35
613.339	357.08
613.757	359.42
614.176	368.78
614.594	340.69
615.013	368.78
615.431	364.1
615.85	291.54
616.268	305.59
616.686	324.31
617.104	319.63
617.522	321.97
617.94	317.29
618.358	277.5
618.776	310.27
619.194	275.16
619.612	254.09
620.03	317.29
620.447	389.85
620.865	284.52
621.282	291.54
621.7	345.38
622.117	265.8
622.535	314.95
622.952	244.73
623.369	345.38
623.787	317.29
624.204	296.22
624.621	291.54
625.038	279.84
625.455	284.52
625.872	354.74
626.289	343.03
626.706	350.06
627.123	364.1
627.539	338.35
627.956	307.93
628.373	291.54
628.789	300.91
629.206	340.69
629.622	265.8
630.038	326.65
630.455	331.33
630.871	289.2
631.287	361.76
631.703	291.54
632.12	303.25
632.536	291.54
632.952	261.12
633.368	310.27
633.783	331.33
634.199	249.41
634.615	340.69
635.031	312.61
635.446	317.29
635.862	343.03
636.277	352.4
636.693	347.72
637.108	366.44
637.524	340.69
637.939	314.95
638.354	338.35
638.77	345.38
639.185	312.61
639.6	324.31
640.015	319.63
640.43	289.2
640.845	317.29
641.259	328.99
641.674	272.82
642.089	275.16
642.504	279.84
642.918	279.84
643.333	298.56
643.747	354.74
644.162	286.86
644.576	289.2
644.991	340.69
645.405	247.07
645.819	284.52
646.233	357.08
646.647	303.25
647.061	300.91
647.475	352.4
647.889	272.82
648.303	303.25
648.717	347.72
649.131	303.25
649.545	366.44
649.958	298.56
650.372	314.95
650.785	247.07
651.199	310.27
651.612	293.88
652.026	293.88
652.439	291.54
652.852	296.22
653.266	298.56
653.679	296.22
654.092	310.27
654.505	275.16
654.918	291.54
655.331	289.2
655.744	324.31
656.156	317.29
656.569	291.54
656.982	326.65
657.394	345.38
657.807	282.18
658.22	298.56
658.632	251.75
659.044	331.33
659.457	275.16
659.869	298.56
660.281	256.43
660.693	293.88
661.106	343.03
661.518	324.31
661.93	293.88
662.342	319.63
662.754	338.35
663.165	310.27
663.577	300.91
663.989	357.08
664.401	275.16
664.812	350.06
665.224	350.06
665.635	321.97
666.047	317.29
666.458	268.14
666.869	389.85
667.281	305.59
667.692	314.95
668.103	251.75
668.514	310.27
668.925	343.03
669.336	324.31
669.747	258.78
670.158	326.65
670.569	331.33
670.979	333.67
671.39	394.53
671.801	366.44
672.211	298.56
672.622	296.22
673.032	371.12
673.443	289.2
673.853	317.29
674.263	354.74
674.674	296.22
675.084	319.63
675.494	303.25
675.904	256.43
676.314	354.74
676.724	314.95
677.134	289.2
677.544	347.72
677.953	258.78
678.363	307.93
678.773	357.08
679.182	298.56
679.592	293.88
680.001	268.14
680.411	331.33
680.82	354.74
681.23	307.93
681.639	282.18
682.048	254.09
682.457	314.95
682.866	336.01
683.275	298.56
683.684	336.01
684.093	247.07
684.502	385.16
684.911	368.78
685.32	321.97
685.728	275.16
686.137	319.63
686.546	275.16
686.954	343.03
687.363	277.5
687.771	324.31
688.179	261.12
688.588	263.46
688.996	357.08
689.404	291.54
689.812	357.08
690.22	289.2
690.628	289.2
691.036	265.8
691.444	307.93
691.852	312.61
692.26	340.69
692.667	317.29
693.075	235.37
693.483	406.23
693.89	328.99
694.298	314.95
694.705	317.29
695.112	298.56
695.52	371.12
695.927	340.69
696.334	300.91
696.741	312.61
697.148	307.93
697.555	282.18
697.962	310.27
698.369	303.25
698.776	324.31
699.183	312.61
699.59	275.16
699.996	326.65
700.403	305.59
700.81	254.09
701.216	371.12
701.623	314.95
702.029	307.93
702.435	305.59
702.842	321.97
703.248	347.72
703.654	291.54
704.06	340.69
704.466	314.95
704.872	291.54
705.278	340.69
705.684	312.61
706.09	328.99
706.496	249.41
706.901	261.12
707.307	310.27
707.712	300.91
708.118	279.84
708.523	314.95
708.929	279.84
709.334	256.43
709.74	336.01
710.145	354.74
710.55	305.59
710.955	340.69
711.36	277.5
711.765	321.97
712.17	321.97
712.575	319.63
712.98	914.13
713.385	375.8
713.789	324.31
714.194	286.86
714.599	368.78
715.003	296.22
715.408	350.06
715.812	319.63
716.217	305.59
716.621	254.09
717.025	314.95
717.429	272.82
717.833	275.16
718.238	357.08
718.642	289.2
719.046	333.67
719.449	387.5
719.853	319.63
720.257	336.01
720.661	312.61
721.065	371.12
721.468	338.35
721.872	321.97
722.275	373.46
722.679	272.82
723.082	343.03
723.485	261.12
723.889	296.22
724.292	265.8
724.695	233.03
725.098	324.31
725.501	326.65
725.904	291.54
726.307	254.09
726.71	307.93
727.113	319.63
727.516	303.25
727.918	275.16
728.321	279.84
728.724	321.97
729.126	326.65
729.529	258.78
729.931	272.82
730.333	247.07
730.736	268.14
731.138	223.67
731.54	333.67
731.942	312.61
732.344	305.59
732.746	319.63
733.148	284.52
733.55	249.41
733.952	286.86
734.354	291.54
734.756	368.78
735.157	310.27
735.559	361.76
735.96	361.76
736.362	364.1
736.763	310.27
737.165	247.07
737.566	343.03
737.967	272.82
738.368	298.56
738.77	317.29
739.171	263.46
739.572	324.31
739.973	293.88
740.374	350.06
740.774	350.06
741.175	317.29
741.576	272.82
741.977	343.03
742.377	305.59
742.778	328.99
743.178	270.48
743.579	331.33
743.979	328.99
744.379	319.63
744.78	312.61
745.18	303.25
745.58	366.44
745.98	303.25
746.38	326.65
746.78	258.78
747.18	319.63
747.58	345.38
747.98	258.78
748.38	326.65
748.779	319.63
749.179	326.65
749.578	321.97
749.978	282.18
750.377	289.2
750.777	247.07
751.176	270.48
751.575	352.4
751.975	307.93
752.374	321.97
752.773	324.31
753.172	331.33
753.571	399.21
753.97	317.29
754.369	305.59
754.768	296.22
755.166	347.72
755.565	357.08
755.964	373.46
756.362	324.31
756.761	296.22
757.159	256.43
757.558	321.97
757.956	345.38
758.354	328.99
758.753	324.31
759.151	305.59
759.549	333.67
759.947	256.43
760.345	279.84
760.743	319.63
761.141	310.27
761.539	389.85
761.936	357.08
762.334	331.33
762.732	270.48
763.129	275.16
763.527	314.95
763.924	284.52
764.322	282.18
