Data from Al_FLMS009871__466__14-34-53-632.txt Node

Date: Fri Mar 08 14:34:53 CST 2024
User: pe5414po
Spectrometer: FLMS00987
Trigger mode: 0
Integration Time (sec): 1.000000E-1
Scans to average: 1
Electric dark correction enabled: true
Nonlinearity correction enabled: false
Boxcar width: 0
XAxis mode: Wavelengths
Number of Pixels in Spectrum: 2048
>>>>>Begin Spectral Data<<<<<
188.938	-73.29
189.409	-73.29
189.879	-73.29
190.349	-143.5
190.819	-82.65
191.29	-101.37
191.76	-138.82
192.23	-49.88
192.7	-84.99
193.17	-54.56
193.64	-49.88
194.109	-35.84
194.579	-24.14
195.049	-12.43
195.519	20.33
195.988	55.44
196.458	39.06
196.927	83.53
197.397	60.12
197.866	151.4
198.336	142.04
198.805	99.91
199.274	170.13
199.744	158.43
200.213	179.49
200.682	249.71
201.151	167.79
201.62	245.02
202.089	221.62
202.558	259.07
203.027	242.68
203.495	245.02
203.964	179.49
204.433	326.94
204.902	284.81
205.37	216.94
205.839	329.28
206.307	259.07
206.776	305.88
207.244	298.86
207.712	287.15
208.181	282.47
208.649	289.5
209.117	280.13
209.585	301.2
210.053	355.03
210.521	315.24
210.989	277.79
211.457	366.73
211.925	245.02
212.393	329.28
212.861	284.81
213.328	289.5
213.796	268.43
214.264	230.98
214.731	282.47
215.199	256.73
215.666	207.58
216.133	336.31
216.601	242.68
217.068	287.15
217.535	261.41
218.003	282.47
218.47	221.62
218.937	198.21
219.404	247.37
219.871	216.94
220.338	282.47
220.805	228.64
221.271	315.24
221.738	252.05
222.205	221.62
222.671	230.98
223.138	275.45
223.605	261.41
224.071	212.26
224.538	280.13
225.004	261.41
225.47	205.24
225.937	230.98
226.403	205.24
226.869	249.71
227.335	249.71
227.801	245.02
228.267	214.6
228.733	301.2
229.199	308.22
229.665	219.28
230.131	230.98
230.597	291.84
231.062	179.49
231.528	324.6
231.994	223.96
232.459	261.41
232.925	310.56
233.39	315.24
233.856	247.37
234.321	198.21
234.786	315.24
235.252	319.92
235.717	266.09
236.182	238
236.647	291.84
237.112	219.28
237.577	263.75
238.042	252.05
238.507	266.09
238.972	277.79
239.436	289.5
239.901	249.71
240.366	259.07
240.83	308.22
241.295	256.73
241.76	235.66
242.224	252.05
242.688	280.13
243.153	259.07
243.617	266.09
244.081	240.34
244.545	273.11
245.01	310.56
245.474	256.73
245.938	284.81
246.402	298.86
246.866	282.47
247.33	254.39
247.793	238
248.257	223.96
248.721	245.02
249.185	277.79
249.648	254.39
250.112	345.67
250.575	263.75
251.039	254.39
251.502	242.68
251.965	249.71
252.429	235.66
252.892	268.43
253.355	240.34
253.818	305.88
254.281	238
254.744	287.15
255.207	256.73
255.67	308.22
256.133	256.73
256.596	298.86
257.059	294.18
257.522	256.73
257.984	324.6
258.447	270.77
258.909	301.2
259.372	252.05
259.834	317.58
260.297	242.68
260.759	240.34
261.221	254.39
261.684	226.3
262.146	315.24
262.608	263.75
263.07	181.83
263.532	273.11
263.994	343.33
264.456	336.31
264.918	338.65
265.38	317.58
265.842	352.69
266.303	289.5
266.765	296.52
267.227	259.07
267.688	273.11
268.15	275.45
268.611	230.98
269.072	238
269.534	275.45
269.995	319.92
270.456	214.6
270.918	303.54
271.379	355.03
271.84	214.6
272.301	282.47
272.762	310.56
273.223	238
273.684	259.07
274.144	277.79
274.605	230.98
275.066	282.47
275.527	275.45
275.987	303.54
276.448	223.96
276.908	275.45
277.369	282.47
277.829	280.13
278.289	261.41
278.75	329.28
279.21	284.81
279.67	310.56
280.13	305.88
280.59	296.52
281.05	357.37
281.51	308.22
281.97	254.39
282.43	331.62
282.89	308.22
283.35	296.52
283.809	287.15
284.269	315.24
284.729	317.58
285.188	287.15
285.648	298.86
286.107	252.05
286.567	252.05
287.026	245.02
287.485	275.45
287.944	319.92
288.404	305.88
288.863	301.2
289.322	287.15
289.781	308.22
290.24	296.52
290.699	252.05
291.158	338.65
291.616	284.81
292.075	268.43
292.534	294.18
292.992	282.47
293.451	362.05
293.91	336.31
294.368	238
294.827	294.18
295.285	282.47
295.743	266.09
296.202	291.84
296.66	266.09
297.118	252.05
297.576	324.6
298.034	326.94
298.492	277.79
298.95	284.81
299.408	305.88
299.866	247.37
300.324	324.6
300.781	275.45
301.239	317.58
301.697	280.13
302.154	303.54
302.612	238
303.069	322.26
303.527	376.09
303.984	277.79
304.441	294.18
304.899	364.39
305.356	242.68
305.813	338.65
306.27	340.99
306.727	294.18
307.184	249.71
307.641	230.98
308.098	343.33
308.555	275.45
309.012	317.58
309.468	331.62
309.925	308.22
310.382	289.5
310.838	298.86
311.295	287.15
311.751	322.26
312.208	245.02
312.664	324.6
313.12	362.05
313.577	256.73
314.033	308.22
314.489	245.02
314.945	298.86
315.401	294.18
315.857	331.62
316.313	324.6
316.769	259.07
317.225	277.79
317.681	298.86
318.136	317.58
318.592	270.77
319.048	350.35
319.503	289.5
319.959	315.24
320.414	263.75
320.869	296.52
321.325	256.73
321.78	305.88
322.235	317.58
322.691	282.47
323.146	326.94
323.601	275.45
324.056	294.18
324.511	352.69
324.966	315.24
325.421	287.15
325.875	331.62
326.33	369.07
326.785	289.5
327.24	289.5
327.694	312.9
328.149	340.99
328.603	340.99
329.058	277.79
329.512	310.56
329.966	303.54
330.421	331.62
330.875	303.54
331.329	317.58
331.783	296.52
332.237	238
332.691	331.62
333.145	322.26
333.599	287.15
334.053	294.18
334.507	350.35
334.96	289.5
335.414	298.86
335.868	280.13
336.321	261.41
336.775	322.26
337.228	268.43
337.682	310.56
338.135	277.79
338.588	315.24
339.042	289.5
339.495	331.62
339.948	319.92
340.401	289.5
340.854	247.37
341.307	268.43
341.76	326.94
342.213	310.56
342.666	268.43
343.119	317.58
343.571	289.5
344.024	338.65
344.477	291.84
344.929	294.18
345.382	287.15
345.834	287.15
346.287	282.47
346.739	212.26
347.191	275.45
347.644	298.86
348.096	317.58
348.548	273.11
349	280.13
349.452	261.41
349.904	343.33
350.356	357.37
350.808	291.84
351.26	296.52
351.711	273.11
352.163	275.45
352.615	338.65
353.066	329.28
353.518	345.67
353.969	296.52
354.421	289.5
354.872	296.52
355.324	324.6
355.775	343.33
356.226	303.54
356.677	273.11
357.128	298.86
357.579	317.58
358.03	303.54
358.481	359.71
358.932	366.73
359.383	263.75
359.834	371.41
360.285	383.12
360.735	298.86
361.186	301.2
361.637	291.84
362.087	284.81
362.538	287.15
362.988	263.75
363.438	287.15
363.889	305.88
364.339	242.68
364.789	284.81
365.239	310.56
365.689	312.9
366.139	345.67
366.589	427.59
367.039	284.81
367.489	315.24
367.939	275.45
368.389	343.33
368.839	270.77
369.288	378.44
369.738	317.58
370.187	270.77
370.637	317.58
371.086	324.6
371.536	308.22
371.985	333.97
372.434	277.79
372.884	366.73
373.333	326.94
373.782	282.47
374.231	298.86
374.68	270.77
375.129	343.33
375.578	333.97
376.027	259.07
376.475	362.05
376.924	348.01
377.373	294.18
377.822	289.5
378.27	326.94
378.719	284.81
379.167	329.28
379.616	303.54
380.064	291.84
380.512	296.52
380.961	359.71
381.409	366.73
381.857	284.81
382.305	273.11
382.753	298.86
383.201	331.62
383.649	333.97
384.097	298.86
384.545	245.02
384.992	259.07
385.44	312.9
385.888	294.18
386.335	329.28
386.783	240.34
387.231	355.03
387.678	340.99
388.125	261.41
388.573	263.75
389.02	252.05
389.467	268.43
389.914	275.45
390.362	296.52
390.809	310.56
391.256	291.84
391.703	308.22
392.15	303.54
392.596	280.13
393.043	319.92
393.49	380.78
393.937	329.28
394.383	312.9
394.83	319.92
395.276	315.24
395.723	331.62
396.169	287.15
396.616	317.58
397.062	333.97
397.508	294.18
397.954	312.9
398.401	289.5
398.847	268.43
399.293	331.62
399.739	275.45
400.185	294.18
400.631	268.43
401.076	340.99
401.522	331.62
401.968	275.45
402.414	289.5
402.859	252.05
403.305	317.58
403.75	270.77
404.196	331.62
404.641	287.15
405.086	343.33
405.532	329.28
405.977	343.33
406.422	322.26
406.867	270.77
407.312	289.5
407.757	315.24
408.202	322.26
408.647	317.58
409.092	301.2
409.537	296.52
409.982	326.94
410.426	326.94
410.871	254.39
411.316	310.56
411.76	345.67
412.205	315.24
412.649	296.52
413.093	315.24
413.538	282.47
413.982	305.88
414.426	228.64
414.87	284.81
415.314	322.26
415.758	301.2
416.202	261.41
416.646	298.86
417.09	369.07
417.534	308.22
417.978	371.41
418.421	329.28
418.865	315.24
419.309	308.22
419.752	310.56
420.196	326.94
420.639	305.88
421.083	317.58
421.526	273.11
421.969	305.88
422.412	277.79
422.856	303.54
423.299	324.6
423.742	301.2
424.185	308.22
424.628	284.81
425.071	233.32
425.513	359.71
425.956	277.79
426.399	305.88
426.842	294.18
427.284	263.75
427.727	340.99
428.169	294.18
428.612	303.54
429.054	322.26
429.497	376.09
429.939	284.81
430.381	294.18
430.823	270.77
431.265	280.13
431.707	273.11
432.149	303.54
432.591	340.99
433.033	301.2
433.475	324.6
433.917	296.52
434.359	223.96
434.8	345.67
435.242	315.24
435.684	289.5
436.125	369.07
436.567	376.09
437.008	333.97
437.449	252.05
437.891	319.92
438.332	359.71
438.773	301.2
439.214	303.54
439.656	301.2
440.097	310.56
440.538	308.22
440.978	287.15
441.419	331.62
441.86	315.24
442.301	333.97
442.742	273.11
443.182	289.5
443.623	280.13
444.063	270.77
444.504	350.35
444.944	319.92
445.385	301.2
445.825	352.69
446.265	296.52
446.706	294.18
447.146	240.34
447.586	245.02
448.026	355.03
448.466	242.68
448.906	294.18
449.346	266.09
449.786	226.3
450.225	371.41
450.665	277.79
451.105	294.18
451.544	340.99
451.984	348.01
452.424	303.54
452.863	238
453.302	350.35
453.742	326.94
454.181	324.6
454.62	308.22
455.059	298.86
455.499	298.86
455.938	352.69
456.377	294.18
456.816	282.47
457.254	277.79
457.693	305.88
458.132	331.62
458.571	312.9
459.01	305.88
459.448	280.13
459.887	336.31
460.325	289.5
460.764	312.9
461.202	383.12
461.641	352.69
462.079	348.01
462.517	301.2
462.955	397.16
463.393	296.52
463.832	308.22
464.27	305.88
464.708	319.92
465.145	284.81
465.583	331.62
466.021	352.69
466.459	308.22
466.897	282.47
467.334	336.31
467.772	294.18
468.209	373.75
468.647	245.02
469.084	362.05
469.522	287.15
469.959	340.99
470.396	362.05
470.833	273.11
471.271	312.9
471.708	284.81
472.145	336.31
472.582	280.13
473.019	287.15
473.456	270.77
473.892	373.75
474.329	296.52
474.766	287.15
475.202	298.86
475.639	333.97
476.076	390.14
476.512	350.35
476.949	350.35
477.385	371.41
477.821	364.39
478.258	298.86
478.694	317.58
479.13	322.26
479.566	312.9
480.002	329.28
480.438	268.43
480.874	282.47
481.31	317.58
481.746	298.86
482.181	315.24
482.617	317.58
483.053	291.84
483.488	357.37
483.924	348.01
484.36	238
484.795	366.73
485.23	301.2
485.666	273.11
486.101	315.24
486.536	289.5
486.971	291.84
487.407	287.15
487.842	315.24
488.277	247.37
488.712	324.6
489.146	305.88
489.581	326.94
490.016	326.94
490.451	369.07
490.885	280.13
491.32	369.07
491.755	352.69
492.189	254.39
492.624	336.31
493.058	287.15
493.492	280.13
493.927	350.35
494.361	357.37
494.795	338.65
495.229	294.18
495.663	315.24
496.097	308.22
496.531	301.2
496.965	301.2
497.399	312.9
497.833	294.18
498.266	291.84
498.7	301.2
499.134	259.07
499.567	284.81
500.001	326.94
500.434	273.11
500.868	343.33
501.301	289.5
501.734	289.5
502.168	315.24
502.601	282.47
503.034	401.84
503.467	305.88
503.9	259.07
504.333	326.94
504.766	301.2
505.199	343.33
505.632	289.5
506.064	322.26
506.497	277.79
506.93	287.15
507.362	294.18
507.795	301.2
508.227	294.18
508.66	289.5
509.092	331.62
509.524	308.22
509.956	268.43
510.389	298.86
510.821	310.56
511.253	326.94
511.685	366.73
512.117	336.31
512.549	319.92
512.981	319.92
513.412	305.88
513.844	301.2
514.276	380.78
514.707	338.65
515.139	263.75
515.571	359.71
516.002	273.11
516.433	312.9
516.865	254.39
517.296	305.88
517.727	252.05
518.159	362.05
518.59	340.99
519.021	287.15
519.452	397.16
519.883	305.88
520.314	317.58
520.744	294.18
521.175	280.13
521.606	345.67
522.037	364.39
522.467	254.39
522.898	312.9
523.328	291.84
523.759	305.88
524.189	305.88
524.62	357.37
525.05	289.5
525.48	291.84
525.91	331.62
526.341	256.73
526.771	371.41
527.201	287.15
527.631	305.88
528.061	261.41
528.49	350.35
528.92	364.39
529.35	289.5
529.78	369.07
530.209	301.2
530.639	303.54
531.068	310.56
531.498	277.79
531.927	289.5
532.357	287.15
532.786	308.22
533.215	259.07
533.644	242.68
534.074	310.56
534.503	247.37
534.932	315.24
535.361	303.54
535.79	343.33
536.218	287.15
536.647	345.67
537.076	280.13
537.505	312.9
537.933	336.31
538.362	294.18
538.79	310.56
539.219	319.92
539.647	280.13
540.076	305.88
540.504	359.71
540.932	268.43
541.36	315.24
541.788	268.43
542.217	359.71
542.645	350.35
543.073	350.35
543.5	252.05
543.928	326.94
544.356	350.35
544.784	340.99
545.211	336.31
545.639	338.65
546.067	249.71
546.494	312.9
546.922	383.12
547.349	338.65
547.776	296.52
548.204	312.9
548.631	336.31
549.058	343.33
549.485	333.97
549.912	303.54
550.339	266.09
550.766	329.28
551.193	270.77
551.62	270.77
552.047	326.94
552.474	317.58
552.9	296.52
553.327	296.52
553.754	338.65
554.18	324.6
554.607	301.2
555.033	331.62
555.459	326.94
555.886	287.15
556.312	345.67
556.738	249.71
557.164	345.67
557.59	287.15
558.016	345.67
558.442	291.84
558.868	345.67
559.294	287.15
559.72	317.58
560.145	324.6
560.571	343.33
560.997	240.34
561.422	298.86
561.848	319.92
562.273	340.99
562.699	340.99
563.124	326.94
563.549	310.56
563.974	277.79
564.4	312.9
564.825	247.37
565.25	352.69
565.675	287.15
566.1	340.99
566.525	331.62
566.95	303.54
567.374	256.73
567.799	289.5
568.224	312.9
568.648	378.44
569.073	326.94
569.497	303.54
569.922	291.84
570.346	350.35
570.771	284.81
571.195	287.15
571.619	326.94
572.043	296.52
572.467	326.94
572.891	294.18
573.315	336.31
573.739	333.97
574.163	303.54
574.587	310.56
575.011	326.94
575.435	291.84
575.858	308.22
576.282	289.5
576.705	310.56
577.129	259.07
577.552	291.84
577.976	310.56
578.399	310.56
578.822	329.28
579.245	331.62
579.669	277.79
580.092	310.56
580.515	362.05
580.938	315.24
581.361	326.94
581.784	275.45
582.206	333.97
582.629	312.9
583.052	266.09
583.474	310.56
583.897	345.67
584.32	284.81
584.742	294.18
585.165	308.22
585.587	301.2
586.009	301.2
586.431	284.81
586.854	317.58
587.276	263.75
587.698	296.52
588.12	348.01
588.542	312.9
588.964	287.15
589.386	338.65
589.807	336.31
590.229	273.11
590.651	280.13
591.073	261.41
591.494	291.84
591.916	315.24
592.337	385.46
592.759	305.88
593.18	315.24
593.601	357.37
594.022	359.71
594.444	329.28
594.865	359.71
595.286	378.44
595.707	287.15
596.128	345.67
596.549	329.28
596.97	270.77
597.39	308.22
597.811	256.73
598.232	376.09
598.652	291.84
599.073	371.41
599.494	315.24
599.914	289.5
600.334	366.73
600.755	319.92
601.175	303.54
601.595	355.03
602.015	249.71
602.436	319.92
602.856	441.63
603.276	270.77
603.696	305.88
604.115	294.18
604.535	366.73
604.955	296.52
605.375	268.43
605.794	350.35
606.214	350.35
606.634	282.47
607.053	303.54
607.473	298.86
607.892	317.58
608.311	298.86
608.731	324.6
609.15	270.77
609.569	249.71
609.988	287.15
610.407	362.05
610.826	317.58
611.245	268.43
611.664	331.62
612.083	270.77
612.501	294.18
612.92	259.07
613.339	303.54
613.757	383.12
614.176	245.02
614.594	355.03
615.013	340.99
615.431	289.5
615.85	343.33
616.268	329.28
616.686	287.15
617.104	289.5
617.522	287.15
617.94	275.45
618.358	348.01
618.776	294.18
619.194	329.28
619.612	294.18
620.03	275.45
620.447	366.73
620.865	317.58
621.282	301.2
621.7	298.86
622.117	280.13
622.535	277.79
622.952	343.33
623.369	305.88
623.787	287.15
624.204	296.52
624.621	317.58
625.038	266.09
625.455	312.9
625.872	331.62
626.289	340.99
626.706	296.52
627.123	289.5
627.539	308.22
627.956	289.5
628.373	256.73
628.789	303.54
629.206	319.92
629.622	291.84
630.038	277.79
630.455	340.99
630.871	242.68
631.287	273.11
631.703	333.97
632.12	303.54
632.536	350.35
632.952	338.65
633.368	291.84
633.783	275.45
634.199	308.22
634.615	317.58
635.031	287.15
635.446	282.47
635.862	345.67
636.277	352.69
636.693	352.69
637.108	266.09
637.524	352.69
637.939	343.33
638.354	270.77
638.77	312.9
639.185	317.58
639.6	266.09
640.015	289.5
640.43	333.97
640.845	317.58
641.259	343.33
641.674	294.18
642.089	390.14
642.504	303.54
642.918	301.2
643.333	308.22
643.747	373.75
644.162	317.58
644.576	355.03
644.991	348.01
645.405	301.2
645.819	277.79
646.233	277.79
646.647	282.47
647.061	273.11
647.475	333.97
647.889	364.39
648.303	303.54
648.717	315.24
649.131	305.88
649.545	340.99
649.958	296.52
650.372	340.99
650.785	280.13
651.199	350.35
651.612	298.86
652.026	340.99
652.439	284.81
652.852	324.6
653.266	326.94
653.679	291.84
654.092	317.58
654.505	298.86
654.918	340.99
655.331	352.69
655.744	263.75
656.156	333.97
656.569	282.47
656.982	308.22
657.394	284.81
657.807	348.01
658.22	312.9
658.632	329.28
659.044	329.28
659.457	270.77
659.869	249.71
660.281	326.94
660.693	315.24
661.106	268.43
661.518	226.3
661.93	331.62
662.342	333.97
662.754	340.99
663.165	266.09
663.577	319.92
663.989	350.35
664.401	322.26
664.812	308.22
665.224	242.68
665.635	305.88
666.047	336.31
666.458	280.13
666.869	338.65
667.281	324.6
667.692	312.9
668.103	319.92
668.514	371.41
668.925	296.52
669.336	298.86
669.747	340.99
670.158	310.56
670.569	289.5
670.979	261.41
671.39	291.84
671.801	303.54
672.211	348.01
672.622	324.6
673.032	366.73
673.443	366.73
673.853	336.31
674.263	380.78
674.674	383.12
675.084	310.56
675.494	291.84
675.904	324.6
676.314	359.71
676.724	268.43
677.134	301.2
677.544	319.92
677.953	355.03
678.363	270.77
678.773	392.48
679.182	277.79
679.592	348.01
680.001	305.88
680.411	301.2
680.82	333.97
681.23	317.58
681.639	324.6
682.048	340.99
682.457	301.2
682.866	322.26
683.275	287.15
683.684	298.86
684.093	373.75
684.502	249.71
684.911	322.26
685.32	312.9
685.728	259.07
686.137	333.97
686.546	312.9
686.954	359.71
687.363	317.58
687.771	270.77
688.179	312.9
688.588	308.22
688.996	331.62
689.404	287.15
689.812	193.53
690.22	256.73
690.628	240.34
691.036	280.13
691.444	298.86
691.852	345.67
692.26	345.67
692.667	280.13
693.075	249.71
693.483	291.84
693.89	230.98
694.298	315.24
694.705	310.56
695.112	355.03
695.52	338.65
695.927	326.94
696.334	340.99
696.741	287.15
697.148	282.47
697.555	235.66
697.962	380.78
698.369	364.39
698.776	294.18
699.183	338.65
699.59	273.11
699.996	275.45
700.403	390.14
700.81	331.62
701.216	291.84
701.623	319.92
702.029	312.9
702.435	261.41
702.842	275.45
703.248	291.84
703.654	329.28
704.06	303.54
704.466	305.88
704.872	298.86
705.278	305.88
705.684	333.97
706.09	308.22
706.496	331.62
706.901	366.73
707.307	345.67
707.712	322.26
708.118	315.24
708.523	355.03
708.929	263.75
709.334	315.24
709.74	350.35
710.145	303.54
710.55	343.33
710.955	348.01
711.36	270.77
711.765	275.45
712.17	322.26
712.575	364.39
712.98	947.19
713.385	371.41
713.789	401.84
714.194	336.31
714.599	319.92
715.003	301.2
715.408	308.22
715.812	343.33
716.217	338.65
716.621	348.01
717.025	296.52
717.429	319.92
717.833	303.54
718.238	348.01
718.642	380.78
719.046	369.07
719.449	319.92
719.853	284.81
720.257	277.79
720.661	317.58
721.065	284.81
721.468	245.02
721.872	275.45
722.275	383.12
722.679	366.73
723.082	345.67
723.485	390.14
723.889	252.05
724.292	273.11
724.695	259.07
725.098	301.2
725.501	298.86
725.904	329.28
726.307	310.56
726.71	303.54
727.113	296.52
727.516	343.33
727.918	319.92
728.321	338.65
728.724	289.5
729.126	308.22
729.529	289.5
729.931	310.56
730.333	305.88
730.736	333.97
731.138	305.88
731.54	338.65
731.942	324.6
732.344	397.16
732.746	317.58
733.148	270.77
733.55	338.65
733.952	261.41
734.354	336.31
734.756	296.52
735.157	319.92
735.559	268.43
735.96	268.43
736.362	259.07
736.763	331.62
737.165	324.6
737.566	331.62
737.967	270.77
738.368	298.86
738.77	355.03
739.171	247.37
739.572	266.09
739.973	315.24
740.374	296.52
740.774	263.75
741.175	242.68
741.576	364.39
741.977	303.54
742.377	350.35
742.778	273.11
743.178	338.65
743.579	324.6
743.979	298.86
744.379	378.44
744.78	319.92
745.18	259.07
745.58	177.15
745.98	310.56
746.38	326.94
746.78	305.88
747.18	331.62
747.58	305.88
747.98	333.97
748.38	362.05
748.779	303.54
749.179	317.58
749.578	378.44
749.978	359.71
750.377	284.81
750.777	275.45
751.176	296.52
751.575	308.22
751.975	284.81
752.374	308.22
752.773	308.22
753.172	275.45
753.571	315.24
753.97	294.18
754.369	240.34
754.768	329.28
755.166	294.18
755.565	425.25
755.964	350.35
756.362	294.18
756.761	338.65
757.159	345.67
757.558	326.94
757.956	312.9
758.354	298.86
758.753	291.84
759.151	296.52
759.549	273.11
759.947	383.12
760.345	324.6
760.743	329.28
761.141	284.81
761.539	310.56
761.936	319.92
762.334	303.54
762.732	315.24
763.129	270.77
763.527	324.6
763.924	301.2
764.322	289.5
764.719	303.54
765.117	348.01
765.514	275.45
765.911	315.24
