Data from Al_FLMS009871__402__14-19-04-657.txt Node

Date: Fri Mar 08 14:19:04 CST 2024
User: pe5414po
Spectrometer: FLMS00987
Trigger mode: 0
Integration Time (sec): 1.000000E-1
Scans to average: 1
Electric dark correction enabled: true
Nonlinearity correction enabled: false
Boxcar width: 0
XAxis mode: Wavelengths
Number of Pixels in Spectrum: 2048
>>>>>Begin Spectral Data<<<<<
188.938	-47.25
189.409	-47.25
189.879	-47.25
190.349	-96.4
190.819	-94.06
191.29	-61.29
191.76	-84.7
192.23	-51.93
192.7	-84.7
193.17	-61.29
193.64	-91.72
194.109	-28.53
194.579	-58.95
195.049	-0.44
195.519	34.67
195.988	20.63
196.458	22.97
196.927	139.99
197.397	65.1
197.866	88.5
198.336	151.7
198.805	132.97
199.274	102.54
199.744	182.12
200.213	203.19
200.682	221.91
201.151	221.91
201.62	219.57
202.089	296.81
202.558	303.83
203.027	210.21
203.495	247.66
203.964	306.17
204.433	271.06
204.902	292.13
205.37	310.85
205.839	278.08
206.307	219.57
206.776	257.02
207.244	315.53
207.712	235.96
208.181	289.79
208.649	310.85
209.117	301.49
209.585	303.83
210.053	306.17
210.521	275.74
210.989	315.53
211.457	292.13
211.925	282.77
212.393	299.15
212.861	245.32
213.328	252.34
213.796	320.21
214.264	282.77
214.731	322.56
215.199	268.72
215.666	228.93
216.133	287.45
216.601	259.36
217.068	278.08
217.535	289.79
218.003	212.55
218.47	228.93
218.937	322.56
219.404	242.98
219.871	275.74
220.338	247.66
220.805	240.64
221.271	301.49
221.738	313.19
222.205	203.19
222.671	231.27
223.138	261.7
223.605	245.32
224.071	282.77
224.538	233.61
225.004	275.74
225.47	257.02
225.937	184.46
226.403	245.32
226.869	271.06
227.335	254.68
227.801	296.81
228.267	271.06
228.733	292.13
229.199	285.11
229.665	287.45
230.131	261.7
230.597	299.15
231.062	240.64
231.528	278.08
231.994	327.24
232.459	271.06
232.925	266.38
233.39	238.3
233.856	294.47
234.321	294.47
234.786	299.15
235.252	306.17
235.717	296.81
236.182	240.64
236.647	278.08
237.112	285.11
237.577	219.57
238.042	285.11
238.507	205.53
238.972	289.79
239.436	245.32
239.901	203.19
240.366	217.23
240.83	257.02
241.295	308.51
241.76	259.36
242.224	186.8
242.688	250
243.153	310.85
243.617	360
244.081	266.38
244.545	289.79
245.01	285.11
245.474	301.49
245.938	320.21
246.402	287.45
246.866	336.6
247.33	282.77
247.793	301.49
248.257	273.4
248.721	294.47
249.185	303.83
249.648	296.81
250.112	250
250.575	292.13
251.039	287.45
251.502	352.98
251.965	285.11
252.429	257.02
252.892	221.91
253.355	266.38
253.818	266.38
254.281	310.85
254.744	282.77
255.207	271.06
255.67	362.34
256.133	245.32
256.596	310.85
257.059	282.77
257.522	308.51
257.984	275.74
258.447	282.77
258.909	315.53
259.372	306.17
259.834	331.92
260.297	254.68
260.759	315.53
261.221	261.7
261.684	196.17
262.146	362.34
262.608	367.03
263.07	252.34
263.532	271.06
263.994	280.43
264.456	257.02
264.918	287.45
265.38	303.83
265.842	257.02
266.303	299.15
266.765	338.94
267.227	247.66
267.688	235.96
268.15	259.36
268.611	271.06
269.072	296.81
269.534	301.49
269.995	278.08
270.456	257.02
270.918	317.87
271.379	303.83
271.84	273.4
272.301	327.24
272.762	301.49
273.223	280.43
273.684	315.53
274.144	245.32
274.605	285.11
275.066	240.64
275.527	360
275.987	308.51
276.448	362.34
276.908	334.26
277.369	317.87
277.829	357.66
278.289	247.66
278.75	275.74
279.21	313.19
279.67	331.92
280.13	268.72
280.59	282.77
281.05	254.68
281.51	320.21
281.97	278.08
282.43	271.06
282.89	287.45
283.35	348.3
283.809	343.62
284.269	289.79
284.729	313.19
285.188	271.06
285.648	287.45
286.107	266.38
286.567	233.61
287.026	301.49
287.485	233.61
287.944	331.92
288.404	301.49
288.863	285.11
289.322	296.81
289.781	317.87
290.24	273.4
290.699	287.45
291.158	296.81
291.616	200.85
292.075	266.38
292.534	310.85
292.992	341.28
293.451	303.83
293.91	259.36
294.368	268.72
294.827	324.9
295.285	306.17
295.743	324.9
296.202	355.32
296.66	327.24
297.118	303.83
297.576	285.11
298.034	378.73
298.492	271.06
298.95	313.19
299.408	301.49
299.866	348.3
300.324	324.9
300.781	336.6
301.239	240.64
301.697	306.17
302.154	310.85
302.612	322.56
303.069	299.15
303.527	299.15
303.984	303.83
304.441	282.77
304.899	385.75
305.356	252.34
305.813	317.87
306.27	306.17
306.727	334.26
307.184	310.85
307.641	313.19
308.098	331.92
308.555	303.83
309.012	261.7
309.468	343.62
309.925	348.3
310.382	282.77
310.838	245.32
311.295	331.92
311.751	317.87
312.208	348.3
312.664	310.85
313.12	362.34
313.577	235.96
314.033	299.15
314.489	264.04
314.945	292.13
315.401	285.11
315.857	282.77
316.313	303.83
316.769	371.71
317.225	301.49
317.681	338.94
318.136	395.11
318.592	352.98
319.048	294.47
319.503	310.85
319.959	362.34
320.414	329.58
320.869	388.09
321.325	268.72
321.78	329.58
322.235	308.51
322.691	324.9
323.146	268.72
323.601	299.15
324.056	264.04
324.511	275.74
324.966	336.6
325.421	285.11
325.875	289.79
326.33	352.98
326.785	320.21
327.24	280.43
327.694	334.26
328.149	303.83
328.603	266.38
329.058	306.17
329.512	345.96
329.966	364.68
330.421	315.53
330.875	334.26
331.329	252.34
331.783	364.68
332.237	294.47
332.691	317.87
333.145	331.92
333.599	336.6
334.053	266.38
334.507	329.58
334.96	299.15
335.414	259.36
335.868	322.56
336.321	315.53
336.775	324.9
337.228	402.13
337.682	317.87
338.135	343.62
338.588	341.28
339.042	308.51
339.495	257.02
339.948	369.37
340.401	280.43
340.854	250
341.307	327.24
341.76	296.81
342.213	310.85
342.666	327.24
343.119	294.47
343.571	331.92
344.024	322.56
344.477	352.98
344.929	252.34
345.382	292.13
345.834	324.9
346.287	296.81
346.739	271.06
347.191	331.92
347.644	352.98
348.096	271.06
348.548	322.56
349	242.98
349.452	235.96
349.904	252.34
350.356	280.43
350.808	385.75
351.26	350.64
351.711	315.53
352.163	341.28
352.615	289.79
353.066	348.3
353.518	324.9
353.969	275.74
354.421	292.13
354.872	266.38
355.324	287.45
355.775	308.51
356.226	296.81
356.677	329.58
357.128	404.47
357.579	299.15
358.03	271.06
358.481	280.43
358.932	315.53
359.383	357.66
359.834	247.66
360.285	345.96
360.735	327.24
361.186	360
361.637	296.81
362.087	334.26
362.538	313.19
362.988	285.11
363.438	329.58
363.889	322.56
364.339	308.51
364.789	301.49
365.239	310.85
365.689	329.58
366.139	329.58
366.589	294.47
367.039	282.77
367.489	306.17
367.939	338.94
368.389	282.77
368.839	315.53
369.288	320.21
369.738	313.19
370.187	306.17
370.637	292.13
371.086	280.43
371.536	306.17
371.985	287.45
372.434	271.06
372.884	310.85
373.333	266.38
373.782	364.68
374.231	228.93
374.68	299.15
375.129	296.81
375.578	348.3
376.027	355.32
376.475	268.72
376.924	317.87
377.373	322.56
377.822	296.81
378.27	327.24
378.719	327.24
379.167	327.24
379.616	324.9
380.064	317.87
380.512	299.15
380.961	331.92
381.409	374.05
381.857	266.38
382.305	317.87
382.753	341.28
383.201	301.49
383.649	289.79
384.097	315.53
384.545	369.37
384.992	324.9
385.44	343.62
385.888	327.24
386.335	392.77
386.783	348.3
387.231	285.11
387.678	336.6
388.125	299.15
388.573	285.11
389.02	287.45
389.467	259.36
389.914	280.43
390.362	299.15
390.809	320.21
391.256	280.43
391.703	275.74
392.15	341.28
392.596	322.56
393.043	324.9
393.49	345.96
393.937	245.32
394.383	278.08
394.83	371.71
395.276	289.79
395.723	294.47
396.169	334.26
396.616	257.02
397.062	322.56
397.508	271.06
397.954	273.4
398.401	261.7
398.847	324.9
399.293	306.17
399.739	247.66
400.185	268.72
400.631	378.73
401.076	327.24
401.522	350.64
401.968	334.26
402.414	322.56
402.859	282.77
403.305	294.47
403.75	324.9
404.196	327.24
404.641	324.9
405.086	338.94
405.532	310.85
405.977	299.15
406.422	350.64
406.867	271.06
407.312	334.26
407.757	371.71
408.202	303.83
408.647	278.08
409.092	285.11
409.537	313.19
409.982	317.87
410.426	348.3
410.871	322.56
411.316	320.21
411.76	320.21
412.205	341.28
412.649	343.62
413.093	338.94
413.538	348.3
413.982	385.75
414.426	367.03
414.87	313.19
415.314	301.49
415.758	306.17
416.202	352.98
416.646	329.58
417.09	371.71
417.534	348.3
417.978	275.74
418.421	336.6
418.865	292.13
419.309	355.32
419.752	324.9
420.196	296.81
420.639	374.05
421.083	357.66
421.526	336.6
421.969	327.24
422.412	313.19
422.856	327.24
423.299	324.9
423.742	350.64
424.185	317.87
424.628	334.26
425.071	345.96
425.513	360
425.956	282.77
426.399	299.15
426.842	420.86
427.284	303.83
427.727	324.9
428.169	315.53
428.612	280.43
429.054	303.83
429.497	259.36
429.939	285.11
430.381	364.68
430.823	257.02
431.265	343.62
431.707	299.15
432.149	334.26
432.591	392.77
433.033	278.08
433.475	289.79
433.917	345.96
434.359	280.43
434.8	313.19
435.242	341.28
435.684	275.74
436.125	271.06
436.567	285.11
437.008	334.26
437.449	324.9
437.891	296.81
438.332	322.56
438.773	320.21
439.214	252.34
439.656	294.47
440.097	360
440.538	320.21
440.978	348.3
441.419	336.6
441.86	320.21
442.301	315.53
442.742	278.08
443.182	343.62
443.623	345.96
444.063	315.53
444.504	331.92
444.944	331.92
445.385	331.92
445.825	285.11
446.265	327.24
446.706	282.77
447.146	324.9
447.586	338.94
448.026	357.66
448.466	360
448.906	315.53
449.346	317.87
449.786	268.72
450.225	310.85
450.665	315.53
451.105	331.92
451.544	271.06
451.984	322.56
452.424	352.98
452.863	331.92
453.302	296.81
453.742	308.51
454.181	348.3
454.62	341.28
455.059	310.85
455.499	299.15
455.938	322.56
456.377	381.07
456.816	320.21
457.254	348.3
457.693	327.24
458.132	273.4
458.571	313.19
459.01	338.94
459.448	292.13
459.887	322.56
460.325	296.81
460.764	320.21
461.202	376.39
461.641	338.94
462.079	338.94
462.517	369.37
462.955	338.94
463.393	334.26
463.832	362.34
464.27	357.66
464.708	310.85
465.145	310.85
465.583	252.34
466.021	294.47
466.459	292.13
466.897	324.9
467.334	278.08
467.772	336.6
468.209	343.62
468.647	423.2
469.084	364.68
469.522	374.05
469.959	313.19
470.396	289.79
470.833	362.34
471.271	285.11
471.708	355.32
472.145	306.17
472.582	289.79
473.019	341.28
473.456	320.21
473.892	345.96
474.329	285.11
474.766	294.47
475.202	273.4
475.639	343.62
476.076	355.32
476.512	306.17
476.949	273.4
477.385	357.66
477.821	364.68
478.258	294.47
478.694	289.79
479.13	268.72
479.566	352.98
480.002	308.51
480.438	287.45
480.874	271.06
481.31	299.15
481.746	299.15
482.181	369.37
482.617	275.74
483.053	341.28
483.488	355.32
483.924	299.15
484.36	324.9
484.795	329.58
485.23	320.21
485.666	247.66
486.101	331.92
486.536	322.56
486.971	273.4
487.407	296.81
487.842	343.62
488.277	264.04
488.712	334.26
489.146	367.03
489.581	289.79
490.016	364.68
490.451	296.81
490.885	299.15
491.32	324.9
491.755	294.47
492.189	341.28
492.624	360
493.058	322.56
493.492	360
493.927	273.4
494.361	282.77
494.795	329.58
495.229	282.77
495.663	343.62
496.097	296.81
496.531	371.71
496.965	320.21
497.399	338.94
497.833	308.51
498.266	317.87
498.7	350.64
499.134	329.58
499.567	381.07
500.001	294.47
500.434	289.79
500.868	315.53
501.301	357.66
501.734	247.66
502.168	338.94
502.601	345.96
503.034	308.51
503.467	278.08
503.9	343.62
504.333	306.17
504.766	299.15
505.199	294.47
505.632	331.92
506.064	341.28
506.497	285.11
506.93	322.56
507.362	306.17
507.795	273.4
508.227	352.98
508.66	320.21
509.092	287.45
509.524	345.96
509.956	301.49
510.389	336.6
510.821	296.81
511.253	341.28
511.685	322.56
512.117	310.85
512.549	313.19
512.981	313.19
513.412	371.71
513.844	324.9
514.276	334.26
514.707	310.85
515.139	338.94
515.571	303.83
516.002	336.6
516.433	299.15
516.865	320.21
517.296	296.81
517.727	338.94
518.159	285.11
518.59	257.02
519.021	315.53
519.452	402.13
519.883	352.98
520.314	324.9
520.744	334.26
521.175	294.47
521.606	275.74
522.037	308.51
522.467	355.32
522.898	275.74
523.328	320.21
523.759	348.3
524.189	331.92
524.62	294.47
525.05	292.13
525.48	282.77
525.91	292.13
526.341	324.9
526.771	315.53
527.201	348.3
527.631	381.07
528.061	338.94
528.49	378.73
528.92	322.56
529.35	320.21
529.78	355.32
530.209	287.45
530.639	376.39
531.068	320.21
531.498	315.53
531.927	247.66
532.357	345.96
532.786	348.3
533.215	329.58
533.644	336.6
534.074	371.71
534.503	299.15
534.932	240.64
535.361	334.26
535.79	331.92
536.218	303.83
536.647	383.41
537.076	364.68
537.505	341.28
537.933	306.17
538.362	301.49
538.79	299.15
539.219	322.56
539.647	348.3
540.076	345.96
540.504	329.58
540.932	308.51
541.36	334.26
541.788	338.94
542.217	303.83
542.645	324.9
543.073	336.6
543.5	341.28
543.928	348.3
544.356	250
544.784	345.96
545.211	303.83
545.639	395.11
546.067	306.17
546.494	341.28
546.922	336.6
547.349	287.45
547.776	282.77
548.204	322.56
548.631	301.49
549.058	336.6
549.485	345.96
549.912	362.34
550.339	310.85
550.766	296.81
551.193	271.06
551.62	322.56
552.047	392.77
552.474	329.58
552.9	280.43
553.327	331.92
553.754	334.26
554.18	303.83
554.607	306.17
555.033	285.11
555.459	362.34
555.886	383.41
556.312	367.03
556.738	308.51
557.164	324.9
557.59	350.64
558.016	266.38
558.442	264.04
558.868	369.37
559.294	294.47
559.72	310.85
560.145	315.53
560.571	315.53
560.997	259.36
561.422	287.45
561.848	264.04
562.273	341.28
562.699	369.37
563.124	322.56
563.549	294.47
563.974	348.3
564.4	310.85
564.825	329.58
565.25	268.72
565.675	324.9
566.1	352.98
566.525	296.81
566.95	334.26
567.374	294.47
567.799	341.28
568.224	252.34
568.648	308.51
569.073	299.15
569.497	282.77
569.922	367.03
570.346	369.37
570.771	308.51
571.195	313.19
571.619	273.4
572.043	320.21
572.467	268.72
572.891	289.79
573.315	362.34
573.739	371.71
574.163	278.08
574.587	275.74
575.011	331.92
575.435	313.19
575.858	299.15
576.282	402.13
576.705	320.21
577.129	376.39
577.552	324.9
577.976	313.19
578.399	285.11
578.822	395.11
579.245	357.66
579.669	294.47
580.092	348.3
580.515	352.98
580.938	315.53
581.361	320.21
581.784	348.3
582.206	301.49
582.629	313.19
583.052	327.24
583.474	240.64
583.897	395.11
584.32	329.58
584.742	348.3
585.165	285.11
585.587	313.19
586.009	315.53
586.431	348.3
586.854	343.62
587.276	334.26
587.698	268.72
588.12	341.28
588.542	315.53
588.964	355.32
589.386	345.96
589.807	360
590.229	367.03
590.651	261.7
591.073	369.37
591.494	285.11
591.916	371.71
592.337	395.11
592.759	266.38
593.18	315.53
593.601	320.21
594.022	331.92
594.444	334.26
594.865	315.53
595.286	285.11
595.707	287.45
596.128	292.13
596.549	308.51
596.97	341.28
597.39	310.85
597.811	252.34
598.232	362.34
598.652	303.83
599.073	338.94
599.494	292.13
599.914	308.51
600.334	336.6
600.755	362.34
601.175	324.9
601.595	306.17
602.015	280.43
602.436	308.51
602.856	392.77
603.276	233.61
603.696	280.43
604.115	294.47
604.535	374.05
604.955	317.87
605.375	331.92
605.794	322.56
606.214	292.13
606.634	327.24
607.053	308.51
607.473	273.4
607.892	381.07
608.311	338.94
608.731	294.47
609.15	350.64
609.569	329.58
609.988	369.37
610.407	371.71
610.826	334.26
611.245	287.45
611.664	306.17
612.083	306.17
612.501	299.15
612.92	355.32
613.339	341.28
613.757	261.7
614.176	355.32
614.594	364.68
615.013	341.28
615.431	301.49
615.85	285.11
616.268	331.92
616.686	280.43
617.104	268.72
617.522	320.21
617.94	259.36
618.358	338.94
618.776	299.15
619.194	364.68
619.612	348.3
620.03	331.92
620.447	273.4
620.865	336.6
621.282	317.87
621.7	362.34
622.117	324.9
622.535	338.94
622.952	345.96
623.369	280.43
623.787	313.19
624.204	331.92
624.621	310.85
625.038	285.11
625.455	345.96
625.872	292.13
626.289	320.21
626.706	334.26
627.123	315.53
627.539	350.64
627.956	292.13
628.373	296.81
628.789	308.51
629.206	331.92
629.622	348.3
630.038	385.75
630.455	275.74
630.871	285.11
631.287	343.62
631.703	338.94
632.12	287.45
632.536	306.17
632.952	324.9
633.368	369.37
633.783	310.85
634.199	345.96
634.615	360
635.031	308.51
635.446	296.81
635.862	315.53
636.277	331.92
636.693	287.45
637.108	266.38
637.524	411.5
637.939	275.74
638.354	324.9
638.77	360
639.185	320.21
639.6	317.87
640.015	343.62
640.43	360
640.845	381.07
641.259	264.04
641.674	327.24
642.089	294.47
642.504	320.21
642.918	285.11
643.333	334.26
643.747	345.96
644.162	254.68
644.576	343.62
644.991	329.58
645.405	303.83
645.819	252.34
646.233	367.03
646.647	341.28
647.061	348.3
647.475	310.85
647.889	294.47
648.303	259.36
648.717	268.72
649.131	348.3
649.545	399.79
649.958	324.9
650.372	360
650.785	257.02
651.199	301.49
651.612	271.06
652.026	322.56
652.439	310.85
652.852	301.49
653.266	324.9
653.679	327.24
654.092	367.03
654.505	268.72
654.918	343.62
655.331	308.51
655.744	327.24
656.156	338.94
656.569	299.15
656.982	271.06
657.394	285.11
657.807	285.11
658.22	371.71
658.632	205.53
659.044	364.68
659.457	343.62
659.869	329.58
660.281	341.28
660.693	285.11
661.106	355.32
661.518	299.15
661.93	329.58
662.342	301.49
662.754	329.58
663.165	280.43
663.577	317.87
663.989	296.81
664.401	301.49
664.812	334.26
665.224	303.83
665.635	336.6
666.047	280.43
666.458	287.45
666.869	322.56
667.281	306.17
667.692	322.56
668.103	275.74
668.514	289.79
668.925	320.21
669.336	350.64
669.747	310.85
670.158	282.77
670.569	331.92
670.979	259.36
671.39	292.13
671.801	338.94
672.211	264.04
672.622	282.77
673.032	285.11
673.443	348.3
673.853	268.72
674.263	282.77
674.674	273.4
675.084	352.98
675.494	338.94
675.904	294.47
676.314	324.9
676.724	282.77
677.134	327.24
677.544	259.36
677.953	315.53
678.363	242.98
678.773	320.21
679.182	336.6
679.592	242.98
680.001	257.02
680.411	299.15
680.82	343.62
681.23	257.02
681.639	355.32
682.048	334.26
682.457	374.05
682.866	341.28
683.275	287.45
683.684	299.15
684.093	336.6
684.502	271.06
684.911	352.98
685.32	364.68
685.728	289.79
686.137	322.56
686.546	392.77
686.954	303.83
687.363	355.32
687.771	331.92
688.179	278.08
688.588	374.05
688.996	324.9
689.404	317.87
689.812	306.17
690.22	252.34
690.628	299.15
691.036	383.41
691.444	322.56
691.852	303.83
692.26	345.96
692.667	317.87
693.075	303.83
693.483	315.53
693.89	324.9
694.298	355.32
694.705	317.87
695.112	367.03
695.52	392.77
695.927	322.56
696.334	322.56
696.741	350.64
697.148	329.58
697.555	345.96
697.962	301.49
698.369	296.81
698.776	343.62
699.183	278.08
699.59	327.24
699.996	315.53
700.403	294.47
700.81	341.28
701.216	336.6
701.623	303.83
702.029	317.87
702.435	296.81
702.842	296.81
703.248	294.47
703.654	324.9
704.06	313.19
704.466	280.43
704.872	303.83
705.278	399.79
705.684	388.09
706.09	268.72
706.496	294.47
706.901	306.17
707.307	285.11
707.712	352.98
708.118	350.64
708.523	315.53
708.929	374.05
709.334	357.66
709.74	275.74
710.145	343.62
710.55	252.34
710.955	331.92
711.36	268.72
711.765	310.85
712.17	350.64
712.575	299.15
712.98	966.2
713.385	313.19
713.789	329.58
714.194	338.94
714.599	303.83
715.003	367.03
715.408	292.13
715.812	320.21
716.217	310.85
716.621	292.13
717.025	264.04
717.429	320.21
717.833	324.9
718.238	306.17
718.642	338.94
719.046	259.36
719.449	310.85
719.853	345.96
720.257	299.15
720.661	348.3
721.065	345.96
721.468	287.45
721.872	336.6
722.275	280.43
722.679	348.3
723.082	261.7
723.485	308.51
723.889	327.24
724.292	317.87
724.695	278.08
725.098	336.6
725.501	345.96
725.904	233.61
726.307	289.79
726.71	313.19
727.113	257.02
727.516	336.6
727.918	299.15
728.321	350.64
728.724	357.66
729.126	268.72
729.529	317.87
729.931	252.34
730.333	324.9
730.736	329.58
731.138	383.41
731.54	303.83
731.942	345.96
732.344	336.6
732.746	348.3
733.148	336.6
733.55	324.9
733.952	336.6
734.354	289.79
734.756	268.72
735.157	383.41
735.559	331.92
735.96	257.02
736.362	327.24
736.763	303.83
737.165	327.24
737.566	292.13
737.967	427.88
738.368	331.92
738.77	338.94
739.171	289.79
739.572	301.49
739.973	364.68
740.374	329.58
740.774	348.3
741.175	336.6
741.576	306.17
741.977	336.6
742.377	306.17
742.778	320.21
743.178	327.24
743.579	364.68
743.979	336.6
744.379	303.83
744.78	320.21
745.18	308.51
745.58	308.51
745.98	341.28
746.38	320.21
746.78	329.58
747.18	294.47
747.58	336.6
747.98	296.81
748.38	334.26
748.779	329.58
749.179	282.77
749.578	364.68
749.978	261.7
750.377	275.74
750.777	292.13
751.176	371.71
751.575	257.02
751.975	271.06
752.374	315.53
752.773	376.39
753.172	350.64
753.571	320.21
753.97	271.06
754.369	275.74
754.768	324.9
755.166	348.3
755.565	348.3
755.964	317.87
756.362	320.21
756.761	285.11
757.159	395.11
757.558	254.68
757.956	341.28
758.354	437.24
758.753	273.4
759.151	371.71
759.549	310.85
759.947	334.26
760.345	336.6
760.743	282.77
761.141	308.51
761.539	324.9
761.936	360
762.334	350.64
762.732	329.58
763.129	374.05
763.527	313.19
763.924	320.21
764.322	315.53
764.719	343.62
765.117	327.24
765.514	268.72
765.911	385.75
766.308	261.7
766.705	280.43
