Data from Al_FLMS009871__409__14-19-05-357.txt Node

Date: Fri Mar 08 14:19:05 CST 2024
User: pe5414po
Spectrometer: FLMS00987
Trigger mode: 0
Integration Time (sec): 1.000000E-1
Scans to average: 1
Electric dark correction enabled: true
Nonlinearity correction enabled: false
Boxcar width: 0
XAxis mode: Wavelengths
Number of Pixels in Spectrum: 2048
>>>>>Begin Spectral Data<<<<<
188.938	-20.48
189.409	-20.48
189.879	-20.48
190.349	-93.04
190.819	-67.29
191.29	-149.21
191.76	-41.54
192.23	-69.63
192.7	-46.23
193.17	-74.31
193.64	-88.36
194.109	-53.25
194.579	-71.97
195.049	19.31
195.519	47.4
195.988	21.65
196.458	82.5
196.927	77.82
197.397	80.16
197.866	141.02
198.336	124.63
198.805	211.23
199.274	138.68
199.744	157.4
200.213	220.6
200.682	232.3
201.151	251.02
201.62	244
202.089	267.41
202.558	236.98
203.027	272.09
203.495	295.49
203.964	300.17
204.433	236.98
204.902	293.15
205.37	314.22
205.839	302.51
206.307	328.26
206.776	241.66
207.244	236.98
207.712	297.83
208.181	260.38
208.649	281.45
209.117	309.54
209.585	335.28
210.053	267.41
210.521	262.73
210.989	300.17
211.457	309.54
211.925	286.13
212.393	321.24
212.861	332.94
213.328	300.17
213.796	244
214.264	330.6
214.731	293.15
215.199	279.11
215.666	276.77
216.133	206.55
216.601	255.7
217.068	274.43
217.535	253.36
218.003	260.38
218.47	197.19
218.937	265.07
219.404	260.38
219.871	253.36
220.338	258.04
220.805	262.73
221.271	316.56
221.738	258.04
222.205	304.85
222.671	227.62
223.138	229.96
223.605	239.32
224.071	274.43
224.538	241.66
225.004	302.51
225.47	316.56
225.937	297.83
226.403	265.07
226.869	229.96
227.335	222.94
227.801	290.81
228.267	276.77
228.733	265.07
229.199	283.79
229.665	272.09
230.131	272.09
230.597	232.3
231.062	232.3
231.528	269.75
231.994	272.09
232.459	276.77
232.925	304.85
233.39	337.62
233.856	244
234.321	290.81
234.786	246.34
235.252	269.75
235.717	323.58
236.182	262.73
236.647	187.83
237.112	283.79
237.577	272.09
238.042	311.88
238.507	225.28
238.972	304.85
239.436	236.98
239.901	229.96
240.366	283.79
240.83	267.41
241.295	269.75
241.76	335.28
242.224	307.2
242.688	265.07
243.153	236.98
243.617	244
244.081	286.13
244.545	239.32
245.01	274.43
245.474	288.47
245.938	295.49
246.402	293.15
246.866	335.28
247.33	288.47
247.793	281.45
248.257	274.43
248.721	302.51
249.185	239.32
249.648	262.73
250.112	201.87
250.575	251.02
251.039	251.02
251.502	246.34
251.965	276.77
252.429	246.34
252.892	248.68
253.355	295.49
253.818	269.75
254.281	279.11
254.744	307.2
255.207	330.6
255.67	265.07
256.133	290.81
256.596	197.19
257.059	225.28
257.522	311.88
257.984	311.88
258.447	258.04
258.909	323.58
259.372	276.77
259.834	255.7
260.297	307.2
260.759	302.51
261.221	316.56
261.684	251.02
262.146	293.15
262.608	332.94
263.07	297.83
263.532	309.54
263.994	295.49
264.456	358.69
264.918	236.98
265.38	342.3
265.842	267.41
266.303	260.38
266.765	283.79
267.227	274.43
267.688	302.51
268.15	246.34
268.611	267.41
269.072	204.21
269.534	260.38
269.995	279.11
270.456	302.51
270.918	297.83
271.379	276.77
271.84	244
272.301	328.26
272.762	321.24
273.223	272.09
273.684	274.43
274.144	300.17
274.605	286.13
275.066	236.98
275.527	309.54
275.987	288.47
276.448	286.13
276.908	344.64
277.369	269.75
277.829	304.85
278.289	206.55
278.75	279.11
279.21	258.04
279.67	314.22
280.13	283.79
280.59	304.85
281.05	272.09
281.51	208.89
281.97	321.24
282.43	288.47
282.89	279.11
283.35	215.91
283.809	265.07
284.269	265.07
284.729	314.22
285.188	300.17
285.648	281.45
286.107	246.34
286.567	241.66
287.026	344.64
287.485	309.54
287.944	318.9
288.404	316.56
288.863	337.62
289.322	309.54
289.781	342.3
290.24	276.77
290.699	272.09
291.158	267.41
291.616	356.35
292.075	297.83
292.534	269.75
292.992	295.49
293.451	321.24
293.91	248.68
294.368	295.49
294.827	323.58
295.285	339.96
295.743	302.51
296.202	232.3
296.66	354.01
297.118	297.83
297.576	246.34
298.034	279.11
298.492	346.98
298.95	272.09
299.408	290.81
299.866	227.62
300.324	258.04
300.781	206.55
301.239	253.36
301.697	220.6
302.154	260.38
302.612	246.34
303.069	286.13
303.527	314.22
303.984	311.88
304.441	318.9
304.899	344.64
305.356	344.64
305.813	344.64
306.27	302.51
306.727	276.77
307.184	267.41
307.641	323.58
308.098	309.54
308.555	269.75
309.012	274.43
309.468	222.94
309.925	274.43
310.382	267.41
310.838	300.17
311.295	405.5
311.751	272.09
312.208	279.11
312.664	265.07
313.12	328.26
313.577	283.79
314.033	328.26
314.489	295.49
314.945	311.88
315.401	295.49
315.857	354.01
316.313	258.04
316.769	283.79
317.225	255.7
317.681	325.92
318.136	258.04
318.592	311.88
319.048	269.75
319.503	279.11
319.959	286.13
320.414	297.83
320.869	344.64
321.325	272.09
321.78	304.85
322.235	363.37
322.691	281.45
323.146	225.28
323.601	258.04
324.056	293.15
324.511	276.77
324.966	272.09
325.421	239.32
325.875	274.43
326.33	279.11
326.785	288.47
327.24	239.32
327.694	302.51
328.149	297.83
328.603	262.73
329.058	300.17
329.512	311.88
329.966	269.75
330.421	337.62
330.875	253.36
331.329	229.96
331.783	321.24
332.237	290.81
332.691	300.17
333.145	239.32
333.599	321.24
334.053	265.07
334.507	276.77
334.96	342.3
335.414	325.92
335.868	260.38
336.321	279.11
336.775	386.77
337.228	251.02
337.682	314.22
338.135	300.17
338.588	286.13
339.042	283.79
339.495	304.85
339.948	316.56
340.401	281.45
340.854	293.15
341.307	265.07
341.76	321.24
342.213	300.17
342.666	248.68
343.119	297.83
343.571	330.6
344.024	293.15
344.477	328.26
344.929	288.47
345.382	323.58
345.834	274.43
346.287	265.07
346.739	342.3
347.191	300.17
347.644	330.6
348.096	405.5
348.548	265.07
349	297.83
349.452	332.94
349.904	302.51
350.356	349.32
350.808	297.83
351.26	342.3
351.711	339.96
352.163	283.79
352.615	307.2
353.066	323.58
353.518	349.32
353.969	316.56
354.421	251.02
354.872	239.32
355.324	325.92
355.775	246.34
356.226	286.13
356.677	281.45
357.128	349.32
357.579	300.17
358.03	297.83
358.481	321.24
358.932	332.94
359.383	288.47
359.834	375.07
360.285	295.49
360.735	302.51
361.186	325.92
361.637	300.17
362.087	295.49
362.538	302.51
362.988	316.56
363.438	300.17
363.889	346.98
364.339	339.96
364.789	269.75
365.239	290.81
365.689	258.04
366.139	281.45
366.589	325.92
367.039	346.98
367.489	323.58
367.939	354.01
368.389	365.71
368.839	332.94
369.288	346.98
369.738	265.07
370.187	234.64
370.637	295.49
371.086	325.92
371.536	295.49
371.985	297.83
372.434	267.41
372.884	335.28
373.333	314.22
373.782	274.43
374.231	258.04
374.68	307.2
375.129	281.45
375.578	297.83
376.027	269.75
376.475	325.92
376.924	286.13
377.373	342.3
377.822	318.9
378.27	272.09
378.719	300.17
379.167	251.02
379.616	330.6
380.064	332.94
380.512	361.03
380.961	342.3
381.409	239.32
381.857	293.15
382.305	311.88
382.753	349.32
383.201	236.98
383.649	354.01
384.097	321.24
384.545	321.24
384.992	265.07
385.44	321.24
385.888	300.17
386.335	307.2
386.783	265.07
387.231	330.6
387.678	251.02
388.125	295.49
388.573	276.77
389.02	316.56
389.467	293.15
389.914	314.22
390.362	283.79
390.809	354.01
391.256	281.45
391.703	344.64
392.15	354.01
392.596	325.92
393.043	356.35
393.49	286.13
393.937	318.9
394.383	300.17
394.83	286.13
395.276	272.09
395.723	274.43
396.169	258.04
396.616	346.98
397.062	255.7
397.508	262.73
397.954	260.38
398.401	297.83
398.847	281.45
399.293	279.11
399.739	328.26
400.185	370.39
400.631	295.49
401.076	389.11
401.522	248.68
401.968	290.81
402.414	288.47
402.859	335.28
403.305	349.32
403.75	297.83
404.196	384.43
404.641	309.54
405.086	318.9
405.532	321.24
405.977	356.35
406.422	262.73
406.867	290.81
407.312	304.85
407.757	316.56
408.202	323.58
408.647	375.07
409.092	281.45
409.537	297.83
409.982	332.94
410.426	302.51
410.871	351.67
411.316	337.62
411.76	323.58
412.205	339.96
412.649	349.32
413.093	368.05
413.538	300.17
413.982	251.02
414.426	358.69
414.87	307.2
415.314	274.43
415.758	328.26
416.202	346.98
416.646	293.15
417.09	332.94
417.534	307.2
417.978	361.03
418.421	248.68
418.865	241.66
419.309	293.15
419.752	258.04
420.196	330.6
420.639	321.24
421.083	286.13
421.526	316.56
421.969	297.83
422.412	321.24
422.856	297.83
423.299	265.07
423.742	304.85
424.185	346.98
424.628	297.83
425.071	276.77
425.513	265.07
425.956	382.09
426.399	262.73
426.842	332.94
427.284	307.2
427.727	316.56
428.169	328.26
428.612	253.36
429.054	297.83
429.497	318.9
429.939	295.49
430.381	346.98
430.823	318.9
431.265	332.94
431.707	286.13
432.149	344.64
432.591	365.71
433.033	323.58
433.475	335.28
433.917	297.83
434.359	304.85
434.8	309.54
435.242	283.79
435.684	262.73
436.125	314.22
436.567	251.02
437.008	272.09
437.449	382.09
437.891	332.94
438.332	297.83
438.773	328.26
439.214	375.07
439.656	314.22
440.097	316.56
440.538	290.81
440.978	309.54
441.419	351.67
441.86	316.56
442.301	276.77
442.742	393.8
443.182	346.98
443.623	325.92
444.063	318.9
444.504	297.83
444.944	323.58
445.385	314.22
445.825	229.96
446.265	295.49
446.706	328.26
447.146	321.24
447.586	368.05
448.026	279.11
448.466	325.92
448.906	314.22
449.346	330.6
449.786	260.38
450.225	337.62
450.665	314.22
451.105	283.79
451.544	279.11
451.984	323.58
452.424	295.49
452.863	269.75
453.302	311.88
453.742	309.54
454.181	297.83
454.62	293.15
455.059	332.94
455.499	311.88
455.938	281.45
456.377	323.58
456.816	325.92
457.254	279.11
457.693	335.28
458.132	220.6
458.571	344.64
459.01	323.58
459.448	281.45
459.887	342.3
460.325	307.2
460.764	314.22
461.202	307.2
461.641	328.26
462.079	297.83
462.517	272.09
462.955	354.01
463.393	314.22
463.832	281.45
464.27	244
464.708	323.58
465.145	332.94
465.583	246.34
466.021	328.26
466.459	304.85
466.897	288.47
467.334	265.07
467.772	274.43
468.209	215.91
468.647	311.88
469.084	295.49
469.522	321.24
469.959	283.79
470.396	361.03
470.833	358.69
471.271	325.92
471.708	330.6
472.145	307.2
472.582	307.2
473.019	283.79
473.456	244
473.892	288.47
474.329	300.17
474.766	295.49
475.202	265.07
475.639	295.49
476.076	328.26
476.512	323.58
476.949	265.07
477.385	344.64
477.821	232.3
478.258	281.45
478.694	279.11
479.13	302.51
479.566	300.17
480.002	300.17
480.438	300.17
480.874	342.3
481.31	260.38
481.746	304.85
482.181	290.81
482.617	318.9
483.053	344.64
483.488	300.17
483.924	293.15
484.36	220.6
484.795	304.85
485.23	258.04
485.666	304.85
486.101	354.01
486.536	279.11
486.971	288.47
487.407	311.88
487.842	330.6
488.277	281.45
488.712	304.85
489.146	365.71
489.581	363.37
490.016	339.96
490.451	323.58
490.885	363.37
491.32	314.22
491.755	267.41
492.189	297.83
492.624	293.15
493.058	262.73
493.492	311.88
493.927	274.43
494.361	248.68
494.795	363.37
495.229	309.54
495.663	330.6
496.097	358.69
496.531	330.6
496.965	351.67
497.399	351.67
497.833	297.83
498.266	279.11
498.7	349.32
499.134	297.83
499.567	316.56
500.001	295.49
500.434	234.64
500.868	372.73
501.301	234.64
501.734	337.62
502.168	325.92
502.601	295.49
503.034	267.41
503.467	337.62
503.9	323.58
504.333	323.58
504.766	283.79
505.199	269.75
505.632	332.94
506.064	283.79
506.497	307.2
506.93	335.28
507.362	286.13
507.795	339.96
508.227	288.47
508.66	309.54
509.092	346.98
509.524	279.11
509.956	316.56
510.389	244
510.821	351.67
511.253	300.17
511.685	337.62
512.117	389.11
512.549	314.22
512.981	297.83
513.412	346.98
513.844	309.54
514.276	246.34
514.707	339.96
515.139	300.17
515.571	234.64
516.002	337.62
516.433	293.15
516.865	325.92
517.296	342.3
517.727	346.98
518.159	295.49
518.59	339.96
519.021	290.81
519.452	279.11
519.883	328.26
520.314	283.79
520.744	241.66
521.175	262.73
521.606	365.71
522.037	370.39
522.467	325.92
522.898	258.04
523.328	370.39
523.759	304.85
524.189	274.43
524.62	290.81
525.05	283.79
525.48	330.6
525.91	265.07
526.341	288.47
526.771	267.41
527.201	274.43
527.631	255.7
528.061	269.75
528.49	393.8
528.92	255.7
529.35	283.79
529.78	274.43
530.209	337.62
530.639	272.09
531.068	283.79
531.498	302.51
531.927	279.11
532.357	295.49
532.786	300.17
533.215	265.07
533.644	363.37
534.074	351.67
534.503	335.28
534.932	337.62
535.361	321.24
535.79	351.67
536.218	335.28
536.647	328.26
537.076	323.58
537.505	311.88
537.933	368.05
538.362	328.26
538.79	286.13
539.219	265.07
539.647	321.24
540.076	321.24
540.504	356.35
540.932	349.32
541.36	325.92
541.788	297.83
542.217	349.32
542.645	267.41
543.073	274.43
543.5	314.22
543.928	342.3
544.356	288.47
544.784	269.75
545.211	302.51
545.639	307.2
546.067	283.79
546.494	318.9
546.922	379.75
547.349	349.32
547.776	323.58
548.204	335.28
548.631	262.73
549.058	227.62
549.485	344.64
549.912	311.88
550.339	309.54
550.766	314.22
551.193	325.92
551.62	318.9
552.047	321.24
552.474	323.58
552.9	325.92
553.327	253.36
553.754	342.3
554.18	377.41
554.607	279.11
555.033	318.9
555.459	267.41
555.886	311.88
556.312	302.51
556.738	356.35
557.164	398.48
557.59	330.6
558.016	311.88
558.442	335.28
558.868	309.54
559.294	330.6
559.72	302.51
560.145	321.24
560.571	304.85
560.997	318.9
561.422	297.83
561.848	293.15
562.273	307.2
562.699	311.88
563.124	290.81
563.549	239.32
563.974	307.2
564.4	332.94
564.825	325.92
565.25	314.22
565.675	274.43
566.1	323.58
566.525	325.92
566.95	356.35
567.374	274.43
567.799	321.24
568.224	358.69
568.648	356.35
569.073	314.22
569.497	293.15
569.922	325.92
570.346	321.24
570.771	295.49
571.195	325.92
571.619	363.37
572.043	258.04
572.467	283.79
572.891	377.41
573.315	295.49
573.739	258.04
574.163	339.96
574.587	302.51
575.011	279.11
575.435	302.51
575.858	349.32
576.282	330.6
576.705	325.92
577.129	351.67
577.552	293.15
577.976	283.79
578.399	297.83
578.822	290.81
579.245	269.75
579.669	307.2
580.092	279.11
580.515	300.17
580.938	314.22
581.361	346.98
581.784	332.94
582.206	286.13
582.629	300.17
583.052	335.28
583.474	309.54
583.897	288.47
584.32	293.15
584.742	365.71
585.165	309.54
585.587	211.23
586.009	276.77
586.431	316.56
586.854	300.17
587.276	295.49
587.698	368.05
588.12	368.05
588.542	361.03
588.964	318.9
589.386	269.75
589.807	297.83
590.229	283.79
590.651	251.02
591.073	323.58
591.494	328.26
591.916	346.98
592.337	283.79
592.759	201.87
593.18	382.09
593.601	286.13
594.022	346.98
594.444	288.47
594.865	241.66
595.286	276.77
595.707	260.38
596.128	332.94
596.549	318.9
596.97	267.41
597.39	302.51
597.811	309.54
598.232	330.6
598.652	276.77
599.073	274.43
599.494	274.43
599.914	290.81
600.334	377.41
600.755	339.96
601.175	297.83
601.595	335.28
602.015	286.13
602.436	316.56
602.856	447.63
603.276	361.03
603.696	346.98
604.115	293.15
604.535	258.04
604.955	356.35
605.375	377.41
605.794	267.41
606.214	311.88
606.634	325.92
607.053	281.45
607.473	297.83
607.892	260.38
608.311	311.88
608.731	309.54
609.15	332.94
609.569	309.54
609.988	309.54
610.407	297.83
610.826	342.3
611.245	363.37
611.664	393.8
612.083	300.17
612.501	262.73
612.92	344.64
613.339	323.58
613.757	272.09
614.176	309.54
614.594	318.9
615.013	337.62
615.431	386.77
615.85	295.49
616.268	314.22
616.686	370.39
617.104	309.54
617.522	330.6
617.94	335.28
618.358	330.6
618.776	339.96
619.194	281.45
619.612	302.51
620.03	342.3
620.447	354.01
620.865	372.73
621.282	258.04
621.7	354.01
622.117	297.83
622.535	351.67
622.952	272.09
623.369	288.47
623.787	342.3
624.204	346.98
624.621	265.07
625.038	370.39
625.455	370.39
625.872	297.83
626.289	258.04
626.706	325.92
627.123	218.25
627.539	311.88
627.956	300.17
628.373	316.56
628.789	300.17
629.206	307.2
629.622	354.01
630.038	314.22
630.455	318.9
630.871	300.17
631.287	262.73
631.703	272.09
632.12	241.66
632.536	234.64
632.952	290.81
633.368	328.26
633.783	295.49
634.199	356.35
634.615	332.94
635.031	351.67
635.446	281.45
635.862	302.51
636.277	342.3
636.693	251.02
637.108	269.75
637.524	323.58
637.939	255.7
638.354	251.02
638.77	309.54
639.185	332.94
639.6	335.28
640.015	325.92
640.43	332.94
640.845	281.45
641.259	307.2
641.674	290.81
642.089	318.9
642.504	279.11
642.918	351.67
643.333	253.36
643.747	295.49
644.162	262.73
644.576	337.62
644.991	344.64
645.405	356.35
645.819	372.73
646.233	276.77
646.647	346.98
647.061	258.04
647.475	290.81
647.889	286.13
648.303	251.02
648.717	300.17
649.131	307.2
649.545	262.73
649.958	297.83
650.372	318.9
650.785	342.3
651.199	300.17
651.612	262.73
652.026	332.94
652.439	309.54
652.852	311.88
653.266	342.3
653.679	300.17
654.092	302.51
654.505	384.43
654.918	279.11
655.331	358.69
655.744	272.09
656.156	321.24
656.569	323.58
656.982	314.22
657.394	302.51
657.807	318.9
658.22	330.6
658.632	269.75
659.044	297.83
659.457	288.47
659.869	323.58
660.281	288.47
660.693	300.17
661.106	365.71
661.518	262.73
661.93	330.6
662.342	309.54
662.754	290.81
663.165	300.17
663.577	286.13
663.989	307.2
664.401	272.09
664.812	318.9
665.224	314.22
665.635	307.2
666.047	332.94
666.458	281.45
666.869	248.68
667.281	288.47
667.692	323.58
668.103	288.47
668.514	248.68
668.925	293.15
669.336	309.54
669.747	297.83
670.158	323.58
670.569	344.64
670.979	330.6
671.39	309.54
671.801	290.81
672.211	321.24
672.622	286.13
673.032	372.73
673.443	300.17
673.853	267.41
674.263	311.88
674.674	260.38
675.084	295.49
675.494	304.85
675.904	283.79
676.314	386.77
676.724	267.41
677.134	283.79
677.544	293.15
677.953	297.83
678.363	269.75
678.773	339.96
679.182	241.66
679.592	251.02
680.001	342.3
680.411	370.39
680.82	316.56
681.23	244
681.639	304.85
682.048	316.56
682.457	293.15
682.866	290.81
683.275	332.94
683.684	335.28
684.093	365.71
684.502	297.83
684.911	276.77
685.32	344.64
685.728	309.54
686.137	318.9
686.546	309.54
686.954	311.88
687.363	332.94
687.771	318.9
688.179	393.8
688.588	281.45
688.996	307.2
689.404	358.69
689.812	328.26
690.22	332.94
690.628	365.71
691.036	318.9
691.444	293.15
691.852	248.68
692.26	283.79
692.667	314.22
693.075	365.71
693.483	330.6
693.89	283.79
694.298	288.47
694.705	288.47
695.112	351.67
695.52	344.64
695.927	311.88
696.334	379.75
696.741	309.54
697.148	368.05
697.555	314.22
697.962	325.92
698.369	283.79
698.776	337.62
699.183	330.6
699.59	311.88
699.996	384.43
700.403	232.3
700.81	258.04
701.216	274.43
701.623	316.56
702.029	267.41
702.435	281.45
702.842	307.2
703.248	288.47
703.654	267.41
704.06	260.38
704.466	318.9
704.872	314.22
705.278	375.07
705.684	325.92
706.09	262.73
706.496	337.62
706.901	354.01
707.307	290.81
707.712	248.68
708.118	361.03
708.523	281.45
708.929	300.17
709.334	323.58
709.74	316.56
710.145	302.51
710.55	356.35
710.955	272.09
711.36	321.24
711.765	272.09
712.17	321.24
712.575	248.68
712.98	880.63
713.385	344.64
713.789	309.54
714.194	325.92
714.599	335.28
715.003	370.39
715.408	328.26
715.812	328.26
716.217	309.54
716.621	276.77
717.025	349.32
717.429	290.81
717.833	286.13
718.238	290.81
718.642	344.64
719.046	377.41
719.449	361.03
719.853	241.66
720.257	272.09
720.661	318.9
721.065	349.32
721.468	307.2
721.872	309.54
722.275	304.85
722.679	361.03
723.082	391.45
723.485	318.9
723.889	323.58
724.292	279.11
724.695	344.64
725.098	332.94
725.501	295.49
725.904	358.69
726.307	309.54
726.71	346.98
727.113	293.15
727.516	344.64
727.918	316.56
728.321	295.49
728.724	300.17
729.126	358.69
729.529	314.22
729.931	323.58
730.333	297.83
730.736	262.73
731.138	307.2
731.54	386.77
731.942	335.28
732.344	342.3
732.746	375.07
733.148	328.26
733.55	316.56
733.952	300.17
734.354	246.34
734.756	323.58
735.157	370.39
735.559	314.22
735.96	328.26
736.362	316.56
736.763	363.37
737.165	297.83
737.566	316.56
737.967	295.49
738.368	309.54
738.77	258.04
739.171	314.22
739.572	276.77
739.973	321.24
740.374	295.49
740.774	344.64
741.175	274.43
741.576	311.88
741.977	382.09
742.377	293.15
742.778	300.17
743.178	302.51
743.579	358.69
743.979	286.13
744.379	335.28
744.78	332.94
745.18	339.96
745.58	339.96
745.98	316.56
746.38	346.98
746.78	358.69
747.18	325.92
747.58	349.32
747.98	300.17
748.38	304.85
748.779	372.73
749.179	318.9
749.578	302.51
749.978	244
750.377	316.56
750.777	309.54
751.176	346.98
751.575	330.6
751.975	351.67
752.374	300.17
752.773	342.3
753.172	342.3
753.571	354.01
753.97	297.83
754.369	323.58
754.768	368.05
755.166	321.24
755.565	272.09
755.964	346.98
756.362	255.7
756.761	246.34
757.159	311.88
757.558	276.77
757.956	356.35
758.354	316.56
758.753	316.56
759.151	316.56
759.549	283.79
759.947	318.9
760.345	267.41
760.743	323.58
761.141	318.9
761.539	288.47
761.936	290.81
762.334	279.11
762.732	274.43
763.129	412.52
763.527	276.77
763.924	332.94
764.322	332.94
764.719	274.43
765.117	375.07
765.514	274.43
765.911	321.24
