Data from Al_FLMS009871__406__14-19-05-058.txt Node

Date: Fri Mar 08 14:19:05 CST 2024
User: pe5414po
Spectrometer: FLMS00987
Trigger mode: 0
Integration Time (sec): 1.000000E-1
Scans to average: 1
Electric dark correction enabled: true
Nonlinearity correction enabled: false
Boxcar width: 0
XAxis mode: Wavelengths
Number of Pixels in Spectrum: 2048
>>>>>Begin Spectral Data<<<<<
188.938	-54.56
189.409	-54.56
189.879	-54.56
190.349	-117.76
190.819	-117.76
191.29	-82.65
191.76	-75.63
192.23	-113.08
192.7	-59.24
193.17	-92.01
193.64	-40.52
194.109	-33.5
194.579	-0.73
195.049	-5.41
195.519	29.7
195.988	41.4
196.458	34.38
196.927	50.76
197.397	85.87
197.866	109.27
198.336	151.4
198.805	144.38
199.274	184.17
199.744	212.26
200.213	167.79
200.682	277.79
201.151	245.02
201.62	219.28
202.089	238
202.558	303.54
203.027	256.73
203.495	282.47
203.964	343.33
204.433	291.84
204.902	338.65
205.37	329.28
205.839	333.97
206.307	322.26
206.776	357.37
207.244	362.05
207.712	427.59
208.181	317.58
208.649	315.24
209.117	408.86
209.585	420.57
210.053	397.16
210.521	481.42
210.989	514.19
211.457	415.88
211.925	443.97
212.393	563.34
212.861	568.02
213.328	598.45
213.796	558.66
214.264	553.98
214.731	605.47
215.199	673.34
215.666	743.56
216.133	893.35
216.601	783.35
217.068	972.93
217.535	954.21
218.003	1040.81
218.47	1050.17
218.937	1066.55
219.404	1141.45
219.871	1150.81
220.338	1237.41
220.805	1331.03
221.271	1347.42
221.738	1300.61
222.205	1338.06
222.671	1377.84
223.138	1555.72
223.605	1501.89
224.071	1417.63
224.538	1511.25
225.004	1738.29
225.47	1700.84
225.937	1700.84
226.403	1602.54
226.869	1391.89
227.335	1398.91
227.801	1380.18
228.267	1436.36
228.733	1443.38
229.199	1441.04
229.665	1611.9
230.131	1827.23
230.597	1714.88
231.062	1658.71
231.528	1590.83
231.994	1527.64
232.459	1434.02
232.925	1415.29
233.39	1499.55
233.856	1726.58
234.321	1972.34
234.786	2796.21
235.252	3624.76
235.717	4682.68
236.182	4907.37
236.647	4432.24
237.112	3032.6
237.577	2145.54
238.042	1747.65
238.507	1452.74
238.972	1279.54
239.436	1305.29
239.901	1223.37
240.366	1244.43
240.83	1199.96
241.295	1225.71
241.76	1228.05
242.224	1328.69
242.688	1263.16
243.153	1293.58
243.617	1197.62
244.081	1260.82
244.545	1380.18
245.01	1230.39
245.474	1410.61
245.938	1314.65
246.402	1239.75
246.866	1185.92
247.33	1265.5
247.793	1347.42
248.257	1171.88
248.721	1312.31
249.185	1267.84
249.648	1321.67
250.112	1258.48
250.575	1373.16
251.039	1466.78
251.502	1438.7
251.965	1377.84
252.429	1349.76
252.892	1441.04
253.355	1319.33
253.818	1394.23
254.281	1541.68
254.744	1625.94
255.207	1941.91
255.67	2639.39
256.133	3313.47
256.596	3734.76
257.059	3276.02
257.522	2674.5
257.984	2063.62
258.447	1941.91
258.909	1815.52
259.372	1848.29
259.834	1684.45
260.297	1654.03
260.759	1555.72
261.221	1764.03
261.684	1883.4
262.146	2278.95
262.608	2288.31
263.07	2225.12
263.532	1920.85
263.994	1967.66
264.456	2140.86
264.918	2300.02
265.38	2297.67
265.842	2000.43
266.303	1700.84
266.765	1398.91
267.227	1216.35
267.688	1204.64
268.15	1352.1
268.611	1239.75
269.072	1307.63
269.534	1253.8
269.995	1221.03
270.456	1223.37
270.918	1232.73
271.379	1221.03
271.84	1183.58
272.301	1148.47
272.762	1178.9
273.223	1108.68
273.684	1111.02
274.144	1232.73
274.605	1216.35
275.066	1118.04
275.527	1345.08
275.987	1253.8
276.448	1525.3
276.908	1890.42
277.369	2384.27
277.829	3678.59
278.289	5588.47
278.75	7933.68
279.21	8809.05
279.67	7278.33
280.13	5345.05
280.59	4118.61
281.05	3526.46
281.51	3004.52
281.97	2463.85
282.43	1955.96
282.89	1595.51
283.35	1609.56
283.809	1675.09
284.269	2065.96
284.729	1998.09
285.188	1771.05
285.648	1366.14
286.107	1197.62
286.567	1164.86
287.026	1195.28
287.485	1270.18
287.944	1150.81
288.404	1160.17
288.863	1125.07
289.322	1169.54
289.781	1071.23
290.24	1061.87
290.699	1141.45
291.158	1199.96
291.616	1206.99
292.075	1424.65
292.534	1448.06
292.992	1604.88
293.451	1537
293.91	1375.5
294.368	1340.4
294.827	1249.11
295.285	1096.98
295.743	970.59
296.202	1052.51
296.66	1036.13
297.118	1017.4
297.576	970.59
298.034	958.89
298.492	1008.04
298.95	1061.87
299.408	1038.47
299.866	1089.96
300.324	1157.83
300.781	1169.54
301.239	1129.75
301.697	1258.48
302.154	1190.6
302.612	1380.18
303.069	1342.74
303.527	1600.2
303.984	1691.48
304.441	2215.76
304.899	2796.21
305.356	3297.08
305.813	3374.32
306.27	3182.4
306.727	3552.2
307.184	5064.19
307.641	7201.1
308.098	8820.75
308.555	9951.23
309.012	8942.46
309.468	6997.47
309.925	4373.73
310.382	2810.25
310.838	2096.39
311.295	1686.79
311.751	1452.74
312.208	1321.67
312.664	1284.22
313.12	1197.62
313.577	1190.6
314.033	1106.34
314.489	1134.43
314.945	1111.02
315.401	1061.87
315.857	1012.72
316.313	998.68
316.769	1054.85
317.225	1108.68
317.681	1115.7
318.136	1120.39
318.592	1066.55
319.048	1001.02
319.503	989.32
319.959	965.91
320.414	926.12
320.869	949.53
321.325	926.12
321.78	963.57
322.235	919.1
322.691	907.4
323.146	1125.07
323.601	1188.26
324.056	1422.31
324.511	1686.79
324.966	1595.51
325.421	1232.73
325.875	1057.19
326.33	1085.28
326.785	1349.76
327.24	1457.42
327.694	1249.11
328.149	1085.28
328.603	940.16
329.058	919.1
329.512	888.67
329.966	1012.72
330.421	888.67
330.875	919.1
331.329	872.29
331.783	841.86
332.237	886.33
332.691	991.66
333.145	956.55
333.599	937.82
334.053	1010.38
334.507	991.66
334.96	1005.7
335.414	942.5
335.868	1012.72
336.321	1015.06
336.775	958.89
337.228	886.33
337.682	958.89
338.135	891.01
338.588	937.82
339.042	914.42
339.495	954.21
339.948	895.69
340.401	984.63
340.854	965.91
341.307	907.4
341.76	888.67
342.213	930.8
342.666	937.82
343.119	975.27
343.571	912.08
344.024	1001.02
344.477	1003.36
344.929	1008.04
345.382	998.68
345.834	965.91
346.287	991.66
346.739	975.27
347.191	977.61
347.644	991.66
348.096	998.68
348.548	1043.15
349	1050.17
349.452	1022.08
349.904	1005.7
350.356	1118.04
350.808	1040.81
351.26	1026.76
351.711	1012.72
352.163	1129.75
352.615	1096.98
353.066	1134.43
353.518	1150.81
353.969	1228.05
354.421	1291.24
354.872	1302.95
355.324	1391.89
355.775	1534.66
356.226	1682.11
356.677	1773.39
357.128	2206.39
357.579	2452.15
358.03	2803.23
358.481	3144.95
358.932	2978.77
359.383	2578.54
359.834	2218.1
360.285	2065.96
360.735	1843.61
361.186	1658.71
361.637	1597.85
362.087	1464.44
362.538	1389.55
362.988	1319.33
363.438	1251.46
363.889	1197.62
364.339	1171.88
364.789	1143.79
365.239	1071.23
365.689	1085.28
366.139	1024.42
366.589	1078.26
367.039	1026.76
367.489	1008.04
367.939	991.66
368.389	961.23
368.839	1040.81
369.288	907.4
369.738	972.93
370.187	1005.7
370.637	883.99
371.086	994
371.536	1019.74
371.985	977.61
372.434	1017.4
372.884	867.61
373.333	975.27
373.782	1052.51
374.231	1012.72
374.68	968.25
375.129	1005.7
375.578	994
376.027	942.5
376.475	933.14
376.924	961.23
377.373	937.82
377.822	909.74
378.27	898.03
378.719	949.53
379.167	907.4
379.616	970.59
380.064	1026.76
380.512	1024.42
380.961	1003.36
381.409	1052.51
381.857	1057.19
382.305	1136.77
382.753	1270.18
383.201	1494.87
383.649	1537
384.097	1408.27
384.545	1298.27
384.992	1141.45
385.44	1150.81
385.888	1040.81
386.335	1050.17
386.783	1024.42
387.231	968.25
387.678	996.34
388.125	942.5
388.573	979.95
389.02	984.63
389.467	1045.49
389.914	1022.08
390.362	1080.6
390.809	1024.42
391.256	1068.89
391.703	1136.77
392.15	1373.16
392.596	1705.52
393.043	2412.36
393.49	3151.97
393.937	4280.11
394.383	5794.44
394.83	6395.95
395.276	5546.34
395.723	5789.75
396.169	7725.38
396.616	8205.19
397.062	5698.47
397.508	3386.02
397.954	2173.63
398.401	1752.33
398.847	1391.89
399.293	1328.69
399.739	1286.56
400.185	1223.37
400.631	1115.7
401.076	1216.35
401.522	1104
401.968	1068.89
402.414	1047.83
402.859	1059.53
403.305	1178.9
403.75	1169.54
404.196	1064.21
404.641	949.53
405.086	998.68
405.532	940.16
405.977	982.29
406.422	982.29
406.867	1040.81
407.312	883.99
407.757	1017.4
408.202	996.34
408.647	1029.1
409.092	1003.36
409.537	970.59
409.982	926.12
410.426	965.91
410.871	996.34
411.316	933.14
411.76	869.95
412.205	1001.02
412.649	956.55
413.093	891.01
413.538	954.21
413.982	893.35
414.426	949.53
414.87	979.95
415.314	1003.36
415.758	893.35
416.202	895.69
416.646	876.97
417.09	883.99
417.534	886.33
417.978	905.06
418.421	921.44
418.865	902.72
419.309	853.56
419.752	888.67
420.196	823.14
420.639	881.65
421.083	867.61
421.526	862.93
421.969	940.16
422.412	893.35
422.856	1003.36
423.299	1066.55
423.742	1008.04
424.185	895.69
424.628	876.97
425.071	792.71
425.513	869.95
425.956	813.78
426.399	799.73
426.842	879.31
427.284	879.31
427.727	851.22
428.169	823.14
428.612	788.03
429.054	799.73
429.497	846.54
429.939	799.73
430.381	944.85
430.823	858.25
431.265	759.94
431.707	783.35
432.149	750.58
432.591	813.78
433.033	827.82
433.475	825.48
433.917	846.54
434.359	830.16
434.8	785.69
435.242	923.78
435.684	839.52
436.125	853.56
436.567	795.05
437.008	804.41
437.449	809.09
437.891	832.5
438.332	797.39
438.773	846.54
439.214	855.9
439.656	830.16
440.097	827.82
440.538	769.3
440.978	886.33
441.419	783.35
441.86	902.72
442.301	900.37
442.742	834.84
443.182	898.03
443.623	827.82
444.063	909.74
444.504	844.2
444.944	900.37
445.385	869.95
445.825	909.74
446.265	867.61
446.706	989.32
447.146	867.61
447.586	869.95
448.026	994
448.466	916.76
448.906	968.25
449.346	837.18
449.786	888.67
450.225	905.06
450.665	869.95
451.105	881.65
451.544	905.06
451.984	940.16
452.424	912.08
452.863	921.44
453.302	923.78
453.742	935.48
454.181	825.48
454.62	848.88
455.059	891.01
455.499	804.41
455.938	809.09
456.377	811.43
456.816	893.35
457.254	811.43
457.693	781.01
458.132	848.88
458.571	818.46
459.01	839.52
459.448	832.5
459.887	816.12
460.325	893.35
460.764	891.01
461.202	879.31
461.641	921.44
462.079	783.35
462.517	937.82
462.955	881.65
463.393	1015.06
463.832	970.59
464.27	935.48
464.708	891.01
465.145	900.37
465.583	965.91
466.021	1043.15
466.459	1043.15
466.897	1153.15
467.334	1134.43
467.772	1134.43
468.209	984.63
468.647	1022.08
469.084	923.78
469.522	923.78
469.959	909.74
470.396	844.2
470.833	891.01
471.271	916.76
471.708	846.54
472.145	937.82
472.582	867.61
473.019	872.29
473.456	893.35
473.892	872.29
474.329	848.88
474.766	874.63
475.202	834.84
475.639	820.8
476.076	792.71
476.512	916.76
476.949	979.95
477.385	998.68
477.821	907.4
478.258	926.12
478.694	958.89
479.13	893.35
479.566	898.03
480.002	968.25
480.438	902.72
480.874	909.74
481.31	923.78
481.746	954.21
482.181	933.14
482.617	998.68
483.053	895.69
483.488	883.99
483.924	874.63
484.36	935.48
484.795	926.12
485.23	1038.47
485.666	900.37
486.101	965.91
486.536	954.21
486.971	991.66
487.407	972.93
487.842	923.78
488.277	928.46
488.712	940.16
489.146	963.57
489.581	935.48
490.016	907.4
490.451	862.93
490.885	984.63
491.32	930.8
491.755	902.72
492.189	972.93
492.624	923.78
493.058	994
493.492	891.01
493.927	942.5
494.361	902.72
494.795	930.8
495.229	975.27
495.663	975.27
496.097	1001.02
496.531	984.63
496.965	919.1
497.399	923.78
497.833	956.55
498.266	977.61
498.7	989.32
499.134	1050.17
499.567	1089.96
500.001	1096.98
500.434	1115.7
500.868	1230.39
501.301	1111.02
501.734	1125.07
502.168	1115.7
502.601	1026.76
503.034	984.63
503.467	1010.38
503.9	1008.04
504.333	989.32
504.766	940.16
505.199	998.68
505.632	1033.79
506.064	888.67
506.497	916.76
506.93	1017.4
507.362	944.85
507.795	858.25
508.227	944.85
508.66	926.12
509.092	869.95
509.524	893.35
509.956	963.57
510.389	804.41
510.821	855.9
511.253	916.76
511.685	914.42
512.117	795.05
512.549	954.21
512.981	881.65
513.412	851.22
513.844	949.53
514.276	986.97
514.707	944.85
515.139	909.74
515.571	1005.7
516.002	1036.13
516.433	1003.36
516.865	1047.83
517.296	1064.21
517.727	1120.39
518.159	1150.81
518.59	1073.57
519.021	1305.29
519.452	1216.35
519.883	1075.92
520.314	1057.19
520.744	926.12
521.175	998.68
521.606	1033.79
522.037	1010.38
522.467	1118.04
522.898	1029.1
523.328	1033.79
523.759	989.32
524.189	1038.47
524.62	1054.85
525.05	1075.92
525.48	1026.76
525.91	1047.83
526.341	1136.77
526.771	1113.36
527.201	1155.49
527.631	1319.33
528.061	1328.69
528.49	1452.74
528.92	1628.28
529.35	2112.77
529.78	4123.29
530.209	17983.95
530.639	42426.16
531.068	61466.42
531.498	63048.62
531.927	63048.62
532.357	63048.62
532.786	63048.62
533.215	63048.62
533.644	63048.62
534.074	25934.74
534.503	10051.87
534.932	4734.17
535.361	2730.67
535.79	1960.64
536.218	1588.49
536.647	1380.18
537.076	1249.11
537.505	1038.47
537.933	1026.76
538.362	972.93
538.79	914.42
539.219	905.06
539.647	869.95
540.076	926.12
540.504	898.03
540.932	926.12
541.36	874.63
541.788	785.69
542.217	837.18
542.645	804.41
543.073	827.82
543.5	783.35
543.928	883.99
544.356	764.62
544.784	771.65
545.211	778.67
545.639	804.41
546.067	806.75
546.494	776.33
546.922	773.99
547.349	788.03
547.776	855.9
548.204	820.8
548.631	785.69
549.058	701.43
549.485	811.43
549.912	773.99
550.339	738.88
550.766	818.46
551.193	748.24
551.62	706.11
552.047	762.28
552.474	799.73
552.9	853.56
553.327	743.56
553.754	797.39
554.18	797.39
554.607	764.62
555.033	764.62
555.459	745.9
555.886	750.58
556.312	783.35
556.738	785.69
557.164	734.2
557.59	729.52
558.016	750.58
558.442	734.2
558.868	804.41
559.294	783.35
559.72	795.05
560.145	806.75
560.571	820.8
560.997	743.56
561.422	785.69
561.848	799.73
562.273	820.8
562.699	720.15
563.124	764.62
563.549	776.33
563.974	741.22
564.4	799.73
564.825	752.92
565.25	781.01
565.675	785.69
566.1	764.62
566.525	802.07
566.95	792.71
567.374	797.39
567.799	832.5
568.224	869.95
568.648	883.99
569.073	883.99
569.497	919.1
569.922	888.67
570.346	818.46
570.771	834.84
571.195	769.3
571.619	806.75
572.043	738.88
572.467	797.39
572.891	783.35
573.315	797.39
573.739	750.58
574.163	715.47
574.587	736.54
575.011	752.92
575.435	675.68
575.858	731.86
576.282	642.92
576.705	724.83
577.129	745.9
577.552	671
577.976	661.64
578.399	659.3
578.822	619.51
579.245	649.94
579.669	626.53
580.092	635.89
580.515	638.23
580.938	633.55
581.361	656.96
581.784	720.15
582.206	724.83
582.629	610.15
583.052	635.89
583.474	572.7
583.897	631.21
584.32	596.11
584.742	624.19
585.165	612.49
585.587	591.42
586.009	614.83
586.431	612.49
586.854	598.45
587.276	582.06
587.698	516.53
588.12	584.4
588.542	582.06
588.964	621.85
589.386	619.51
589.807	652.28
590.229	642.92
590.651	610.15
591.073	675.68
591.494	638.23
591.916	598.45
592.337	645.26
592.759	642.92
593.18	642.92
593.601	596.11
594.022	584.4
594.444	645.26
594.865	584.4
595.286	579.72
595.707	589.08
596.128	591.42
596.549	640.58
596.97	586.74
597.39	621.85
597.811	617.17
598.232	624.19
598.652	671
599.073	640.58
599.494	610.15
599.914	579.72
600.334	528.23
600.755	509.51
601.175	619.51
601.595	582.06
602.015	649.94
602.436	596.11
602.856	736.54
603.276	572.7
603.696	586.74
604.115	516.53
604.535	640.58
604.955	635.89
605.375	586.74
605.794	668.66
606.214	605.47
606.634	614.83
607.053	659.3
607.473	626.53
607.892	525.89
608.311	631.21
608.731	603.13
609.15	539.93
609.569	607.81
609.988	605.47
610.407	628.87
610.826	633.55
611.245	570.36
611.664	584.4
612.083	575.04
612.501	586.74
612.92	626.53
613.339	612.49
613.757	605.47
614.176	605.47
614.594	556.32
615.013	617.17
615.431	652.28
615.85	654.62
616.268	607.81
616.686	633.55
617.104	575.04
617.522	561
617.94	668.66
618.358	603.13
618.776	593.76
619.194	619.51
619.612	631.21
620.03	586.74
620.447	652.28
620.865	633.55
621.282	619.51
621.7	586.74
622.117	546.95
622.535	635.89
622.952	663.98
623.369	661.64
623.787	682.71
624.204	671
624.621	701.43
625.038	678.02
625.455	692.07
625.872	738.88
626.289	706.11
626.706	701.43
627.123	703.77
627.539	757.6
627.956	706.11
628.373	671
628.789	598.45
629.206	656.96
629.622	678.02
630.038	619.51
630.455	603.13
630.871	523.55
631.287	572.7
631.703	628.87
632.12	521.21
632.536	563.34
632.952	607.81
633.368	521.21
633.783	568.02
634.199	537.59
634.615	493.12
635.031	561
635.446	532.91
635.862	607.81
636.277	591.42
636.693	518.87
637.108	518.87
637.524	537.59
637.939	607.81
638.354	577.38
638.77	544.61
639.185	544.61
639.6	605.47
640.015	556.32
640.43	514.19
640.845	465.04
641.259	493.12
641.674	523.55
642.089	535.25
642.504	495.46
642.918	500.14
643.333	565.68
643.747	561
644.162	511.85
644.576	518.87
644.991	521.21
645.405	450.99
645.819	481.42
646.233	462.69
646.647	549.29
647.061	490.78
647.475	507.16
647.889	493.12
648.303	525.89
648.717	589.08
649.131	577.38
649.545	497.8
649.958	542.27
650.372	507.16
650.785	504.82
651.199	546.95
651.612	539.93
652.026	528.23
652.439	511.85
652.852	523.55
653.266	600.79
653.679	523.55
654.092	596.11
654.505	556.32
654.918	570.36
655.331	582.06
655.744	537.59
656.156	626.53
656.569	642.92
656.982	692.07
657.394	652.28
657.807	610.15
658.22	682.71
658.632	589.08
659.044	579.72
659.457	575.04
659.869	488.44
660.281	565.68
660.693	509.51
661.106	546.95
661.518	553.98
661.93	502.48
662.342	493.12
662.754	493.12
663.165	474.4
663.577	427.59
663.989	523.55
664.401	518.87
664.812	495.46
665.224	476.74
665.635	472.06
666.047	537.59
666.458	502.48
666.869	434.61
667.281	458.01
667.692	483.76
668.103	422.91
668.514	528.23
668.925	441.63
669.336	415.88
669.747	486.1
670.158	493.12
670.569	530.57
670.979	488.44
671.39	460.35
671.801	472.06
672.211	486.1
672.622	495.46
673.032	493.12
673.443	488.44
673.853	465.04
674.263	504.82
674.674	439.29
675.084	453.33
675.494	502.48
675.904	476.74
676.314	387.8
676.724	420.57
677.134	380.78
677.544	406.52
677.953	434.61
678.363	474.4
678.773	481.42
679.182	443.97
679.592	376.09
680.001	432.27
680.411	425.25
680.82	385.46
681.23	413.54
681.639	394.82
682.048	385.46
682.457	469.72
682.866	465.04
683.275	418.22
683.684	441.63
684.093	413.54
684.502	436.95
684.911	439.29
685.32	467.38
685.728	465.04
686.137	483.76
686.546	504.82
686.954	453.33
687.363	467.38
687.771	458.01
688.179	411.2
688.588	462.69
688.996	408.86
689.404	392.48
689.812	401.84
690.22	439.29
690.628	493.12
691.036	383.12
691.444	392.48
691.852	378.44
692.26	472.06
692.667	420.57
693.075	359.71
693.483	411.2
693.89	422.91
694.298	404.18
694.705	495.46
695.112	455.67
695.52	439.29
695.927	432.27
696.334	371.41
696.741	458.01
697.148	434.61
697.555	434.61
697.962	418.22
698.369	392.48
698.776	406.52
699.183	436.95
699.59	418.22
699.996	439.29
700.403	439.29
700.81	479.08
701.216	415.88
701.623	420.57
702.029	411.2
702.435	453.33
702.842	497.8
703.248	474.4
703.654	458.01
704.06	490.78
704.466	553.98
704.872	553.98
705.278	570.36
705.684	523.55
706.09	549.29
706.496	497.8
706.901	549.29
707.307	397.16
707.712	458.01
708.118	448.65
708.523	446.31
708.929	462.69
709.334	436.95
709.74	387.8
710.145	378.44
710.55	448.65
710.955	432.27
711.36	467.38
711.765	366.73
712.17	408.86
712.575	453.33
712.98	970.59
713.385	443.97
713.789	366.73
714.194	303.54
714.599	432.27
715.003	434.61
715.408	376.09
715.812	418.22
716.217	441.63
716.621	357.37
717.025	352.69
717.429	366.73
717.833	397.16
718.238	362.05
718.642	357.37
719.046	401.84
719.449	343.33
719.853	408.86
720.257	425.25
720.661	357.37
721.065	397.16
721.468	415.88
721.872	397.16
722.275	338.65
722.679	399.5
723.082	366.73
723.485	296.52
723.889	371.41
724.292	305.88
724.695	378.44
725.098	427.59
725.501	411.2
725.904	364.39
726.307	355.03
726.71	371.41
727.113	420.57
727.516	326.94
727.918	322.26
728.321	429.93
728.724	415.88
729.126	340.99
729.529	350.35
729.931	385.46
730.333	326.94
730.736	352.69
731.138	324.6
731.54	385.46
731.942	343.33
732.344	303.54
732.746	345.67
733.148	350.35
733.55	376.09
733.952	355.03
734.354	418.22
734.756	294.18
735.157	352.69
735.559	343.33
735.96	383.12
736.362	401.84
736.763	376.09
737.165	401.84
737.566	369.07
737.967	298.86
738.368	415.88
738.77	408.86
739.171	397.16
739.572	385.46
739.973	397.16
740.374	385.46
740.774	401.84
741.175	413.54
741.576	357.37
741.977	338.65
742.377	315.24
742.778	392.48
743.178	422.91
743.579	352.69
743.979	362.05
744.379	392.48
744.78	378.44
745.18	380.78
745.58	359.71
745.98	308.22
746.38	322.26
746.78	357.37
747.18	387.8
747.58	404.18
747.98	340.99
748.38	352.69
748.779	422.91
749.179	390.14
749.578	319.92
749.978	371.41
750.377	392.48
750.777	366.73
751.176	350.35
751.575	394.82
751.975	355.03
752.374	326.94
752.773	362.05
753.172	329.28
753.571	348.01
753.97	383.12
