Data from Al_FLMS009871__547__14-43-33-520.txt Node

Date: Fri Mar 08 14:43:33 CST 2024
User: pe5414po
Spectrometer: FLMS00987
Trigger mode: 0
Integration Time (sec): 1.000000E-1
Scans to average: 1
Electric dark correction enabled: true
Nonlinearity correction enabled: false
Boxcar width: 0
XAxis mode: Wavelengths
Number of Pixels in Spectrum: 2048
>>>>>Begin Spectral Data<<<<<
188.938	-111.47
189.409	-111.47
189.879	-111.47
190.349	-125.51
190.819	-127.85
191.29	-67
191.76	-102.11
192.23	-137.21
192.7	-69.34
193.17	-99.77
193.64	-78.7
194.109	-34.23
194.579	-1.46
195.049	94.5
195.519	-43.59
195.988	47.69
196.458	21.94
196.927	108.54
197.397	110.88
197.866	78.12
198.336	171.74
198.805	101.52
199.274	117.9
199.744	206.84
200.213	209.19
200.682	204.5
201.151	239.61
201.62	220.89
202.089	279.4
202.558	227.91
203.027	244.29
203.495	263.02
203.964	155.35
204.433	267.7
204.902	279.4
205.37	241.95
205.839	321.53
206.307	333.23
206.776	281.74
207.244	361.32
207.712	314.51
208.181	256
208.649	277.06
209.117	302.81
209.585	305.15
210.053	300.47
210.521	270.04
210.989	263.02
211.457	279.4
211.925	230.25
212.393	330.89
212.861	286.42
213.328	288.76
213.796	323.87
214.264	258.34
214.731	260.68
215.199	295.79
215.666	263.02
216.133	342.6
216.601	253.66
217.068	239.61
217.535	277.06
218.003	265.36
218.47	253.66
218.937	246.63
219.404	277.06
219.871	277.06
220.338	241.95
220.805	279.4
221.271	241.95
221.738	248.97
222.205	234.93
222.671	244.29
223.138	263.02
223.605	253.66
224.071	277.06
224.538	302.81
225.004	274.72
225.47	284.08
225.937	232.59
226.403	263.02
226.869	241.95
227.335	270.04
227.801	358.98
228.267	272.38
228.733	288.76
229.199	230.25
229.665	277.06
230.131	241.95
230.597	279.4
231.062	263.02
231.528	206.84
231.994	281.74
232.459	305.15
232.925	211.53
233.39	298.13
233.856	302.81
234.321	260.68
234.786	234.93
235.252	234.93
235.717	239.61
236.182	204.5
236.647	244.29
237.112	279.4
237.577	256
238.042	225.57
238.507	220.89
238.972	246.63
239.436	323.87
239.901	316.85
240.366	256
240.83	188.12
241.295	213.87
241.76	220.89
242.224	286.42
242.688	213.87
243.153	307.49
243.617	248.97
244.081	230.25
244.545	337.91
245.01	277.06
245.474	300.47
245.938	281.74
246.402	239.61
246.866	265.36
247.33	206.84
247.793	241.95
248.257	340.26
248.721	281.74
249.185	227.91
249.648	288.76
250.112	263.02
250.575	284.08
251.039	279.4
251.502	256
251.965	258.34
252.429	251.32
252.892	293.44
253.355	328.55
253.818	246.63
254.281	319.19
254.744	277.06
255.207	265.36
255.67	391.75
256.133	321.53
256.596	190.46
257.059	281.74
257.522	293.44
257.984	225.57
258.447	274.72
258.909	227.91
259.372	279.4
259.834	241.95
260.297	265.36
260.759	265.36
261.221	265.36
261.684	291.1
262.146	258.34
262.608	302.81
263.07	274.72
263.532	241.95
263.994	185.78
264.456	216.21
264.918	213.87
265.38	321.53
265.842	248.97
266.303	361.32
266.765	321.53
267.227	286.42
267.688	265.36
268.15	244.29
268.611	337.91
269.072	265.36
269.534	314.51
269.995	279.4
270.456	302.81
270.918	232.59
271.379	241.95
271.84	272.38
272.301	239.61
272.762	284.08
273.223	253.66
273.684	263.02
274.144	251.32
274.605	281.74
275.066	265.36
275.527	298.13
275.987	335.57
276.448	272.38
276.908	274.72
277.369	274.72
277.829	248.97
278.289	272.38
278.75	344.94
279.21	274.72
279.67	279.4
280.13	295.79
280.59	274.72
281.05	300.47
281.51	274.72
281.97	225.57
282.43	291.1
282.89	288.76
283.35	256
283.809	288.76
284.269	326.21
284.729	293.44
285.188	291.1
285.648	312.17
286.107	267.7
286.567	263.02
287.026	241.95
287.485	335.57
287.944	344.94
288.404	234.93
288.863	279.4
289.322	333.23
289.781	351.96
290.24	253.66
290.699	293.44
291.158	258.34
291.616	286.42
292.075	366
292.534	302.81
292.992	307.49
293.451	244.29
293.91	267.7
294.368	302.81
294.827	256
295.285	239.61
295.743	270.04
296.202	230.25
296.66	330.89
297.118	344.94
297.576	309.83
298.034	267.7
298.492	305.15
298.95	274.72
299.408	281.74
299.866	260.68
300.324	295.79
300.781	323.87
301.239	321.53
301.697	232.59
302.154	272.38
302.612	277.06
303.069	234.93
303.527	237.27
303.984	286.42
304.441	288.76
304.899	356.64
305.356	284.08
305.813	251.32
306.27	351.96
306.727	258.34
307.184	293.44
307.641	354.3
308.098	305.15
308.555	263.02
309.012	281.74
309.468	298.13
309.925	300.47
310.382	277.06
310.838	270.04
311.295	241.95
311.751	234.93
312.208	260.68
312.664	258.34
313.12	305.15
313.577	281.74
314.033	312.17
314.489	351.96
314.945	225.57
315.401	361.32
315.857	368.34
316.313	326.21
316.769	295.79
317.225	270.04
317.681	375.36
318.136	237.27
318.592	281.74
319.048	295.79
319.503	300.47
319.959	302.81
320.414	298.13
320.869	256
321.325	323.87
321.78	288.76
322.235	274.72
322.691	291.1
323.146	335.57
323.601	314.51
324.056	305.15
324.511	312.17
324.966	284.08
325.421	258.34
325.875	314.51
326.33	295.79
326.785	358.98
327.24	316.85
327.694	211.53
328.149	258.34
328.603	286.42
329.058	260.68
329.512	309.83
329.966	394.09
330.421	291.1
330.875	291.1
331.329	248.97
331.783	312.17
332.237	330.89
332.691	307.49
333.145	256
333.599	277.06
334.053	260.68
334.507	316.85
334.96	333.23
335.414	312.17
335.868	220.89
336.321	239.61
336.775	267.7
337.228	319.19
337.682	284.08
338.135	314.51
338.588	300.47
339.042	309.83
339.495	354.3
339.948	326.21
340.401	314.51
340.854	246.63
341.307	363.66
341.76	309.83
342.213	272.38
342.666	225.57
343.119	284.08
343.571	351.96
344.024	321.53
344.477	260.68
344.929	293.44
345.382	298.13
345.834	253.66
346.287	302.81
346.739	277.06
347.191	344.94
347.644	323.87
348.096	293.44
348.548	330.89
349	263.02
349.452	291.1
349.904	277.06
350.356	279.4
350.808	241.95
351.26	284.08
351.711	316.85
352.163	234.93
352.615	267.7
353.066	319.19
353.518	316.85
353.969	319.19
354.421	382.39
354.872	323.87
355.324	251.32
355.775	361.32
356.226	274.72
356.677	319.19
357.128	277.06
357.579	323.87
358.03	295.79
358.481	307.49
358.932	335.57
359.383	319.19
359.834	314.51
360.285	314.51
360.735	277.06
361.186	361.32
361.637	302.81
362.087	277.06
362.538	286.42
362.988	277.06
363.438	277.06
363.889	298.13
364.339	286.42
364.789	309.83
365.239	333.23
365.689	281.74
366.139	333.23
366.589	295.79
367.039	293.44
367.489	305.15
367.939	326.21
368.389	309.83
368.839	309.83
369.288	326.21
369.738	347.28
370.187	347.28
370.637	326.21
371.086	330.89
371.536	305.15
371.985	237.27
372.434	293.44
372.884	323.87
373.333	284.08
373.782	253.66
374.231	312.17
374.68	326.21
375.129	328.55
375.578	335.57
376.027	298.13
376.475	274.72
376.924	263.02
377.373	237.27
377.822	328.55
378.27	300.47
378.719	363.66
379.167	302.81
379.616	312.17
380.064	377.7
380.512	293.44
380.961	328.55
381.409	270.04
381.857	260.68
382.305	330.89
382.753	265.36
383.201	321.53
383.649	234.93
384.097	267.7
384.545	298.13
384.992	274.72
385.44	335.57
385.888	302.81
386.335	309.83
386.783	305.15
387.231	270.04
387.678	291.1
388.125	340.26
388.573	241.95
389.02	337.91
389.467	225.57
389.914	298.13
390.362	340.26
390.809	337.91
391.256	298.13
391.703	288.76
392.15	337.91
392.596	344.94
393.043	279.4
393.49	253.66
393.937	333.23
394.383	288.76
394.83	300.47
395.276	356.64
395.723	382.39
396.169	272.38
396.616	272.38
397.062	326.21
397.508	358.98
397.954	314.51
398.401	349.62
398.847	312.17
399.293	263.02
399.739	274.72
400.185	337.91
400.631	330.89
401.076	340.26
401.522	288.76
401.968	349.62
402.414	340.26
402.859	302.81
403.305	302.81
403.75	319.19
404.196	358.98
404.641	274.72
405.086	307.49
405.532	256
405.977	274.72
406.422	284.08
406.867	284.08
407.312	347.28
407.757	288.76
408.202	298.13
408.647	358.98
409.092	373.02
409.537	274.72
409.982	291.1
410.426	291.1
410.871	284.08
411.316	305.15
411.76	284.08
412.205	358.98
412.649	298.13
413.093	312.17
413.538	263.02
413.982	265.36
414.426	358.98
414.87	258.34
415.314	302.81
415.758	293.44
416.202	279.4
416.646	340.26
417.09	253.66
417.534	307.49
417.978	270.04
418.421	319.19
418.865	256
419.309	270.04
419.752	291.1
420.196	286.42
420.639	368.34
421.083	354.3
421.526	300.47
421.969	349.62
422.412	281.74
422.856	265.36
423.299	272.38
423.742	270.04
424.185	237.27
424.628	251.32
425.071	321.53
425.513	256
425.956	300.47
426.399	387.07
426.842	347.28
427.284	284.08
427.727	251.32
428.169	330.89
428.612	270.04
429.054	284.08
429.497	321.53
429.939	305.15
430.381	326.21
430.823	351.96
431.265	260.68
431.707	302.81
432.149	342.6
432.591	309.83
433.033	244.29
433.475	277.06
433.917	312.17
434.359	295.79
434.8	307.49
435.242	312.17
435.684	277.06
436.125	340.26
436.567	337.91
437.008	263.02
437.449	279.4
437.891	244.29
438.332	298.13
438.773	344.94
439.214	302.81
439.656	319.19
440.097	307.49
440.538	286.42
440.978	281.74
441.419	270.04
441.86	274.72
442.301	323.87
442.742	291.1
443.182	274.72
443.623	281.74
444.063	288.76
444.504	300.47
444.944	265.36
445.385	246.63
445.825	307.49
446.265	319.19
446.706	279.4
447.146	251.32
447.586	302.81
448.026	295.79
448.466	340.26
448.906	337.91
449.346	314.51
449.786	293.44
450.225	351.96
450.665	265.36
451.105	349.62
451.544	286.42
451.984	344.94
452.424	267.7
452.863	358.98
453.302	344.94
453.742	351.96
454.181	319.19
454.62	300.47
455.059	288.76
455.499	342.6
455.938	272.38
456.377	251.32
456.816	284.08
457.254	272.38
457.693	328.55
458.132	298.13
458.571	253.66
459.01	256
459.448	340.26
459.887	354.3
460.325	239.61
460.764	246.63
461.202	246.63
461.641	326.21
462.079	342.6
462.517	323.87
462.955	293.44
463.393	340.26
463.832	309.83
464.27	286.42
464.708	263.02
465.145	316.85
465.583	293.44
466.021	349.62
466.459	333.23
466.897	340.26
467.334	305.15
467.772	307.49
468.209	330.89
468.647	337.91
469.084	279.4
469.522	305.15
469.959	323.87
470.396	349.62
470.833	316.85
471.271	272.38
471.708	258.34
472.145	286.42
472.582	270.04
473.019	305.15
473.456	344.94
473.892	323.87
474.329	328.55
474.766	305.15
475.202	370.68
475.639	291.1
476.076	291.1
476.512	265.36
476.949	267.7
477.385	300.47
477.821	340.26
478.258	288.76
478.694	302.81
479.13	342.6
479.566	279.4
480.002	241.95
480.438	384.73
480.874	251.32
481.31	398.77
481.746	319.19
482.181	351.96
482.617	274.72
483.053	272.38
483.488	300.47
483.924	223.23
484.36	347.28
484.795	293.44
485.23	256
485.666	344.94
486.101	286.42
486.536	270.04
486.971	284.08
487.407	246.63
487.842	309.83
488.277	328.55
488.712	323.87
489.146	274.72
489.581	288.76
490.016	298.13
490.451	349.62
490.885	347.28
491.32	274.72
491.755	281.74
492.189	305.15
492.624	265.36
493.058	279.4
493.492	279.4
493.927	340.26
494.361	347.28
494.795	307.49
495.229	314.51
495.663	342.6
496.097	288.76
496.531	279.4
496.965	248.97
497.399	277.06
497.833	319.19
498.266	305.15
498.7	309.83
499.134	342.6
499.567	263.02
500.001	274.72
500.434	267.7
500.868	326.21
501.301	272.38
501.734	260.68
502.168	227.91
502.601	314.51
503.034	356.64
503.467	312.17
503.9	314.51
504.333	284.08
504.766	342.6
505.199	241.95
505.632	293.44
506.064	328.55
506.497	274.72
506.93	319.19
507.362	202.16
507.795	274.72
508.227	260.68
508.66	335.57
509.092	316.85
509.524	319.19
509.956	330.89
510.389	248.97
510.821	337.91
511.253	272.38
511.685	270.04
512.117	316.85
512.549	305.15
512.981	256
513.412	256
513.844	272.38
514.276	267.7
514.707	319.19
515.139	302.81
515.571	326.21
516.002	241.95
516.433	263.02
516.865	298.13
517.296	302.81
517.727	286.42
518.159	309.83
518.59	354.3
519.021	351.96
519.452	279.4
519.883	337.91
520.314	265.36
520.744	309.83
521.175	309.83
521.606	323.87
522.037	307.49
522.467	288.76
522.898	288.76
523.328	316.85
523.759	305.15
524.189	309.83
524.62	300.47
525.05	337.91
525.48	314.51
525.91	356.64
526.341	312.17
526.771	316.85
527.201	307.49
527.631	277.06
528.061	279.4
528.49	274.72
528.92	267.7
529.35	267.7
529.78	248.97
530.209	305.15
530.639	349.62
531.068	333.23
531.498	305.15
531.927	267.7
532.357	272.38
532.786	349.62
533.215	272.38
533.644	314.51
534.074	295.79
534.503	344.94
534.932	335.57
535.361	274.72
535.79	319.19
536.218	366
536.647	323.87
537.076	361.32
537.505	284.08
537.933	260.68
538.362	284.08
538.79	319.19
539.219	333.23
539.647	358.98
540.076	361.32
540.504	293.44
540.932	302.81
541.36	314.51
541.788	279.4
542.217	351.96
542.645	307.49
543.073	232.59
543.5	380.04
543.928	333.23
544.356	319.19
544.784	305.15
545.211	305.15
545.639	333.23
546.067	323.87
546.494	298.13
546.922	356.64
547.349	356.64
547.776	267.7
548.204	291.1
548.631	263.02
549.058	246.63
549.485	279.4
549.912	295.79
550.339	312.17
550.766	256
551.193	316.85
551.62	351.96
552.047	263.02
552.474	302.81
552.9	302.81
553.327	328.55
553.754	323.87
554.18	321.53
554.607	302.81
555.033	326.21
555.459	265.36
555.886	328.55
556.312	298.13
556.738	335.57
557.164	263.02
557.59	293.44
558.016	293.44
558.442	286.42
558.868	305.15
559.294	316.85
559.72	302.81
560.145	326.21
560.571	272.38
560.997	267.7
561.422	300.47
561.848	307.49
562.273	323.87
562.699	274.72
563.124	351.96
563.549	377.7
563.974	328.55
564.4	319.19
564.825	312.17
565.25	337.91
565.675	321.53
566.1	335.57
566.525	321.53
566.95	270.04
567.374	270.04
567.799	298.13
568.224	323.87
568.648	288.76
569.073	295.79
569.497	253.66
569.922	305.15
570.346	248.97
570.771	314.51
571.195	277.06
571.619	284.08
572.043	281.74
572.467	328.55
572.891	342.6
573.315	291.1
573.739	298.13
574.163	265.36
574.587	293.44
575.011	272.38
575.435	316.85
575.858	319.19
576.282	326.21
576.705	274.72
577.129	316.85
577.552	328.55
577.976	246.63
578.399	319.19
578.822	354.3
579.245	291.1
579.669	302.81
580.092	307.49
580.515	302.81
580.938	286.42
581.361	344.94
581.784	288.76
582.206	258.34
582.629	256
583.052	314.51
583.474	323.87
583.897	347.28
584.32	277.06
584.742	270.04
585.165	337.91
585.587	351.96
586.009	213.87
586.431	295.79
586.854	333.23
587.276	321.53
587.698	295.79
588.12	286.42
588.542	319.19
588.964	366
589.386	246.63
589.807	319.19
590.229	342.6
590.651	293.44
591.073	288.76
591.494	358.98
591.916	270.04
592.337	272.38
592.759	321.53
593.18	244.29
593.601	358.98
594.022	319.19
594.444	330.89
594.865	312.17
595.286	312.17
595.707	260.68
596.128	321.53
596.549	344.94
596.97	321.53
597.39	368.34
597.811	300.47
598.232	354.3
598.652	267.7
599.073	321.53
599.494	298.13
599.914	330.89
600.334	295.79
600.755	333.23
601.175	270.04
601.595	258.34
602.015	293.44
602.436	305.15
602.856	384.73
603.276	291.1
603.696	253.66
604.115	340.26
604.535	328.55
604.955	307.49
605.375	340.26
605.794	288.76
606.214	316.85
606.634	312.17
607.053	305.15
607.473	279.4
607.892	323.87
608.311	319.19
608.731	321.53
609.15	248.97
609.569	314.51
609.988	281.74
610.407	270.04
610.826	284.08
611.245	305.15
611.664	319.19
612.083	316.85
612.501	328.55
612.92	354.3
613.339	319.19
613.757	237.27
614.176	333.23
614.594	377.7
615.013	295.79
615.431	330.89
615.85	349.62
616.268	272.38
616.686	321.53
617.104	267.7
617.522	279.4
617.94	298.13
618.358	274.72
618.776	298.13
619.194	291.1
619.612	291.1
620.03	361.32
620.447	279.4
620.865	295.79
621.282	316.85
621.7	326.21
622.117	295.79
622.535	295.79
622.952	309.83
623.369	328.55
623.787	281.74
624.204	277.06
624.621	305.15
625.038	246.63
625.455	354.3
625.872	340.26
626.289	314.51
626.706	314.51
627.123	279.4
627.539	286.42
627.956	265.36
628.373	295.79
628.789	328.55
629.206	281.74
629.622	351.96
630.038	279.4
630.455	319.19
630.871	274.72
631.287	302.81
631.703	309.83
632.12	267.7
632.536	279.4
632.952	279.4
633.368	279.4
633.783	326.21
634.199	337.91
634.615	300.47
635.031	333.23
635.446	211.53
635.862	291.1
636.277	344.94
636.693	330.89
637.108	323.87
637.524	366
637.939	260.68
638.354	300.47
638.77	349.62
639.185	361.32
639.6	312.17
640.015	351.96
640.43	260.68
640.845	209.19
641.259	239.61
641.674	288.76
642.089	333.23
642.504	300.47
642.918	246.63
643.333	286.42
643.747	305.15
644.162	244.29
644.576	279.4
644.991	330.89
645.405	309.83
645.819	286.42
646.233	316.85
646.647	305.15
647.061	307.49
647.475	251.32
647.889	300.47
648.303	263.02
648.717	263.02
649.131	248.97
649.545	291.1
649.958	284.08
650.372	340.26
650.785	274.72
651.199	305.15
651.612	260.68
652.026	335.57
652.439	358.98
652.852	279.4
653.266	356.64
653.679	300.47
654.092	277.06
654.505	302.81
654.918	347.28
655.331	316.85
655.744	326.21
656.156	337.91
656.569	256
656.982	298.13
657.394	239.61
657.807	314.51
658.22	270.04
658.632	321.53
659.044	347.28
659.457	333.23
659.869	309.83
660.281	314.51
660.693	382.39
661.106	335.57
661.518	277.06
661.93	256
662.342	323.87
662.754	244.29
663.165	291.1
663.577	319.19
663.989	227.91
664.401	281.74
664.812	316.85
665.224	265.36
665.635	270.04
666.047	265.36
666.458	391.75
666.869	351.96
667.281	293.44
667.692	323.87
668.103	326.21
668.514	347.28
668.925	319.19
669.336	307.49
669.747	319.19
670.158	323.87
670.569	284.08
670.979	307.49
671.39	309.83
671.801	307.49
672.211	300.47
672.622	270.04
673.032	356.64
673.443	330.89
673.853	295.79
674.263	330.89
674.674	370.68
675.084	335.57
675.494	288.76
675.904	272.38
676.314	256
676.724	291.1
677.134	309.83
677.544	281.74
677.953	307.49
678.363	321.53
678.773	312.17
679.182	307.49
679.592	251.32
680.001	333.23
680.411	270.04
680.82	363.66
681.23	323.87
681.639	286.42
682.048	314.51
682.457	309.83
682.866	263.02
683.275	263.02
683.684	305.15
684.093	337.91
684.502	326.21
684.911	251.32
685.32	260.68
685.728	333.23
686.137	265.36
686.546	281.74
686.954	277.06
687.363	272.38
687.771	234.93
688.179	302.81
688.588	316.85
688.996	277.06
689.404	321.53
689.812	349.62
690.22	377.7
690.628	244.29
691.036	328.55
691.444	316.85
691.852	288.76
692.26	326.21
692.667	316.85
693.075	358.98
693.483	333.23
693.89	300.47
694.298	286.42
694.705	328.55
695.112	307.49
695.52	248.97
695.927	302.81
696.334	347.28
696.741	293.44
697.148	305.15
697.555	342.6
697.962	335.57
698.369	284.08
698.776	307.49
699.183	351.96
699.59	384.73
699.996	328.55
700.403	288.76
700.81	295.79
701.216	286.42
701.623	349.62
702.029	335.57
702.435	337.91
702.842	258.34
703.248	351.96
703.654	251.32
704.06	323.87
704.466	312.17
704.872	328.55
705.278	295.79
705.684	305.15
706.09	361.32
706.496	298.13
706.901	307.49
707.307	295.79
707.712	234.93
708.118	244.29
708.523	291.1
708.929	258.34
709.334	272.38
709.74	307.49
710.145	335.57
710.55	298.13
710.955	309.83
711.36	288.76
711.765	258.34
712.17	263.02
712.575	342.6
712.98	799
713.385	267.7
713.789	333.23
714.194	265.36
714.599	361.32
715.003	335.57
715.408	309.83
715.812	328.55
716.217	293.44
716.621	314.51
717.025	267.7
717.429	335.57
717.833	288.76
718.238	330.89
718.642	258.34
719.046	253.66
719.449	323.87
719.853	361.32
720.257	312.17
720.661	309.83
721.065	330.89
721.468	319.19
721.872	314.51
722.275	298.13
722.679	321.53
723.082	265.36
723.485	256
723.889	272.38
724.292	234.93
724.695	279.4
725.098	326.21
725.501	288.76
725.904	316.85
726.307	307.49
726.71	263.02
727.113	295.79
727.516	291.1
727.918	295.79
728.321	248.97
728.724	293.44
729.126	253.66
729.529	307.49
729.931	351.96
730.333	263.02
730.736	260.68
731.138	288.76
731.54	319.19
731.942	342.6
732.344	251.32
732.746	309.83
733.148	319.19
733.55	270.04
733.952	277.06
734.354	314.51
734.756	358.98
735.157	284.08
735.559	323.87
735.96	300.47
736.362	286.42
736.763	335.57
737.165	274.72
737.566	281.74
737.967	279.4
738.368	375.36
738.77	333.23
739.171	302.81
739.572	368.34
739.973	328.55
740.374	293.44
740.774	253.66
741.175	321.53
741.576	256
741.977	260.68
742.377	284.08
742.778	335.57
743.178	288.76
743.579	260.68
743.979	333.23
744.379	312.17
744.78	375.36
745.18	286.42
745.58	300.47
745.98	356.64
746.38	354.3
746.78	265.36
747.18	309.83
747.58	288.76
747.98	373.02
748.38	291.1
748.779	251.32
749.179	284.08
749.578	281.74
749.978	347.28
750.377	302.81
750.777	342.6
751.176	312.17
751.575	335.57
751.975	302.81
752.374	326.21
752.773	281.74
753.172	232.59
753.571	295.79
753.97	256
754.369	337.91
754.768	293.44
755.166	253.66
755.565	291.1
755.964	312.17
756.362	312.17
756.761	307.49
757.159	293.44
757.558	340.26
757.956	298.13
758.354	330.89
758.753	286.42
759.151	330.89
759.549	241.95
759.947	281.74
760.345	298.13
760.743	277.06
761.141	335.57
761.539	305.15
761.936	288.76
762.334	300.47
762.732	328.55
763.129	314.51
763.527	277.06
763.924	281.74
764.322	265.36
764.719	256
765.117	319.19
765.514	342.6
765.911	265.36
766.308	302.81
766.705	227.91
767.102	321.53
