Data from Al_FLMS009871__554__14-43-34-220.txt Node

Date: Fri Mar 08 14:43:34 CST 2024
User: pe5414po
Spectrometer: FLMS00987
Trigger mode: 0
Integration Time (sec): 1.000000E-1
Scans to average: 1
Electric dark correction enabled: true
Nonlinearity correction enabled: false
Boxcar width: 0
XAxis mode: Wavelengths
Number of Pixels in Spectrum: 2048
>>>>>Begin Spectral Data<<<<<
188.938	-65.1
189.409	-65.1
189.879	-65.1
190.349	-51.05
190.819	-125.95
191.29	-51.05
191.76	-116.59
192.23	-114.25
192.7	-76.8
193.17	-34.67
193.64	-25.31
194.109	-62.76
194.579	-18.29
195.049	14.48
195.519	-48.71
195.988	7.46
196.458	54.27
196.927	70.65
197.397	133.85
197.866	80.02
198.336	187.68
198.805	145.55
199.274	91.72
199.744	213.43
200.213	190.02
200.682	211.09
201.151	311.73
201.62	215.77
202.089	215.77
202.558	283.64
203.027	255.56
203.495	250.88
203.964	211.09
204.433	285.98
204.902	302.37
205.37	288.32
205.839	248.54
206.307	297.69
206.776	264.92
207.244	236.83
207.712	323.43
208.181	283.64
208.649	239.17
209.117	353.86
209.585	311.73
210.053	278.96
210.521	232.15
210.989	293.01
211.457	285.98
211.925	283.64
212.393	323.43
212.861	262.58
213.328	339.82
213.796	250.88
214.264	307.05
214.731	269.6
215.199	220.45
215.666	264.92
216.133	290.67
216.601	267.26
217.068	248.54
217.535	269.6
218.003	264.92
218.47	309.39
218.937	269.6
219.404	293.01
219.871	243.85
220.338	246.2
220.805	262.58
221.271	234.49
221.738	208.75
222.205	304.71
222.671	232.15
223.138	229.81
223.605	253.22
224.071	293.01
224.538	288.32
225.004	257.9
225.47	274.28
225.937	248.54
226.403	297.69
226.869	318.75
227.335	232.15
227.801	278.96
228.267	269.6
228.733	323.43
229.199	290.67
229.665	234.49
230.131	253.22
230.597	304.71
231.062	246.2
231.528	290.67
231.994	271.94
232.459	314.07
232.925	232.15
233.39	335.14
233.856	342.16
234.321	248.54
234.786	302.37
235.252	220.45
235.717	328.11
236.182	264.92
236.647	274.28
237.112	274.28
237.577	293.01
238.042	318.75
238.507	269.6
238.972	302.37
239.436	194.7
239.901	316.41
240.366	248.54
240.83	229.81
241.295	330.45
241.76	374.92
242.224	201.72
242.688	344.5
243.153	278.96
243.617	325.77
244.081	215.77
244.545	246.2
245.01	276.62
245.474	262.58
245.938	314.07
246.402	271.94
246.866	232.15
247.33	264.92
247.793	281.3
248.257	293.01
248.721	267.26
249.185	215.77
249.648	250.88
250.112	300.03
250.575	250.88
251.039	321.09
251.502	323.43
251.965	248.54
252.429	281.3
252.892	248.54
253.355	297.69
253.818	274.28
254.281	297.69
254.744	239.17
255.207	302.37
255.67	271.94
256.133	260.24
256.596	295.35
257.059	307.05
257.522	297.69
257.984	234.49
258.447	295.35
258.909	269.6
259.372	290.67
259.834	342.16
260.297	295.35
260.759	344.5
261.221	351.52
261.684	360.88
262.146	264.92
262.608	264.92
263.07	234.49
263.532	255.56
263.994	264.92
264.456	330.45
264.918	311.73
265.38	271.94
265.842	241.51
266.303	227.47
266.765	325.77
267.227	307.05
267.688	318.75
268.15	370.24
268.611	255.56
269.072	309.39
269.534	290.67
269.995	281.3
270.456	227.47
270.918	297.69
271.379	262.58
271.84	215.77
272.301	304.71
272.762	260.24
273.223	285.98
273.684	300.03
274.144	300.03
274.605	283.64
275.066	356.2
275.527	302.37
275.987	295.35
276.448	328.11
276.908	316.41
277.369	281.3
277.829	293.01
278.289	274.28
278.75	267.26
279.21	262.58
279.67	276.62
280.13	367.9
280.59	283.64
281.05	278.96
281.51	290.67
281.97	246.2
282.43	293.01
282.89	325.77
283.35	257.9
283.809	239.17
284.269	288.32
284.729	250.88
285.188	225.13
285.648	311.73
286.107	307.05
286.567	337.48
287.026	314.07
287.485	295.35
287.944	302.37
288.404	314.07
288.863	276.62
289.322	377.27
289.781	260.24
290.24	335.14
290.699	302.37
291.158	311.73
291.616	386.63
292.075	346.84
292.534	314.07
292.992	307.05
293.451	335.14
293.91	250.88
294.368	290.67
294.827	302.37
295.285	276.62
295.743	220.45
296.202	262.58
296.66	290.67
297.118	344.5
297.576	311.73
298.034	283.64
298.492	225.13
298.95	337.48
299.408	271.94
299.866	339.82
300.324	311.73
300.781	328.11
301.239	332.79
301.697	295.35
302.154	236.83
302.612	269.6
303.069	314.07
303.527	288.32
303.984	293.01
304.441	297.69
304.899	285.98
305.356	302.37
305.813	267.26
306.27	330.45
306.727	351.52
307.184	283.64
307.641	274.28
308.098	321.09
308.555	307.05
309.012	264.92
309.468	293.01
309.925	293.01
310.382	311.73
310.838	346.84
311.295	307.05
311.751	260.24
312.208	349.18
312.664	246.2
313.12	253.22
313.577	314.07
314.033	370.24
314.489	293.01
314.945	339.82
315.401	271.94
315.857	302.37
316.313	363.22
316.769	372.58
317.225	297.69
317.681	281.3
318.136	325.77
318.592	342.16
319.048	328.11
319.503	309.39
319.959	276.62
320.414	356.2
320.869	339.82
321.325	295.35
321.78	276.62
322.235	311.73
322.691	304.71
323.146	335.14
323.601	325.77
324.056	288.32
324.511	302.37
324.966	297.69
325.421	314.07
325.875	356.2
326.33	295.35
326.785	250.88
327.24	267.26
327.694	250.88
328.149	262.58
328.603	321.09
329.058	300.03
329.512	297.69
329.966	300.03
330.421	243.85
330.875	367.9
331.329	318.75
331.783	201.72
332.237	281.3
332.691	328.11
333.145	274.28
333.599	276.62
334.053	293.01
334.507	285.98
334.96	337.48
335.414	293.01
335.868	283.64
336.321	321.09
336.775	302.37
337.228	295.35
337.682	367.9
338.135	288.32
338.588	325.77
339.042	344.5
339.495	288.32
339.948	367.9
340.401	300.03
340.854	314.07
341.307	328.11
341.76	332.79
342.213	311.73
342.666	374.92
343.119	363.22
343.571	304.71
344.024	330.45
344.477	325.77
344.929	314.07
345.382	318.75
345.834	335.14
346.287	311.73
346.739	365.56
347.191	316.41
347.644	328.11
348.096	295.35
348.548	405.35
349	323.43
349.452	300.03
349.904	257.9
350.356	307.05
350.808	349.18
351.26	283.64
351.711	388.97
352.163	316.41
352.615	318.75
353.066	339.82
353.518	278.96
353.969	255.56
354.421	318.75
354.872	271.94
355.324	236.83
355.775	290.67
356.226	260.24
356.677	281.3
357.128	309.39
357.579	377.27
358.03	285.98
358.481	314.07
358.932	304.71
359.383	229.81
359.834	353.86
360.285	349.18
360.735	283.64
361.186	316.41
361.637	321.09
362.087	295.35
362.538	293.01
362.988	316.41
363.438	243.85
363.889	311.73
364.339	302.37
364.789	288.32
365.239	356.2
365.689	253.22
366.139	269.6
366.589	311.73
367.039	290.67
367.489	304.71
367.939	295.35
368.389	323.43
368.839	372.58
369.288	337.48
369.738	302.37
370.187	316.41
370.637	278.96
371.086	262.58
371.536	225.13
371.985	316.41
372.434	267.26
372.884	351.52
373.333	276.62
373.782	346.84
374.231	304.71
374.68	372.58
375.129	358.54
375.578	349.18
376.027	328.11
376.475	274.28
376.924	318.75
377.373	349.18
377.822	297.69
378.27	323.43
378.719	311.73
379.167	314.07
379.616	381.95
380.064	403.01
380.512	325.77
380.961	311.73
381.409	307.05
381.857	365.56
382.305	314.07
382.753	304.71
383.201	302.37
383.649	295.35
384.097	356.2
384.545	321.09
384.992	330.45
385.44	335.14
385.888	363.22
386.335	318.75
386.783	358.54
387.231	321.09
387.678	351.52
388.125	276.62
388.573	337.48
389.02	377.27
389.467	330.45
389.914	330.45
390.362	311.73
390.809	314.07
391.256	307.05
391.703	278.96
392.15	325.77
392.596	395.99
393.043	274.28
393.49	318.75
393.937	323.43
394.383	262.58
394.83	269.6
395.276	335.14
395.723	332.79
396.169	302.37
396.616	285.98
397.062	304.71
397.508	295.35
397.954	297.69
398.401	302.37
398.847	307.05
399.293	353.86
399.739	274.28
400.185	318.75
400.631	325.77
401.076	342.16
401.522	257.9
401.968	264.92
402.414	295.35
402.859	276.62
403.305	297.69
403.75	335.14
404.196	321.09
404.641	288.32
405.086	330.45
405.532	351.52
405.977	314.07
406.422	330.45
406.867	328.11
407.312	316.41
407.757	283.64
408.202	316.41
408.647	330.45
409.092	365.56
409.537	328.11
409.982	278.96
410.426	290.67
410.871	278.96
411.316	276.62
411.76	304.71
412.205	337.48
412.649	290.67
413.093	285.98
413.538	311.73
413.982	307.05
414.426	300.03
414.87	314.07
415.314	316.41
415.758	330.45
416.202	300.03
416.646	314.07
417.09	367.9
417.534	328.11
417.978	335.14
418.421	314.07
418.865	302.37
419.309	353.86
419.752	267.26
420.196	290.67
420.639	335.14
421.083	274.28
421.526	285.98
421.969	325.77
422.412	276.62
422.856	328.11
423.299	367.9
423.742	297.69
424.185	332.79
424.628	325.77
425.071	346.84
425.513	358.54
425.956	295.35
426.399	302.37
426.842	309.39
427.284	300.03
427.727	377.27
428.169	307.05
428.612	339.82
429.054	365.56
429.497	384.29
429.939	302.37
430.381	337.48
430.823	353.86
431.265	295.35
431.707	346.84
432.149	353.86
432.591	323.43
433.033	342.16
433.475	255.56
433.917	314.07
434.359	323.43
434.8	335.14
435.242	410.03
435.684	283.64
436.125	367.9
436.567	311.73
437.008	276.62
437.449	337.48
437.891	325.77
438.332	293.01
438.773	311.73
439.214	391.31
439.656	356.2
440.097	318.75
440.538	344.5
440.978	325.77
441.419	365.56
441.86	328.11
442.301	300.03
442.742	257.9
443.182	332.79
443.623	271.94
444.063	300.03
444.504	314.07
444.944	274.28
445.385	344.5
445.825	314.07
446.265	388.97
446.706	372.58
447.146	302.37
447.586	351.52
448.026	325.77
448.466	395.99
448.906	356.2
449.346	302.37
449.786	302.37
450.225	290.67
450.665	316.41
451.105	281.3
451.544	325.77
451.984	353.86
452.424	304.71
452.863	267.26
453.302	328.11
453.742	304.71
454.181	328.11
454.62	330.45
455.059	269.6
455.499	374.92
455.938	278.96
456.377	328.11
456.816	335.14
457.254	290.67
457.693	384.29
458.132	309.39
458.571	323.43
459.01	370.24
459.448	337.48
459.887	309.39
460.325	323.43
460.764	377.27
461.202	353.86
461.641	356.2
462.079	295.35
462.517	302.37
462.955	335.14
463.393	290.67
463.832	295.35
464.27	311.73
464.708	339.82
465.145	290.67
465.583	370.24
466.021	307.05
466.459	316.41
466.897	335.14
467.334	384.29
467.772	353.86
468.209	332.79
468.647	323.43
469.084	309.39
469.522	370.24
469.959	300.03
470.396	377.27
470.833	260.24
471.271	304.71
471.708	325.77
472.145	332.79
472.582	325.77
473.019	388.97
473.456	278.96
473.892	323.43
474.329	321.09
474.766	351.52
475.202	297.69
475.639	323.43
476.076	353.86
476.512	321.09
476.949	325.77
477.385	337.48
477.821	367.9
478.258	295.35
478.694	335.14
479.13	328.11
479.566	332.79
480.002	311.73
480.438	367.9
480.874	323.43
481.31	285.98
481.746	311.73
482.181	367.9
482.617	339.82
483.053	321.09
483.488	367.9
483.924	372.58
484.36	367.9
484.795	311.73
485.23	316.41
485.666	330.45
486.101	342.16
486.536	311.73
486.971	344.5
487.407	356.2
487.842	358.54
488.277	307.05
488.712	302.37
489.146	318.75
489.581	323.43
490.016	321.09
490.451	300.03
490.885	288.32
491.32	309.39
491.755	278.96
492.189	335.14
492.624	262.58
493.058	290.67
493.492	332.79
493.927	346.84
494.361	337.48
494.795	300.03
495.229	309.39
495.663	297.69
496.097	332.79
496.531	304.71
496.965	342.16
497.399	318.75
497.833	356.2
498.266	321.09
498.7	330.45
499.134	311.73
499.567	346.84
500.001	300.03
500.434	330.45
500.868	339.82
501.301	250.88
501.734	290.67
502.168	318.75
502.601	241.51
503.034	311.73
503.467	328.11
503.9	328.11
504.333	304.71
504.766	300.03
505.199	316.41
505.632	304.71
506.064	257.9
506.497	367.9
506.93	304.71
507.362	314.07
507.795	307.05
508.227	339.82
508.66	386.63
509.092	283.64
509.524	293.01
509.956	290.67
510.389	386.63
510.821	344.5
511.253	321.09
511.685	339.82
512.117	309.39
512.549	349.18
512.981	253.22
513.412	307.05
513.844	316.41
514.276	374.92
514.707	316.41
515.139	318.75
515.571	248.54
516.002	323.43
516.433	356.2
516.865	337.48
517.296	332.79
517.727	278.96
518.159	363.22
518.59	314.07
519.021	328.11
519.452	311.73
519.883	318.75
520.314	332.79
520.744	293.01
521.175	337.48
521.606	419.39
522.037	356.2
522.467	349.18
522.898	269.6
523.328	295.35
523.759	309.39
524.189	318.75
524.62	335.14
525.05	295.35
525.48	274.28
525.91	281.3
526.341	276.62
526.771	356.2
527.201	391.31
527.631	335.14
528.061	318.75
528.49	307.05
528.92	342.16
529.35	323.43
529.78	323.43
530.209	318.75
530.639	346.84
531.068	349.18
531.498	330.45
531.927	264.92
532.357	290.67
532.786	304.71
533.215	293.01
533.644	250.88
534.074	321.09
534.503	304.71
534.932	349.18
535.361	307.05
535.79	393.65
536.218	377.27
536.647	372.58
537.076	293.01
537.505	318.75
537.933	318.75
538.362	293.01
538.79	295.35
539.219	321.09
539.647	332.79
540.076	295.35
540.504	269.6
540.932	293.01
541.36	330.45
541.788	274.28
542.217	325.77
542.645	309.39
543.073	297.69
543.5	335.14
543.928	297.69
544.356	323.43
544.784	267.26
545.211	314.07
545.639	328.11
546.067	337.48
546.494	311.73
546.922	302.37
547.349	335.14
547.776	356.2
548.204	323.43
548.631	339.82
549.058	278.96
549.485	328.11
549.912	314.07
550.339	297.69
550.766	335.14
551.193	304.71
551.62	304.71
552.047	321.09
552.474	360.88
552.9	309.39
553.327	241.51
553.754	339.82
554.18	330.45
554.607	424.08
555.033	229.81
555.459	229.81
555.886	363.22
556.312	349.18
556.738	372.58
557.164	367.9
557.59	316.41
558.016	276.62
558.442	325.77
558.868	314.07
559.294	307.05
559.72	290.67
560.145	353.86
560.571	290.67
560.997	377.27
561.422	257.9
561.848	300.03
562.273	295.35
562.699	285.98
563.124	363.22
563.549	367.9
563.974	351.52
564.4	297.69
564.825	316.41
565.25	295.35
565.675	297.69
566.1	349.18
566.525	295.35
566.95	351.52
567.374	321.09
567.799	323.43
568.224	283.64
568.648	255.56
569.073	269.6
569.497	293.01
569.922	297.69
570.346	293.01
570.771	424.08
571.195	328.11
571.619	391.31
572.043	290.67
572.467	316.41
572.891	335.14
573.315	300.03
573.739	374.92
574.163	332.79
574.587	300.03
575.011	300.03
575.435	276.62
575.858	300.03
576.282	302.37
576.705	356.2
577.129	300.03
577.552	316.41
577.976	309.39
578.399	274.28
578.822	253.22
579.245	351.52
579.669	276.62
580.092	346.84
580.515	316.41
580.938	267.26
581.361	367.9
581.784	325.77
582.206	318.75
582.629	337.48
583.052	335.14
583.474	283.64
583.897	337.48
584.32	337.48
584.742	281.3
585.165	271.94
585.587	293.01
586.009	276.62
586.431	328.11
586.854	342.16
587.276	300.03
587.698	302.37
588.12	325.77
588.542	360.88
588.964	316.41
589.386	290.67
589.807	293.01
590.229	290.67
590.651	349.18
591.073	328.11
591.494	323.43
591.916	311.73
592.337	300.03
592.759	293.01
593.18	300.03
593.601	241.51
594.022	321.09
594.444	374.92
594.865	339.82
595.286	314.07
595.707	318.75
596.128	335.14
596.549	276.62
596.97	330.45
597.39	367.9
597.811	285.98
598.232	285.98
598.652	297.69
599.073	316.41
599.494	297.69
599.914	274.28
600.334	321.09
600.755	379.61
601.175	243.85
601.595	356.2
602.015	344.5
602.436	330.45
602.856	475.57
603.276	356.2
603.696	328.11
604.115	342.16
604.535	297.69
604.955	337.48
605.375	342.16
605.794	328.11
606.214	358.54
606.634	351.52
607.053	346.84
607.473	353.86
607.892	332.79
608.311	339.82
608.731	274.28
609.15	304.71
609.569	314.07
609.988	302.37
610.407	274.28
610.826	330.45
611.245	377.27
611.664	349.18
612.083	391.31
612.501	307.05
612.92	367.9
613.339	283.64
613.757	316.41
614.176	309.39
614.594	300.03
615.013	372.58
615.431	339.82
615.85	365.56
616.268	328.11
616.686	360.88
617.104	328.11
617.522	349.18
617.94	342.16
618.358	337.48
618.776	316.41
619.194	281.3
619.612	278.96
620.03	307.05
620.447	253.22
620.865	290.67
621.282	257.9
621.7	351.52
622.117	337.48
622.535	342.16
622.952	300.03
623.369	330.45
623.787	349.18
624.204	225.13
624.621	321.09
625.038	356.2
625.455	363.22
625.872	344.5
626.289	271.94
626.706	367.9
627.123	328.11
627.539	337.48
627.956	257.9
628.373	323.43
628.789	316.41
629.206	271.94
629.622	346.84
630.038	335.14
630.455	302.37
630.871	323.43
631.287	328.11
631.703	318.75
632.12	314.07
632.536	349.18
632.952	250.88
633.368	290.67
633.783	309.39
634.199	293.01
634.615	307.05
635.031	351.52
635.446	290.67
635.862	360.88
636.277	316.41
636.693	346.84
637.108	344.5
637.524	332.79
637.939	335.14
638.354	314.07
638.77	304.71
639.185	337.48
639.6	339.82
640.015	342.16
640.43	297.69
640.845	274.28
641.259	328.11
641.674	293.01
642.089	297.69
642.504	323.43
642.918	293.01
643.333	323.43
643.747	325.77
644.162	267.26
644.576	302.37
644.991	311.73
645.405	349.18
645.819	346.84
646.233	349.18
646.647	395.99
647.061	335.14
647.475	377.27
647.889	328.11
648.303	325.77
648.717	288.32
649.131	290.67
649.545	335.14
649.958	309.39
650.372	360.88
650.785	342.16
651.199	342.16
651.612	314.07
652.026	384.29
652.439	283.64
652.852	367.9
653.266	353.86
653.679	307.05
654.092	342.16
654.505	307.05
654.918	311.73
655.331	318.75
655.744	262.58
656.156	344.5
656.569	300.03
656.982	302.37
657.394	300.03
657.807	351.52
658.22	309.39
658.632	346.84
659.044	278.96
659.457	351.52
659.869	274.28
660.281	257.9
660.693	300.03
661.106	314.07
661.518	269.6
661.93	307.05
662.342	353.86
662.754	323.43
663.165	335.14
663.577	328.11
663.989	332.79
664.401	257.9
664.812	353.86
665.224	351.52
665.635	281.3
666.047	283.64
666.458	335.14
666.869	323.43
667.281	377.27
667.692	309.39
668.103	330.45
668.514	342.16
668.925	358.54
669.336	339.82
669.747	342.16
670.158	288.32
670.569	293.01
670.979	372.58
671.39	358.54
671.801	339.82
672.211	318.75
672.622	335.14
673.032	403.01
673.443	330.45
673.853	307.05
674.263	271.94
674.674	304.71
675.084	314.07
675.494	339.82
675.904	332.79
676.314	309.39
676.724	325.77
677.134	316.41
677.544	288.32
677.953	367.9
678.363	356.2
678.773	421.74
679.182	332.79
679.592	318.75
680.001	339.82
680.411	360.88
680.82	393.65
681.23	316.41
681.639	332.79
682.048	293.01
682.457	283.64
682.866	346.84
683.275	318.75
683.684	372.58
684.093	321.09
684.502	339.82
684.911	328.11
685.32	304.71
685.728	323.43
686.137	293.01
686.546	335.14
686.954	360.88
687.363	344.5
687.771	353.86
688.179	307.05
688.588	290.67
688.996	330.45
689.404	346.84
689.812	337.48
690.22	285.98
690.628	309.39
691.036	321.09
691.444	285.98
691.852	304.71
692.26	274.28
692.667	351.52
693.075	283.64
693.483	302.37
693.89	297.69
694.298	278.96
694.705	307.05
695.112	321.09
695.52	367.9
695.927	346.84
696.334	342.16
696.741	318.75
697.148	255.56
697.555	250.88
697.962	314.07
698.369	278.96
698.776	281.3
699.183	307.05
699.59	328.11
699.996	302.37
700.403	300.03
700.81	239.17
701.216	337.48
701.623	337.48
702.029	363.22
702.435	300.03
702.842	339.82
703.248	304.71
703.654	229.81
704.06	314.07
704.466	342.16
704.872	363.22
705.278	297.69
705.684	367.9
706.09	283.64
706.496	311.73
706.901	351.52
707.307	276.62
707.712	260.24
708.118	339.82
708.523	278.96
708.929	367.9
709.334	297.69
709.74	323.43
710.145	274.28
710.55	384.29
710.955	283.64
711.36	290.67
711.765	283.64
712.17	367.9
712.575	285.98
712.98	915.59
713.385	384.29
713.789	339.82
714.194	377.27
714.599	372.58
715.003	342.16
715.408	332.79
715.812	325.77
716.217	297.69
716.621	257.9
717.025	269.6
717.429	330.45
717.833	276.62
718.238	314.07
718.642	293.01
719.046	309.39
719.449	316.41
719.853	363.22
720.257	358.54
720.661	302.37
721.065	281.3
721.468	285.98
721.872	295.35
722.275	377.27
722.679	372.58
723.082	351.52
723.485	335.14
723.889	297.69
724.292	278.96
724.695	309.39
725.098	330.45
725.501	337.48
725.904	290.67
726.307	332.79
726.71	309.39
727.113	339.82
727.516	328.11
727.918	351.52
728.321	311.73
728.724	332.79
729.126	302.37
729.529	314.07
729.931	269.6
730.333	335.14
730.736	288.32
731.138	349.18
731.54	293.01
731.942	271.94
732.344	314.07
732.746	328.11
733.148	311.73
733.55	288.32
733.952	285.98
734.354	325.77
734.756	318.75
735.157	260.24
735.559	290.67
735.96	311.73
736.362	304.71
736.763	398.33
737.165	356.2
737.566	360.88
737.967	353.86
738.368	307.05
738.77	311.73
739.171	295.35
739.572	311.73
739.973	323.43
740.374	295.35
740.774	353.86
741.175	400.67
741.576	311.73
741.977	339.82
742.377	302.37
742.778	323.43
743.178	304.71
743.579	335.14
743.979	377.27
744.379	307.05
744.78	321.09
745.18	255.56
745.58	304.71
745.98	321.09
746.38	328.11
746.78	283.64
747.18	381.95
747.58	316.41
747.98	302.37
748.38	323.43
748.779	278.96
749.179	346.84
749.578	351.52
749.978	349.18
750.377	325.77
750.777	257.9
751.176	323.43
751.575	335.14
751.975	297.69
752.374	304.71
752.773	363.22
753.172	293.01
753.571	342.16
753.97	281.3
754.369	377.27
754.768	337.48
755.166	321.09
755.565	363.22
755.964	332.79
756.362	353.86
756.761	253.22
757.159	349.18
757.558	262.58
757.956	339.82
758.354	309.39
758.753	323.43
759.151	335.14
759.549	356.2
759.947	307.05
760.345	328.11
760.743	274.28
761.141	309.39
761.539	253.22
761.936	323.43
762.334	365.56
762.732	260.24
763.129	281.3
763.527	304.71
763.924	321.09
764.322	304.71
764.719	323.43
