Data from Al_FLMS009871__556__14-43-34-420.txt Node

Date: Fri Mar 08 14:43:34 CST 2024
User: pe5414po
Spectrometer: FLMS00987
Trigger mode: 0
Integration Time (sec): 1.000000E-1
Scans to average: 1
Electric dark correction enabled: true
Nonlinearity correction enabled: false
Boxcar width: 0
XAxis mode: Wavelengths
Number of Pixels in Spectrum: 2048
>>>>>Begin Spectral Data<<<<<
188.938	-73.29
189.409	-73.29
189.879	-73.29
190.349	-166.91
190.819	-59.24
191.29	-35.84
191.76	-84.99
192.23	-82.65
192.7	-96.69
193.17	-24.14
193.64	-17.12
194.109	-45.2
194.579	-92.01
195.049	-56.9
195.519	32.04
195.988	57.78
196.458	99.91
196.927	39.06
197.397	90.55
197.866	111.61
198.336	104.59
198.805	163.11
199.274	202.9
199.744	172.47
200.213	170.13
200.682	151.4
201.151	223.96
201.62	214.6
202.089	233.32
202.558	277.79
203.027	296.52
203.495	259.07
203.964	254.39
204.433	287.15
204.902	266.09
205.37	308.22
205.839	294.18
206.307	301.2
206.776	266.09
207.244	340.99
207.712	315.24
208.181	340.99
208.649	226.3
209.117	345.67
209.585	294.18
210.053	350.35
210.521	359.71
210.989	287.15
211.457	249.71
211.925	336.31
212.393	261.41
212.861	266.09
213.328	312.9
213.796	266.09
214.264	287.15
214.731	282.47
215.199	270.77
215.666	270.77
216.133	270.77
216.601	266.09
217.068	305.88
217.535	329.28
218.003	259.07
218.47	282.47
218.937	331.62
219.404	200.55
219.871	254.39
220.338	340.99
220.805	249.71
221.271	298.86
221.738	336.31
222.205	240.34
222.671	266.09
223.138	270.77
223.605	193.53
224.071	230.98
224.538	280.13
225.004	303.54
225.47	249.71
225.937	284.81
226.403	233.32
226.869	240.34
227.335	266.09
227.801	280.13
228.267	261.41
228.733	249.71
229.199	228.64
229.665	289.5
230.131	310.56
230.597	301.2
231.062	289.5
231.528	336.31
231.994	193.53
232.459	282.47
232.925	259.07
233.39	254.39
233.856	245.02
234.321	326.94
234.786	282.47
235.252	242.68
235.717	235.66
236.182	240.34
236.647	268.43
237.112	263.75
237.577	273.11
238.042	245.02
238.507	275.45
238.972	214.6
239.436	324.6
239.901	254.39
240.366	259.07
240.83	275.45
241.295	291.84
241.76	270.77
242.224	221.62
242.688	280.13
243.153	256.73
243.617	324.6
244.081	282.47
244.545	266.09
245.01	245.02
245.474	317.58
245.938	298.86
246.402	315.24
246.866	247.37
247.33	319.92
247.793	230.98
248.257	249.71
248.721	247.37
249.185	280.13
249.648	268.43
250.112	312.9
250.575	350.35
251.039	270.77
251.502	273.11
251.965	294.18
252.429	336.31
252.892	308.22
253.355	305.88
253.818	310.56
254.281	317.58
254.744	291.84
255.207	333.97
255.67	345.67
256.133	315.24
256.596	296.52
257.059	277.79
257.522	298.86
257.984	301.2
258.447	317.58
258.909	303.54
259.372	312.9
259.834	329.28
260.297	254.39
260.759	362.05
261.221	266.09
261.684	228.64
262.146	329.28
262.608	329.28
263.07	289.5
263.532	233.32
263.994	280.13
264.456	338.65
264.918	324.6
265.38	305.88
265.842	319.92
266.303	315.24
266.765	301.2
267.227	284.81
267.688	322.26
268.15	343.33
268.611	303.54
269.072	324.6
269.534	322.26
269.995	270.77
270.456	331.62
270.918	280.13
271.379	256.73
271.84	303.54
272.301	333.97
272.762	340.99
273.223	249.71
273.684	308.22
274.144	289.5
274.605	336.31
275.066	331.62
275.527	294.18
275.987	273.11
276.448	226.3
276.908	305.88
277.369	294.18
277.829	383.12
278.289	305.88
278.75	245.02
279.21	289.5
279.67	242.68
280.13	343.33
280.59	280.13
281.05	315.24
281.51	249.71
281.97	291.84
282.43	312.9
282.89	291.84
283.35	280.13
283.809	275.45
284.269	352.69
284.729	369.07
285.188	315.24
285.648	287.15
286.107	326.94
286.567	312.9
287.026	298.86
287.485	266.09
287.944	280.13
288.404	301.2
288.863	312.9
289.322	348.01
289.781	312.9
290.24	324.6
290.699	226.3
291.158	275.45
291.616	348.01
292.075	298.86
292.534	270.77
292.992	362.05
293.451	261.41
293.91	319.92
294.368	315.24
294.827	315.24
295.285	261.41
295.743	282.47
296.202	268.43
296.66	364.39
297.118	312.9
297.576	352.69
298.034	287.15
298.492	223.96
298.95	273.11
299.408	252.05
299.866	312.9
300.324	280.13
300.781	301.2
301.239	319.92
301.697	268.43
302.154	336.31
302.612	305.88
303.069	315.24
303.527	348.01
303.984	345.67
304.441	226.3
304.899	359.71
305.356	242.68
305.813	324.6
306.27	273.11
306.727	291.84
307.184	331.62
307.641	301.2
308.098	322.26
308.555	343.33
309.012	296.52
309.468	275.45
309.925	305.88
310.382	336.31
310.838	289.5
311.295	359.71
311.751	312.9
312.208	298.86
312.664	287.15
313.12	357.37
313.577	364.39
314.033	266.09
314.489	259.07
314.945	331.62
315.401	310.56
315.857	324.6
316.313	284.81
316.769	280.13
317.225	261.41
317.681	329.28
318.136	331.62
318.592	336.31
319.048	296.52
319.503	338.65
319.959	301.2
320.414	340.99
320.869	333.97
321.325	252.05
321.78	324.6
322.235	357.37
322.691	280.13
323.146	322.26
323.601	338.65
324.056	289.5
324.511	315.24
324.966	277.79
325.421	303.54
325.875	310.56
326.33	329.28
326.785	355.03
327.24	322.26
327.694	266.09
328.149	315.24
328.603	263.75
329.058	315.24
329.512	340.99
329.966	364.39
330.421	289.5
330.875	296.52
331.329	270.77
331.783	326.94
332.237	277.79
332.691	282.47
333.145	355.03
333.599	329.28
334.053	282.47
334.507	317.58
334.96	408.86
335.414	315.24
335.868	371.41
336.321	380.78
336.775	287.15
337.228	359.71
337.682	247.37
338.135	331.62
338.588	294.18
339.042	355.03
339.495	317.58
339.948	345.67
340.401	312.9
340.854	373.75
341.307	263.75
341.76	273.11
342.213	245.02
342.666	308.22
343.119	357.37
343.571	343.33
344.024	319.92
344.477	282.47
344.929	305.88
345.382	268.43
345.834	387.8
346.287	263.75
346.739	301.2
347.191	308.22
347.644	308.22
348.096	373.75
348.548	291.84
349	240.34
349.452	287.15
349.904	352.69
350.356	333.97
350.808	319.92
351.26	289.5
351.711	312.9
352.163	345.67
352.615	336.31
353.066	263.75
353.518	287.15
353.969	317.58
354.421	254.39
354.872	310.56
355.324	324.6
355.775	340.99
356.226	315.24
356.677	333.97
357.128	287.15
357.579	326.94
358.03	317.58
358.481	280.13
358.932	359.71
359.383	275.45
359.834	343.33
360.285	319.92
360.735	324.6
361.186	331.62
361.637	289.5
362.087	280.13
362.538	273.11
362.988	312.9
363.438	284.81
363.889	310.56
364.339	348.01
364.789	399.5
365.239	331.62
365.689	331.62
366.139	343.33
366.589	291.84
367.039	336.31
367.489	331.62
367.939	266.09
368.389	340.99
368.839	305.88
369.288	287.15
369.738	275.45
370.187	350.35
370.637	364.39
371.086	270.77
371.536	336.31
371.985	350.35
372.434	331.62
372.884	305.88
373.333	277.79
373.782	348.01
374.231	340.99
374.68	280.13
375.129	312.9
375.578	294.18
376.027	376.09
376.475	359.71
376.924	296.52
377.373	317.58
377.822	322.26
378.27	324.6
378.719	336.31
379.167	317.58
379.616	254.39
380.064	298.86
380.512	303.54
380.961	371.41
381.409	296.52
381.857	277.79
382.305	324.6
382.753	359.71
383.201	261.41
383.649	247.37
384.097	280.13
384.545	331.62
384.992	294.18
385.44	310.56
385.888	373.75
386.335	357.37
386.783	345.67
387.231	317.58
387.678	301.2
388.125	319.92
388.573	310.56
389.02	324.6
389.467	352.69
389.914	348.01
390.362	352.69
390.809	315.24
391.256	266.09
391.703	289.5
392.15	329.28
392.596	261.41
393.043	340.99
393.49	308.22
393.937	305.88
394.383	362.05
394.83	273.11
395.276	345.67
395.723	352.69
396.169	322.26
396.616	355.03
397.062	338.65
397.508	338.65
397.954	270.77
398.401	336.31
398.847	305.88
399.293	296.52
399.739	291.84
400.185	366.73
400.631	329.28
401.076	378.44
401.522	350.35
401.968	296.52
402.414	324.6
402.859	305.88
403.305	355.03
403.75	340.99
404.196	326.94
404.641	308.22
405.086	322.26
405.532	310.56
405.977	284.81
406.422	376.09
406.867	343.33
407.312	284.81
407.757	263.75
408.202	355.03
408.647	352.69
409.092	312.9
409.537	326.94
409.982	333.97
410.426	352.69
410.871	350.35
411.316	275.45
411.76	296.52
412.205	336.31
412.649	326.94
413.093	340.99
413.538	280.13
413.982	312.9
414.426	263.75
414.87	282.47
415.314	345.67
415.758	277.79
416.202	350.35
416.646	399.5
417.09	301.2
417.534	329.28
417.978	340.99
418.421	298.86
418.865	350.35
419.309	348.01
419.752	310.56
420.196	317.58
420.639	333.97
421.083	326.94
421.526	282.47
421.969	390.14
422.412	296.52
422.856	345.67
423.299	357.37
423.742	343.33
424.185	284.81
424.628	336.31
425.071	362.05
425.513	315.24
425.956	322.26
426.399	275.45
426.842	315.24
427.284	312.9
427.727	336.31
428.169	392.48
428.612	322.26
429.054	312.9
429.497	336.31
429.939	287.15
430.381	277.79
430.823	336.31
431.265	326.94
431.707	348.01
432.149	312.9
432.591	336.31
433.033	324.6
433.475	301.2
433.917	324.6
434.359	355.03
434.8	338.65
435.242	326.94
435.684	343.33
436.125	345.67
436.567	301.2
437.008	338.65
437.449	324.6
437.891	275.45
438.332	273.11
438.773	352.69
439.214	329.28
439.656	252.05
440.097	270.77
440.538	348.01
440.978	322.26
441.419	287.15
441.86	277.79
442.301	348.01
442.742	305.88
443.182	322.26
443.623	312.9
444.063	322.26
444.504	376.09
444.944	247.37
445.385	294.18
445.825	364.39
446.265	298.86
446.706	333.97
447.146	340.99
447.586	275.45
448.026	376.09
448.466	291.84
448.906	294.18
449.346	364.39
449.786	275.45
450.225	338.65
450.665	324.6
451.105	312.9
451.544	268.43
451.984	322.26
452.424	319.92
452.863	270.77
453.302	387.8
453.742	298.86
454.181	312.9
454.62	291.84
455.059	310.56
455.499	355.03
455.938	352.69
456.377	317.58
456.816	249.71
457.254	324.6
457.693	296.52
458.132	350.35
458.571	329.28
459.01	345.67
459.448	322.26
459.887	294.18
460.325	340.99
460.764	376.09
461.202	333.97
461.641	401.84
462.079	340.99
462.517	331.62
462.955	319.92
463.393	317.58
463.832	352.69
464.27	256.73
464.708	289.5
465.145	352.69
465.583	305.88
466.021	270.77
466.459	312.9
466.897	348.01
467.334	340.99
467.772	317.58
468.209	352.69
468.647	322.26
469.084	273.11
469.522	350.35
469.959	343.33
470.396	378.44
470.833	355.03
471.271	324.6
471.708	369.07
472.145	289.5
472.582	280.13
473.019	333.97
473.456	364.39
473.892	294.18
474.329	376.09
474.766	348.01
475.202	345.67
475.639	329.28
476.076	308.22
476.512	305.88
476.949	352.69
477.385	315.24
477.821	296.52
478.258	329.28
478.694	280.13
479.13	336.31
479.566	280.13
480.002	266.09
480.438	296.52
480.874	273.11
481.31	357.37
481.746	348.01
482.181	350.35
482.617	289.5
483.053	301.2
483.488	352.69
483.924	287.15
484.36	355.03
484.795	287.15
485.23	348.01
485.666	270.77
486.101	350.35
486.536	315.24
486.971	350.35
487.407	235.66
487.842	315.24
488.277	350.35
488.712	322.26
489.146	308.22
489.581	324.6
490.016	331.62
490.451	317.58
490.885	378.44
491.32	277.79
491.755	322.26
492.189	317.58
492.624	366.73
493.058	355.03
493.492	266.09
493.927	326.94
494.361	319.92
494.795	343.33
495.229	273.11
495.663	383.12
496.097	324.6
496.531	315.24
496.965	378.44
497.399	329.28
497.833	282.47
498.266	340.99
498.7	303.54
499.134	308.22
499.567	348.01
500.001	329.28
500.434	326.94
500.868	289.5
501.301	352.69
501.734	380.78
502.168	343.33
502.601	315.24
503.034	315.24
503.467	298.86
503.9	336.31
504.333	280.13
504.766	280.13
505.199	336.31
505.632	273.11
506.064	296.52
506.497	296.52
506.93	277.79
507.362	362.05
507.795	348.01
508.227	284.81
508.66	355.03
509.092	340.99
509.524	331.62
509.956	338.65
510.389	280.13
510.821	324.6
511.253	350.35
511.685	331.62
512.117	329.28
512.549	310.56
512.981	294.18
513.412	331.62
513.844	247.37
514.276	357.37
514.707	319.92
515.139	336.31
515.571	369.07
516.002	322.26
516.433	277.79
516.865	338.65
517.296	315.24
517.727	280.13
518.159	322.26
518.59	247.37
519.021	282.47
519.452	308.22
519.883	305.88
520.314	317.58
520.744	303.54
521.175	380.78
521.606	333.97
522.037	369.07
522.467	301.2
522.898	294.18
523.328	294.18
523.759	406.52
524.189	369.07
524.62	324.6
525.05	303.54
525.48	359.71
525.91	369.07
526.341	331.62
526.771	392.48
527.201	359.71
527.631	312.9
528.061	317.58
528.49	345.67
528.92	305.88
529.35	308.22
529.78	317.58
530.209	287.15
530.639	338.65
531.068	350.35
531.498	338.65
531.927	240.34
532.357	308.22
532.786	348.01
533.215	322.26
533.644	301.2
534.074	317.58
534.503	338.65
534.932	329.28
535.361	289.5
535.79	319.92
536.218	333.97
536.647	319.92
537.076	291.84
537.505	376.09
537.933	324.6
538.362	336.31
538.79	329.28
539.219	348.01
539.647	348.01
540.076	336.31
540.504	296.52
540.932	362.05
541.36	296.52
541.788	259.07
542.217	329.28
542.645	317.58
543.073	289.5
543.5	317.58
543.928	312.9
544.356	282.47
544.784	338.65
545.211	338.65
545.639	408.86
546.067	345.67
546.494	348.01
546.922	305.88
547.349	352.69
547.776	336.31
548.204	329.28
548.631	333.97
549.058	308.22
549.485	326.94
549.912	268.43
550.339	333.97
550.766	331.62
551.193	282.47
551.62	362.05
552.047	369.07
552.474	340.99
552.9	383.12
553.327	296.52
553.754	355.03
554.18	355.03
554.607	350.35
555.033	277.79
555.459	317.58
555.886	366.73
556.312	385.46
556.738	322.26
557.164	336.31
557.59	277.79
558.016	357.37
558.442	301.2
558.868	345.67
559.294	282.47
559.72	294.18
560.145	371.41
560.571	324.6
560.997	310.56
561.422	310.56
561.848	350.35
562.273	350.35
562.699	280.13
563.124	277.79
563.549	338.65
563.974	298.86
564.4	294.18
564.825	329.28
565.25	359.71
565.675	333.97
566.1	315.24
566.525	317.58
566.95	343.33
567.374	369.07
567.799	289.5
568.224	350.35
568.648	282.47
569.073	247.37
569.497	350.35
569.922	343.33
570.346	303.54
570.771	315.24
571.195	345.67
571.619	387.8
572.043	345.67
572.467	242.68
572.891	378.44
573.315	329.28
573.739	298.86
574.163	291.84
574.587	333.97
575.011	345.67
575.435	305.88
575.858	343.33
576.282	273.11
576.705	373.75
577.129	357.37
577.552	242.68
577.976	284.81
578.399	305.88
578.822	385.46
579.245	296.52
579.669	291.84
580.092	345.67
580.515	340.99
580.938	301.2
581.361	256.73
581.784	329.28
582.206	385.46
582.629	336.31
583.052	263.75
583.474	284.81
583.897	277.79
584.32	366.73
584.742	333.97
585.165	329.28
585.587	317.58
586.009	284.81
586.431	362.05
586.854	336.31
587.276	240.34
587.698	287.15
588.12	317.58
588.542	336.31
588.964	315.24
589.386	326.94
589.807	308.22
590.229	310.56
590.651	249.71
591.073	359.71
591.494	310.56
591.916	371.41
592.337	291.84
592.759	369.07
593.18	359.71
593.601	291.84
594.022	317.58
594.444	305.88
594.865	298.86
595.286	355.03
595.707	315.24
596.128	310.56
596.549	270.77
596.97	357.37
597.39	338.65
597.811	312.9
598.232	348.01
598.652	376.09
599.073	319.92
599.494	343.33
599.914	369.07
600.334	371.41
600.755	348.01
601.175	394.82
601.595	322.26
602.015	322.26
602.436	289.5
602.856	394.82
603.276	352.69
603.696	345.67
604.115	355.03
604.535	329.28
604.955	329.28
605.375	326.94
605.794	282.47
606.214	305.88
606.634	263.75
607.053	249.71
607.473	357.37
607.892	273.11
608.311	359.71
608.731	333.97
609.15	369.07
609.569	333.97
609.988	324.6
610.407	322.26
610.826	336.31
611.245	350.35
611.664	355.03
612.083	359.71
612.501	317.58
612.92	254.39
613.339	298.86
613.757	259.07
614.176	280.13
614.594	338.65
615.013	338.65
615.431	287.15
615.85	280.13
616.268	240.34
616.686	333.97
617.104	329.28
617.522	308.22
617.94	287.15
618.358	331.62
618.776	364.39
619.194	282.47
619.612	310.56
620.03	340.99
620.447	308.22
620.865	287.15
621.282	343.33
621.7	352.69
622.117	336.31
622.535	296.52
622.952	322.26
623.369	392.48
623.787	345.67
624.204	315.24
624.621	340.99
625.038	317.58
625.455	315.24
625.872	348.01
626.289	364.39
626.706	294.18
627.123	376.09
627.539	331.62
627.956	338.65
628.373	268.43
628.789	266.09
629.206	305.88
629.622	280.13
630.038	296.52
630.455	289.5
630.871	331.62
631.287	322.26
631.703	319.92
632.12	364.39
632.536	366.73
632.952	350.35
633.368	336.31
633.783	390.14
634.199	310.56
634.615	357.37
635.031	312.9
635.446	263.75
635.862	233.32
636.277	319.92
636.693	324.6
637.108	331.62
637.524	362.05
637.939	319.92
638.354	268.43
638.77	303.54
639.185	383.12
639.6	331.62
640.015	315.24
640.43	298.86
640.845	336.31
641.259	230.98
641.674	284.81
642.089	256.73
642.504	263.75
642.918	315.24
643.333	275.45
643.747	317.58
644.162	336.31
644.576	254.39
644.991	392.48
645.405	294.18
645.819	287.15
646.233	287.15
646.647	305.88
647.061	371.41
647.475	308.22
647.889	326.94
648.303	326.94
648.717	336.31
649.131	289.5
649.545	338.65
649.958	315.24
650.372	263.75
650.785	343.33
651.199	315.24
651.612	315.24
652.026	242.68
652.439	310.56
652.852	345.67
653.266	359.71
653.679	387.8
654.092	329.28
654.505	296.52
654.918	268.43
655.331	247.37
655.744	289.5
656.156	348.01
656.569	275.45
656.982	340.99
657.394	322.26
657.807	282.47
658.22	329.28
658.632	280.13
659.044	350.35
659.457	270.77
659.869	352.69
660.281	301.2
660.693	249.71
661.106	340.99
661.518	315.24
661.93	312.9
662.342	352.69
662.754	275.45
663.165	355.03
663.577	308.22
663.989	364.39
664.401	303.54
664.812	303.54
665.224	333.97
665.635	329.28
666.047	380.78
666.458	284.81
666.869	303.54
667.281	340.99
667.692	315.24
668.103	331.62
668.514	280.13
668.925	247.37
669.336	256.73
669.747	284.81
670.158	308.22
670.569	333.97
670.979	270.77
671.39	308.22
671.801	355.03
672.211	333.97
672.622	312.9
673.032	315.24
673.443	315.24
673.853	315.24
674.263	238
674.674	303.54
675.084	355.03
675.494	336.31
675.904	312.9
676.314	289.5
676.724	336.31
677.134	301.2
677.544	324.6
677.953	355.03
678.363	376.09
678.773	343.33
679.182	352.69
679.592	308.22
680.001	343.33
680.411	291.84
680.82	266.09
681.23	294.18
681.639	333.97
682.048	359.71
682.457	329.28
682.866	270.77
683.275	289.5
683.684	261.41
684.093	294.18
684.502	287.15
684.911	366.73
685.32	376.09
685.728	310.56
686.137	303.54
686.546	247.37
686.954	348.01
687.363	301.2
687.771	348.01
688.179	322.26
688.588	317.58
688.996	310.56
689.404	315.24
689.812	315.24
690.22	308.22
690.628	305.88
691.036	329.28
691.444	303.54
691.852	247.37
692.26	296.52
692.667	280.13
693.075	333.97
693.483	369.07
693.89	308.22
694.298	331.62
694.705	287.15
695.112	284.81
695.52	378.44
695.927	310.56
696.334	359.71
696.741	294.18
697.148	340.99
697.555	280.13
697.962	394.82
698.369	280.13
698.776	303.54
699.183	364.39
699.59	319.92
699.996	296.52
700.403	277.79
700.81	401.84
701.216	277.79
701.623	315.24
702.029	270.77
702.435	383.12
702.842	263.75
703.248	345.67
703.654	364.39
704.06	362.05
704.466	338.65
704.872	362.05
705.278	329.28
705.684	282.47
706.09	275.45
706.496	352.69
706.901	294.18
707.307	296.52
707.712	287.15
708.118	298.86
708.523	298.86
708.929	298.86
709.334	312.9
709.74	289.5
710.145	329.28
710.55	273.11
710.955	319.92
711.36	359.71
711.765	259.07
712.17	301.2
712.575	263.75
712.98	773.99
713.385	317.58
713.789	284.81
714.194	296.52
714.599	319.92
715.003	261.41
715.408	240.34
715.812	331.62
716.217	298.86
716.621	291.84
717.025	305.88
717.429	331.62
717.833	256.73
718.238	305.88
718.642	301.2
719.046	345.67
719.449	275.45
719.853	289.5
720.257	303.54
720.661	324.6
721.065	329.28
721.468	340.99
721.872	291.84
722.275	364.39
722.679	340.99
723.082	291.84
723.485	345.67
723.889	343.33
724.292	310.56
724.695	350.35
725.098	348.01
725.501	305.88
725.904	383.12
726.307	362.05
726.71	331.62
727.113	329.28
727.516	415.88
727.918	399.5
728.321	289.5
728.724	252.05
729.126	315.24
729.529	336.31
729.931	345.67
730.333	301.2
730.736	315.24
731.138	326.94
731.54	319.92
731.942	245.02
732.344	348.01
732.746	308.22
733.148	329.28
733.55	362.05
733.952	268.43
734.354	305.88
734.756	296.52
735.157	268.43
735.559	364.39
735.96	270.77
736.362	326.94
736.763	336.31
737.165	336.31
737.566	287.15
737.967	282.47
738.368	263.75
738.77	263.75
739.171	315.24
739.572	284.81
739.973	329.28
740.374	338.65
740.774	287.15
741.175	326.94
741.576	308.22
741.977	366.73
742.377	352.69
742.778	256.73
743.178	305.88
743.579	357.37
743.979	348.01
744.379	219.28
744.78	312.9
745.18	266.09
745.58	329.28
745.98	319.92
746.38	350.35
746.78	326.94
747.18	326.94
747.58	305.88
747.98	343.33
748.38	284.81
748.779	329.28
749.179	287.15
749.578	355.03
749.978	317.58
750.377	336.31
750.777	343.33
751.176	312.9
751.575	287.15
751.975	315.24
752.374	287.15
752.773	350.35
753.172	326.94
753.571	350.35
753.97	312.9
754.369	256.73
754.768	275.45
755.166	357.37
755.565	317.58
755.964	326.94
756.362	355.03
756.761	284.81
757.159	362.05
757.558	333.97
757.956	319.92
758.354	324.6
758.753	280.13
759.151	340.99
759.549	350.35
759.947	296.52
760.345	340.99
760.743	282.47
761.141	355.03
761.539	289.5
761.936	359.71
762.334	298.86
762.732	301.2
763.129	287.15
763.527	282.47
763.924	294.18
764.322	362.05
764.719	352.69
765.117	336.31
