Data from Al_FLMS009871__543__14-43-33-120.txt Node

Date: Fri Mar 08 14:43:33 CST 2024
User: pe5414po
Spectrometer: FLMS00987
Trigger mode: 0
Integration Time (sec): 1.000000E-1
Scans to average: 1
Electric dark correction enabled: true
Nonlinearity correction enabled: false
Boxcar width: 0
XAxis mode: Wavelengths
Number of Pixels in Spectrum: 2048
>>>>>Begin Spectral Data<<<<<
188.938	-79.43
189.409	-79.43
189.879	-79.43
190.349	-130.92
190.819	-109.86
191.29	-166.03
191.76	-70.07
192.23	-119.22
192.7	-74.75
193.17	-98.16
193.64	-13.9
194.109	-34.96
194.579	-46.66
195.049	4.83
195.519	53.98
195.988	49.3
196.458	32.91
196.927	107.81
197.397	96.11
197.866	161.64
198.336	117.17
198.805	161.64
199.274	175.69
199.744	238.88
200.213	210.79
200.682	273.99
201.151	220.16
201.62	180.37
202.089	255.26
202.558	278.67
203.027	238.88
203.495	288.03
203.964	281.01
204.433	313.78
204.902	292.71
205.37	297.39
205.839	245.9
206.307	313.78
206.776	259.95
207.244	210.79
207.712	288.03
208.181	383.99
208.649	250.58
209.117	297.39
209.585	208.45
210.053	278.67
210.521	290.37
210.989	283.35
211.457	269.31
211.925	327.82
212.393	288.03
212.861	323.14
213.328	281.01
213.796	292.71
214.264	337.18
214.731	203.77
215.199	217.82
215.666	299.73
216.133	243.56
216.601	374.63
217.068	259.95
217.535	262.29
218.003	220.16
218.47	271.65
218.937	257.61
219.404	185.05
219.871	313.78
220.338	231.86
220.805	149.94
221.271	269.31
221.738	213.14
222.205	269.31
222.671	273.99
223.138	313.78
223.605	231.86
224.071	302.08
224.538	245.9
225.004	252.92
225.47	231.86
225.937	259.95
226.403	299.73
226.869	248.24
227.335	262.29
227.801	278.67
228.267	245.9
228.733	281.01
229.199	255.26
229.665	276.33
230.131	264.63
230.597	257.61
231.062	318.46
231.528	313.78
231.994	278.67
232.459	252.92
232.925	236.54
233.39	210.79
233.856	278.67
234.321	288.03
234.786	224.84
235.252	299.73
235.717	264.63
236.182	264.63
236.647	222.5
237.112	257.61
237.577	318.46
238.042	327.82
238.507	215.48
238.972	278.67
239.436	283.35
239.901	224.84
240.366	276.33
240.83	243.56
241.295	302.08
241.76	290.37
242.224	276.33
242.688	306.76
243.153	290.37
243.617	313.78
244.081	290.37
244.545	264.63
245.01	255.26
245.474	290.37
245.938	236.54
246.402	323.14
246.866	252.92
247.33	299.73
247.793	304.42
248.257	290.37
248.721	292.71
249.185	299.73
249.648	266.97
250.112	278.67
250.575	238.88
251.039	323.14
251.502	313.78
251.965	264.63
252.429	283.35
252.892	273.99
253.355	278.67
253.818	278.67
254.281	187.39
254.744	248.24
255.207	271.65
255.67	306.76
256.133	297.39
256.596	234.2
257.059	278.67
257.522	304.42
257.984	213.14
258.447	278.67
258.909	238.88
259.372	255.26
259.834	320.8
260.297	320.8
260.759	320.8
261.221	269.31
261.684	257.61
262.146	309.1
262.608	281.01
263.07	290.37
263.532	264.63
263.994	273.99
264.456	295.05
264.918	332.5
265.38	299.73
265.842	281.01
266.303	313.78
266.765	306.76
267.227	316.12
267.688	295.05
268.15	281.01
268.611	288.03
269.072	259.95
269.534	236.54
269.995	339.52
270.456	299.73
270.918	325.48
271.379	330.16
271.84	318.46
272.301	276.33
272.762	299.73
273.223	255.26
273.684	295.05
274.144	276.33
274.605	245.9
275.066	327.82
275.527	304.42
275.987	227.18
276.448	288.03
276.908	299.73
277.369	355.91
277.829	278.67
278.289	299.73
278.75	334.84
279.21	276.33
279.67	304.42
280.13	273.99
280.59	299.73
281.05	283.35
281.51	297.39
281.97	269.31
282.43	285.69
282.89	257.61
283.35	220.16
283.809	269.31
284.269	292.71
284.729	297.39
285.188	264.63
285.648	288.03
286.107	353.57
286.567	337.18
287.026	339.52
287.485	295.05
287.944	222.5
288.404	344.21
288.863	337.18
289.322	266.97
289.781	292.71
290.24	311.44
290.699	320.8
291.158	271.65
291.616	292.71
292.075	290.37
292.534	290.37
292.992	323.14
293.451	332.5
293.91	332.5
294.368	234.2
294.827	304.42
295.285	264.63
295.743	311.44
296.202	288.03
296.66	379.31
297.118	292.71
297.576	341.86
298.034	290.37
298.492	292.71
298.95	292.71
299.408	332.5
299.866	311.44
300.324	304.42
300.781	290.37
301.239	304.42
301.697	400.38
302.154	304.42
302.612	306.76
303.069	337.18
303.527	358.25
303.984	302.08
304.441	330.16
304.899	278.67
305.356	393.36
305.813	295.05
306.27	257.61
306.727	281.01
307.184	325.48
307.641	295.05
308.098	302.08
308.555	372.29
309.012	243.56
309.468	302.08
309.925	241.22
310.382	318.46
310.838	302.08
311.295	327.82
311.751	248.24
312.208	358.25
312.664	266.97
313.12	271.65
313.577	262.29
314.033	273.99
314.489	341.86
314.945	348.89
315.401	248.24
315.857	271.65
316.313	332.5
316.769	250.58
317.225	266.97
317.681	269.31
318.136	341.86
318.592	344.21
319.048	283.35
319.503	259.95
319.959	325.48
320.414	344.21
320.869	334.84
321.325	299.73
321.78	227.18
322.235	344.21
322.691	320.8
323.146	320.8
323.601	369.95
324.056	234.2
324.511	255.26
324.966	285.69
325.421	327.82
325.875	339.52
326.33	337.18
326.785	276.33
327.24	311.44
327.694	285.69
328.149	295.05
328.603	341.86
329.058	311.44
329.512	341.86
329.966	278.67
330.421	386.33
330.875	231.86
331.329	290.37
331.783	348.89
332.237	288.03
332.691	295.05
333.145	269.31
333.599	323.14
334.053	210.79
334.507	306.76
334.96	400.38
335.414	334.84
335.868	362.93
336.321	255.26
336.775	302.08
337.228	297.39
337.682	255.26
338.135	231.86
338.588	271.65
339.042	299.73
339.495	288.03
339.948	313.78
340.401	334.84
340.854	285.69
341.307	299.73
341.76	231.86
342.213	297.39
342.666	273.99
343.119	320.8
343.571	323.14
344.024	344.21
344.477	316.12
344.929	313.78
345.382	229.52
345.834	381.65
346.287	292.71
346.739	311.44
347.191	325.48
347.644	353.57
348.096	330.16
348.548	393.36
349	285.69
349.452	297.39
349.904	273.99
350.356	271.65
350.808	285.69
351.26	311.44
351.711	306.76
352.163	304.42
352.615	323.14
353.066	330.16
353.518	351.23
353.969	283.35
354.421	348.89
354.872	250.58
355.324	323.14
355.775	325.48
356.226	271.65
356.677	252.92
357.128	391.02
357.579	348.89
358.03	288.03
358.481	309.1
358.932	229.52
359.383	302.08
359.834	351.23
360.285	302.08
360.735	323.14
361.186	297.39
361.637	318.46
362.087	269.31
362.538	271.65
362.988	320.8
363.438	316.12
363.889	299.73
364.339	316.12
364.789	304.42
365.239	271.65
365.689	367.61
366.139	243.56
366.589	376.97
367.039	288.03
367.489	276.33
367.939	299.73
368.389	327.82
368.839	309.1
369.288	311.44
369.738	311.44
370.187	383.99
370.637	281.01
371.086	332.5
371.536	304.42
371.985	313.78
372.434	318.46
372.884	332.5
373.333	344.21
373.782	316.12
374.231	339.52
374.68	304.42
375.129	334.84
375.578	302.08
376.027	330.16
376.475	295.05
376.924	311.44
377.373	302.08
377.822	323.14
378.27	262.29
378.719	358.25
379.167	341.86
379.616	295.05
380.064	297.39
380.512	276.33
380.961	318.46
381.409	320.8
381.857	302.08
382.305	255.26
382.753	316.12
383.201	332.5
383.649	383.99
384.097	271.65
384.545	332.5
384.992	297.39
385.44	353.57
385.888	337.18
386.335	369.95
386.783	316.12
387.231	344.21
387.678	297.39
388.125	351.23
388.573	334.84
389.02	316.12
389.467	292.71
389.914	330.16
390.362	334.84
390.809	302.08
391.256	283.35
391.703	318.46
392.15	266.97
392.596	367.61
393.043	271.65
393.49	313.78
393.937	281.01
394.383	306.76
394.83	327.82
395.276	299.73
395.723	311.44
396.169	323.14
396.616	278.67
397.062	327.82
397.508	295.05
397.954	266.97
398.401	334.84
398.847	278.67
399.293	299.73
399.739	339.52
400.185	334.84
400.631	316.12
401.076	334.84
401.522	281.01
401.968	318.46
402.414	381.65
402.859	362.93
403.305	306.76
403.75	257.61
404.196	281.01
404.641	311.44
405.086	362.93
405.532	358.25
405.977	358.25
406.422	337.18
406.867	332.5
407.312	297.39
407.757	332.5
408.202	281.01
408.647	332.5
409.092	264.63
409.537	339.52
409.982	344.21
410.426	318.46
410.871	358.25
411.316	327.82
411.76	393.36
412.205	306.76
412.649	327.82
413.093	309.1
413.538	332.5
413.982	299.73
414.426	311.44
414.87	285.69
415.314	341.86
415.758	353.57
416.202	337.18
416.646	281.01
417.09	339.52
417.534	264.63
417.978	339.52
418.421	332.5
418.865	346.55
419.309	341.86
419.752	313.78
420.196	351.23
420.639	306.76
421.083	299.73
421.526	297.39
421.969	376.97
422.412	306.76
422.856	297.39
423.299	285.69
423.742	288.03
424.185	295.05
424.628	316.12
425.071	273.99
425.513	236.54
425.956	292.71
426.399	273.99
426.842	320.8
427.284	313.78
427.727	285.69
428.169	337.18
428.612	266.97
429.054	346.55
429.497	334.84
429.939	320.8
430.381	360.59
430.823	311.44
431.265	295.05
431.707	320.8
432.149	337.18
432.591	297.39
433.033	309.1
433.475	297.39
433.917	341.86
434.359	304.42
434.8	320.8
435.242	309.1
435.684	330.16
436.125	334.84
436.567	278.67
437.008	262.29
437.449	346.55
437.891	388.68
438.332	278.67
438.773	311.44
439.214	383.99
439.656	262.29
440.097	320.8
440.538	320.8
440.978	271.65
441.419	346.55
441.86	379.31
442.301	323.14
442.742	341.86
443.182	355.91
443.623	313.78
444.063	255.26
444.504	348.89
444.944	367.61
445.385	252.92
445.825	320.8
446.265	271.65
446.706	285.69
447.146	374.63
447.586	341.86
448.026	355.91
448.466	313.78
448.906	348.89
449.346	327.82
449.786	259.95
450.225	266.97
450.665	381.65
451.105	323.14
451.544	318.46
451.984	292.71
452.424	358.25
452.863	339.52
453.302	297.39
453.742	337.18
454.181	266.97
454.62	299.73
455.059	295.05
455.499	316.12
455.938	276.33
456.377	311.44
456.816	323.14
457.254	330.16
457.693	311.44
458.132	283.35
458.571	318.46
459.01	306.76
459.448	313.78
459.887	337.18
460.325	355.91
460.764	285.69
461.202	339.52
461.641	376.97
462.079	327.82
462.517	360.59
462.955	367.61
463.393	304.42
463.832	365.27
464.27	337.18
464.708	339.52
465.145	341.86
465.583	320.8
466.021	290.37
466.459	341.86
466.897	346.55
467.334	325.48
467.772	271.65
468.209	285.69
468.647	320.8
469.084	309.1
469.522	353.57
469.959	318.46
470.396	316.12
470.833	304.42
471.271	313.78
471.708	264.63
472.145	337.18
472.582	316.12
473.019	358.25
473.456	330.16
473.892	332.5
474.329	393.36
474.766	358.25
475.202	388.68
475.639	285.69
476.076	325.48
476.512	304.42
476.949	337.18
477.385	302.08
477.821	283.35
478.258	292.71
478.694	297.39
479.13	341.86
479.566	341.86
480.002	299.73
480.438	323.14
480.874	320.8
481.31	348.89
481.746	264.63
482.181	313.78
482.617	362.93
483.053	323.14
483.488	341.86
483.924	295.05
484.36	344.21
484.795	334.84
485.23	330.16
485.666	311.44
486.101	325.48
486.536	264.63
486.971	273.99
487.407	346.55
487.842	266.97
488.277	320.8
488.712	262.29
489.146	309.1
489.581	346.55
490.016	325.48
490.451	337.18
490.885	313.78
491.32	346.55
491.755	383.99
492.189	320.8
492.624	318.46
493.058	353.57
493.492	276.33
493.927	276.33
494.361	276.33
494.795	309.1
495.229	302.08
495.663	353.57
496.097	316.12
496.531	353.57
496.965	346.55
497.399	383.99
497.833	316.12
498.266	306.76
498.7	320.8
499.134	332.5
499.567	365.27
500.001	288.03
500.434	302.08
500.868	383.99
501.301	316.12
501.734	318.46
502.168	381.65
502.601	337.18
503.034	337.18
503.467	320.8
503.9	304.42
504.333	283.35
504.766	337.18
505.199	285.69
505.632	290.37
506.064	320.8
506.497	281.01
506.93	337.18
507.362	278.67
507.795	299.73
508.227	369.95
508.66	276.33
509.092	327.82
509.524	330.16
509.956	271.65
510.389	259.95
510.821	381.65
511.253	351.23
511.685	346.55
512.117	318.46
512.549	344.21
512.981	255.26
513.412	302.08
513.844	257.61
514.276	295.05
514.707	306.76
515.139	304.42
515.571	360.59
516.002	273.99
516.433	353.57
516.865	320.8
517.296	400.38
517.727	339.52
518.159	313.78
518.59	344.21
519.021	309.1
519.452	339.52
519.883	355.91
520.314	311.44
520.744	320.8
521.175	337.18
521.606	290.37
522.037	332.5
522.467	323.14
522.898	341.86
523.328	323.14
523.759	346.55
524.189	330.16
524.62	259.95
525.05	325.48
525.48	311.44
525.91	276.33
526.341	299.73
526.771	283.35
527.201	292.71
527.631	374.63
528.061	325.48
528.49	332.5
528.92	383.99
529.35	327.82
529.78	295.05
530.209	372.29
530.639	325.48
531.068	266.97
531.498	365.27
531.927	302.08
532.357	330.16
532.786	269.31
533.215	302.08
533.644	327.82
534.074	285.69
534.503	318.46
534.932	334.84
535.361	295.05
535.79	374.63
536.218	278.67
536.647	243.56
537.076	334.84
537.505	330.16
537.933	346.55
538.362	316.12
538.79	346.55
539.219	334.84
539.647	327.82
540.076	318.46
540.504	334.84
540.932	327.82
541.36	292.71
541.788	318.46
542.217	290.37
542.645	241.22
543.073	285.69
543.5	295.05
543.928	295.05
544.356	299.73
544.784	278.67
545.211	334.84
545.639	241.22
546.067	302.08
546.494	383.99
546.922	330.16
547.349	362.93
547.776	306.76
548.204	304.42
548.631	299.73
549.058	355.91
549.485	334.84
549.912	325.48
550.339	353.57
550.766	369.95
551.193	262.29
551.62	259.95
552.047	264.63
552.474	358.25
552.9	292.71
553.327	313.78
553.754	245.9
554.18	323.14
554.607	313.78
555.033	271.65
555.459	283.35
555.886	309.1
556.312	311.44
556.738	348.89
557.164	346.55
557.59	346.55
558.016	281.01
558.442	337.18
558.868	257.61
559.294	337.18
559.72	309.1
560.145	285.69
560.571	271.65
560.997	297.39
561.422	299.73
561.848	323.14
562.273	302.08
562.699	271.65
563.124	334.84
563.549	309.1
563.974	353.57
564.4	304.42
564.825	281.01
565.25	339.52
565.675	360.59
566.1	278.67
566.525	362.93
566.95	379.31
567.374	351.23
567.799	269.31
568.224	236.54
568.648	325.48
569.073	344.21
569.497	288.03
569.922	334.84
570.346	309.1
570.771	330.16
571.195	302.08
571.619	273.99
572.043	316.12
572.467	295.05
572.891	304.42
573.315	337.18
573.739	332.5
574.163	325.48
574.587	302.08
575.011	306.76
575.435	290.37
575.858	320.8
576.282	334.84
576.705	304.42
577.129	325.48
577.552	346.55
577.976	341.86
578.399	325.48
578.822	405.06
579.245	231.86
579.669	327.82
580.092	348.89
580.515	311.44
580.938	369.95
581.361	264.63
581.784	299.73
582.206	309.1
582.629	346.55
583.052	297.39
583.474	266.97
583.897	304.42
584.32	369.95
584.742	281.01
585.165	316.12
585.587	306.76
586.009	302.08
586.431	264.63
586.854	252.92
587.276	306.76
587.698	316.12
588.12	341.86
588.542	313.78
588.964	252.92
589.386	297.39
589.807	320.8
590.229	311.44
590.651	278.67
591.073	276.33
591.494	302.08
591.916	332.5
592.337	355.91
592.759	311.44
593.18	245.9
593.601	332.5
594.022	292.71
594.444	351.23
594.865	295.05
595.286	276.33
595.707	292.71
596.128	346.55
596.549	311.44
596.97	320.8
597.39	292.71
597.811	304.42
598.232	299.73
598.652	238.88
599.073	337.18
599.494	369.95
599.914	288.03
600.334	327.82
600.755	288.03
601.175	332.5
601.595	358.25
602.015	297.39
602.436	365.27
602.856	367.61
603.276	353.57
603.696	355.91
604.115	306.76
604.535	290.37
604.955	281.01
605.375	311.44
605.794	318.46
606.214	288.03
606.634	341.86
607.053	290.37
607.473	313.78
607.892	318.46
608.311	405.06
608.731	330.16
609.15	360.59
609.569	325.48
609.988	304.42
610.407	369.95
610.826	388.68
611.245	325.48
611.664	311.44
612.083	278.67
612.501	241.22
612.92	297.39
613.339	302.08
613.757	290.37
614.176	316.12
614.594	302.08
615.013	306.76
615.431	327.82
615.85	262.29
616.268	297.39
616.686	276.33
617.104	302.08
617.522	285.69
617.94	337.18
618.358	245.9
618.776	348.89
619.194	327.82
619.612	362.93
620.03	332.5
620.447	295.05
620.865	365.27
621.282	351.23
621.7	353.57
622.117	320.8
622.535	292.71
622.952	299.73
623.369	372.29
623.787	353.57
624.204	271.65
624.621	346.55
625.038	332.5
625.455	353.57
625.872	302.08
626.289	266.97
626.706	313.78
627.123	330.16
627.539	391.02
627.956	327.82
628.373	372.29
628.789	330.16
629.206	271.65
629.622	339.52
630.038	318.46
630.455	353.57
630.871	332.5
631.287	285.69
631.703	327.82
632.12	318.46
632.536	292.71
632.952	330.16
633.368	306.76
633.783	337.18
634.199	266.97
634.615	281.01
635.031	323.14
635.446	306.76
635.862	266.97
636.277	297.39
636.693	369.95
637.108	292.71
637.524	339.52
637.939	283.35
638.354	334.84
638.77	283.35
639.185	369.95
639.6	337.18
640.015	355.91
640.43	302.08
640.845	374.63
641.259	311.44
641.674	299.73
642.089	295.05
642.504	281.01
642.918	266.97
643.333	337.18
643.747	327.82
644.162	273.99
644.576	285.69
644.991	348.89
645.405	388.68
645.819	323.14
646.233	318.46
646.647	283.35
647.061	337.18
647.475	283.35
647.889	353.57
648.303	355.91
648.717	290.37
649.131	304.42
649.545	262.29
649.958	316.12
650.372	351.23
650.785	304.42
651.199	311.44
651.612	295.05
652.026	367.61
652.439	245.9
652.852	316.12
653.266	318.46
653.679	302.08
654.092	313.78
654.505	299.73
654.918	306.76
655.331	360.59
655.744	383.99
656.156	311.44
656.569	379.31
656.982	311.44
657.394	288.03
657.807	304.42
658.22	341.86
658.632	316.12
659.044	337.18
659.457	259.95
659.869	330.16
660.281	302.08
660.693	344.21
661.106	327.82
661.518	325.48
661.93	313.78
662.342	323.14
662.754	306.76
663.165	323.14
663.577	353.57
663.989	311.44
664.401	325.48
664.812	278.67
665.224	273.99
665.635	334.84
666.047	323.14
666.458	283.35
666.869	297.39
667.281	337.18
667.692	306.76
668.103	236.54
668.514	323.14
668.925	358.25
669.336	341.86
669.747	325.48
670.158	285.69
670.569	245.9
670.979	313.78
671.39	302.08
671.801	325.48
672.211	372.29
672.622	341.86
673.032	292.71
673.443	332.5
673.853	316.12
674.263	372.29
674.674	372.29
675.084	285.69
675.494	288.03
675.904	344.21
676.314	283.35
676.724	339.52
677.134	302.08
677.544	273.99
677.953	283.35
678.363	309.1
678.773	369.95
679.182	346.55
679.592	355.91
680.001	360.59
680.411	299.73
680.82	358.25
681.23	257.61
681.639	299.73
682.048	339.52
682.457	313.78
682.866	398.04
683.275	330.16
683.684	295.05
684.093	313.78
684.502	400.38
684.911	362.93
685.32	281.01
685.728	311.44
686.137	283.35
686.546	325.48
686.954	297.39
687.363	266.97
687.771	271.65
688.179	304.42
688.588	306.76
688.996	250.58
689.404	362.93
689.812	323.14
690.22	288.03
690.628	297.39
691.036	316.12
691.444	316.12
691.852	264.63
692.26	288.03
692.667	297.39
693.075	269.31
693.483	292.71
693.89	276.33
694.298	273.99
694.705	320.8
695.112	339.52
695.52	365.27
695.927	348.89
696.334	299.73
696.741	365.27
697.148	351.23
697.555	341.86
697.962	299.73
698.369	304.42
698.776	304.42
699.183	297.39
699.59	325.48
699.996	323.14
700.403	344.21
700.81	311.44
701.216	297.39
701.623	306.76
702.029	348.89
702.435	320.8
702.842	313.78
703.248	330.16
703.654	316.12
704.06	346.55
704.466	341.86
704.872	391.02
705.278	341.86
705.684	325.48
706.09	383.99
706.496	311.44
706.901	344.21
707.307	334.84
707.712	325.48
708.118	309.1
708.523	285.69
708.929	278.67
709.334	306.76
709.74	339.52
710.145	304.42
710.55	297.39
710.955	278.67
711.36	264.63
711.765	323.14
712.17	325.48
712.575	292.71
712.98	910.61
713.385	299.73
713.789	334.84
714.194	330.16
714.599	276.33
715.003	383.99
715.408	299.73
715.812	353.57
716.217	383.99
716.621	386.33
717.025	299.73
717.429	266.97
717.833	288.03
718.238	299.73
718.642	318.46
719.046	257.61
719.449	353.57
719.853	320.8
720.257	337.18
720.661	295.05
721.065	334.84
721.468	362.93
721.872	281.01
722.275	271.65
722.679	302.08
723.082	334.84
723.485	227.18
723.889	337.18
724.292	351.23
724.695	304.42
725.098	362.93
725.501	295.05
725.904	281.01
726.307	273.99
726.71	367.61
727.113	297.39
727.516	339.52
727.918	313.78
728.321	309.1
728.724	351.23
729.126	367.61
729.529	369.95
729.931	395.7
730.333	374.63
730.736	292.71
731.138	299.73
731.54	302.08
731.942	337.18
732.344	266.97
732.746	323.14
733.148	313.78
733.55	346.55
733.952	262.29
734.354	344.21
734.756	311.44
735.157	283.35
735.559	318.46
735.96	271.65
736.362	334.84
736.763	299.73
737.165	318.46
737.566	327.82
737.967	299.73
738.368	302.08
738.77	281.01
739.171	369.95
739.572	299.73
739.973	276.33
740.374	285.69
740.774	304.42
741.175	330.16
741.576	318.46
741.977	217.82
742.377	292.71
742.778	292.71
743.178	276.33
743.579	285.69
743.979	341.86
744.379	309.1
744.78	266.97
745.18	348.89
745.58	325.48
745.98	306.76
746.38	346.55
746.78	297.39
747.18	341.86
747.58	316.12
747.98	292.71
748.38	351.23
748.779	302.08
749.179	297.39
749.578	330.16
749.978	309.1
750.377	245.9
750.777	337.18
751.176	306.76
751.575	266.97
751.975	355.91
752.374	346.55
752.773	299.73
753.172	339.52
753.571	213.14
753.97	374.63
754.369	290.37
754.768	285.69
755.166	323.14
755.565	334.84
755.964	341.86
756.362	262.29
756.761	292.71
757.159	316.12
757.558	330.16
757.956	264.63
758.354	262.29
758.753	323.14
759.151	302.08
759.549	285.69
759.947	290.37
760.345	318.46
760.743	297.39
761.141	309.1
761.539	339.52
761.936	285.69
762.334	318.46
762.732	325.48
763.129	304.42
763.527	369.95
763.924	367.61
