Data from Al_FLMS009871__551__14-43-33-920.txt Node

Date: Fri Mar 08 14:43:33 CST 2024
User: pe5414po
Spectrometer: FLMS00987
Trigger mode: 0
Integration Time (sec): 1.000000E-1
Scans to average: 1
Electric dark correction enabled: true
Nonlinearity correction enabled: false
Boxcar width: 0
XAxis mode: Wavelengths
Number of Pixels in Spectrum: 2048
>>>>>Begin Spectral Data<<<<<
188.938	-80.46
189.409	-80.46
189.879	-80.46
190.349	-129.61
190.819	-106.2
191.29	-134.29
191.76	-12.58
192.23	-87.48
192.7	-108.54
193.17	-12.58
193.64	-50.03
194.109	-26.62
194.579	1.46
195.049	-3.22
195.519	-12.58
195.988	76.36
196.458	13.17
196.927	55.3
197.397	81.04
197.866	90.4
198.336	130.19
198.805	202.75
199.274	116.15
199.744	174.66
200.213	202.75
200.682	233.18
201.151	249.56
201.62	315.09
202.089	226.15
202.558	240.2
203.027	294.03
203.495	240.2
203.964	258.92
204.433	251.9
204.902	301.05
205.37	268.28
205.839	310.41
206.307	333.82
206.776	350.2
207.244	308.07
207.712	254.24
208.181	322.12
208.649	343.18
209.117	343.18
209.585	284.67
210.053	251.9
210.521	352.54
210.989	301.05
211.457	249.56
211.925	324.46
212.393	275.31
212.861	268.28
213.328	284.67
213.796	282.33
214.264	240.2
214.731	301.05
215.199	282.33
215.666	230.84
216.133	256.58
216.601	282.33
217.068	256.58
217.535	294.03
218.003	282.33
218.47	277.65
218.937	317.44
219.404	301.05
219.871	296.37
220.338	261.26
220.805	249.56
221.271	345.52
221.738	242.54
222.205	249.56
222.671	251.9
223.138	277.65
223.605	303.39
224.071	233.18
224.538	277.65
225.004	214.45
225.47	371.27
225.937	315.09
226.403	223.81
226.869	277.65
227.335	303.39
227.801	258.92
228.267	315.09
228.733	294.03
229.199	310.41
229.665	296.37
230.131	277.65
230.597	258.92
231.062	244.88
231.528	205.09
231.994	315.09
232.459	324.46
232.925	305.73
233.39	233.18
233.856	303.39
234.321	202.75
234.786	296.37
235.252	329.14
235.717	308.07
236.182	324.46
236.647	277.65
237.112	296.37
237.577	191.05
238.042	233.18
238.507	315.09
238.972	333.82
239.436	291.69
239.901	315.09
240.366	265.94
240.83	244.88
241.295	291.69
241.76	298.71
242.224	240.2
242.688	338.5
243.153	354.88
243.617	233.18
244.081	294.03
244.545	361.91
245.01	298.71
245.474	279.99
245.938	326.8
246.402	230.84
246.866	207.43
247.33	373.61
247.793	237.86
248.257	298.71
248.721	268.28
249.185	322.12
249.648	294.03
250.112	287.01
250.575	247.22
251.039	352.54
251.502	282.33
251.965	310.41
252.429	254.24
252.892	258.92
253.355	258.92
253.818	279.99
254.281	289.35
254.744	251.9
255.207	296.37
255.67	329.14
256.133	289.35
256.596	298.71
257.059	275.31
257.522	324.46
257.984	294.03
258.447	294.03
258.909	279.99
259.372	305.73
259.834	254.24
260.297	305.73
260.759	249.56
261.221	294.03
261.684	272.96
262.146	261.26
262.608	263.6
263.07	272.96
263.532	254.24
263.994	331.48
264.456	382.97
264.918	317.44
265.38	326.8
265.842	275.31
266.303	408.72
266.765	345.52
267.227	279.99
267.688	308.07
268.15	254.24
268.611	287.01
269.072	289.35
269.534	340.84
269.995	298.71
270.456	308.07
270.918	268.28
271.379	308.07
271.84	319.78
272.301	354.88
272.762	364.25
273.223	258.92
273.684	294.03
274.144	382.97
274.605	303.39
275.066	350.2
275.527	319.78
275.987	366.59
276.448	326.8
276.908	324.46
277.369	263.6
277.829	308.07
278.289	275.31
278.75	364.25
279.21	296.37
279.67	223.81
280.13	364.25
280.59	305.73
281.05	284.67
281.51	305.73
281.97	340.84
282.43	317.44
282.89	315.09
283.35	301.05
283.809	310.41
284.269	305.73
284.729	406.38
285.188	240.2
285.648	331.48
286.107	279.99
286.567	329.14
287.026	301.05
287.485	287.01
287.944	380.63
288.404	275.31
288.863	378.29
289.322	261.26
289.781	319.78
290.24	352.54
290.699	324.46
291.158	319.78
291.616	382.97
292.075	303.39
292.534	282.33
292.992	361.91
293.451	345.52
293.91	294.03
294.368	315.09
294.827	326.8
295.285	329.14
295.743	331.48
296.202	310.41
296.66	357.22
297.118	308.07
297.576	317.44
298.034	291.69
298.492	336.16
298.95	275.31
299.408	364.25
299.866	270.62
300.324	331.48
300.781	270.62
301.239	352.54
301.697	298.71
302.154	265.94
302.612	277.65
303.069	354.88
303.527	319.78
303.984	270.62
304.441	324.46
304.899	296.37
305.356	279.99
305.813	331.48
306.27	256.58
306.727	324.46
307.184	263.6
307.641	294.03
308.098	343.18
308.555	352.54
309.012	319.78
309.468	294.03
309.925	324.46
310.382	324.46
310.838	277.65
311.295	317.44
311.751	282.33
312.208	263.6
312.664	333.82
313.12	277.65
313.577	345.52
314.033	298.71
314.489	298.71
314.945	338.5
315.401	315.09
315.857	331.48
316.313	275.31
316.769	364.25
317.225	326.8
317.681	296.37
318.136	277.65
318.592	385.31
319.048	289.35
319.503	275.31
319.959	287.01
320.414	310.41
320.869	312.75
321.325	364.25
321.78	301.05
322.235	301.05
322.691	308.07
323.146	347.86
323.601	303.39
324.056	317.44
324.511	336.16
324.966	265.94
325.421	279.99
325.875	254.24
326.33	308.07
326.785	298.71
327.24	291.69
327.694	303.39
328.149	308.07
328.603	303.39
329.058	279.99
329.512	331.48
329.966	385.31
330.421	312.75
330.875	352.54
331.329	326.8
331.783	305.73
332.237	317.44
332.691	277.65
333.145	277.65
333.599	354.88
334.053	305.73
334.507	359.56
334.96	296.37
335.414	324.46
335.868	322.12
336.321	291.69
336.775	296.37
337.228	352.54
337.682	291.69
338.135	305.73
338.588	279.99
339.042	329.14
339.495	310.41
339.948	326.8
340.401	263.6
340.854	359.56
341.307	312.75
341.76	322.12
342.213	364.25
342.666	326.8
343.119	268.28
343.571	352.54
344.024	371.27
344.477	359.56
344.929	308.07
345.382	305.73
345.834	352.54
346.287	282.33
346.739	333.82
347.191	247.22
347.644	324.46
348.096	352.54
348.548	298.71
349	352.54
349.452	319.78
349.904	324.46
350.356	315.09
350.808	336.16
351.26	347.86
351.711	326.8
352.163	310.41
352.615	319.78
353.066	387.65
353.518	345.52
353.969	326.8
354.421	359.56
354.872	270.62
355.324	287.01
355.775	284.67
356.226	312.75
356.677	324.46
357.128	331.48
357.579	310.41
358.03	343.18
358.481	385.31
358.932	380.63
359.383	254.24
359.834	336.16
360.285	333.82
360.735	275.31
361.186	338.5
361.637	326.8
362.087	322.12
362.538	352.54
362.988	338.5
363.438	284.67
363.889	322.12
364.339	333.82
364.789	315.09
365.239	308.07
365.689	343.18
366.139	272.96
366.589	268.28
367.039	305.73
367.489	354.88
367.939	343.18
368.389	336.16
368.839	291.69
369.288	357.22
369.738	303.39
370.187	352.54
370.637	354.88
371.086	350.2
371.536	345.52
371.985	287.01
372.434	329.14
372.884	284.67
373.333	361.91
373.782	303.39
374.231	319.78
374.68	350.2
375.129	291.69
375.578	240.2
376.027	319.78
376.475	326.8
376.924	380.63
377.373	312.75
377.822	296.37
378.27	392.33
378.719	322.12
379.167	375.95
379.616	347.86
380.064	329.14
380.512	368.93
380.961	352.54
381.409	364.25
381.857	308.07
382.305	326.8
382.753	338.5
383.201	343.18
383.649	326.8
384.097	373.61
384.545	247.22
384.992	326.8
385.44	347.86
385.888	317.44
386.335	322.12
386.783	315.09
387.231	326.8
387.678	317.44
388.125	373.61
388.573	315.09
389.02	338.5
389.467	303.39
389.914	233.18
390.362	308.07
390.809	329.14
391.256	322.12
391.703	319.78
392.15	354.88
392.596	322.12
393.043	326.8
393.49	324.46
393.937	256.58
394.383	312.75
394.83	315.09
395.276	284.67
395.723	375.95
396.169	357.22
396.616	338.5
397.062	287.01
397.508	310.41
397.954	308.07
398.401	308.07
398.847	312.75
399.293	301.05
399.739	364.25
400.185	294.03
400.631	317.44
401.076	272.96
401.522	331.48
401.968	368.93
402.414	333.82
402.859	294.03
403.305	308.07
403.75	324.46
404.196	301.05
404.641	287.01
405.086	296.37
405.532	336.16
405.977	338.5
406.422	336.16
406.867	310.41
407.312	389.99
407.757	359.56
408.202	326.8
408.647	382.97
409.092	368.93
409.537	333.82
409.982	324.46
410.426	312.75
410.871	387.65
411.316	287.01
411.76	291.69
412.205	338.5
412.649	371.27
413.093	338.5
413.538	343.18
413.982	298.71
414.426	261.26
414.87	296.37
415.314	275.31
415.758	394.67
416.202	364.25
416.646	312.75
417.09	385.31
417.534	366.59
417.978	294.03
418.421	354.88
418.865	315.09
419.309	326.8
419.752	289.35
420.196	324.46
420.639	322.12
421.083	249.56
421.526	373.61
421.969	336.16
422.412	324.46
422.856	380.63
423.299	338.5
423.742	336.16
424.185	284.67
424.628	333.82
425.071	357.22
425.513	303.39
425.956	373.61
426.399	343.18
426.842	305.73
427.284	350.2
427.727	296.37
428.169	368.93
428.612	319.78
429.054	357.22
429.497	324.46
429.939	333.82
430.381	347.86
430.823	345.52
431.265	308.07
431.707	329.14
432.149	380.63
432.591	261.26
433.033	294.03
433.475	298.71
433.917	340.84
434.359	338.5
434.8	359.56
435.242	352.54
435.684	289.35
436.125	291.69
436.567	284.67
437.008	319.78
437.449	277.65
437.891	415.74
438.332	308.07
438.773	272.96
439.214	322.12
439.656	329.14
440.097	324.46
440.538	429.78
440.978	308.07
441.419	315.09
441.86	364.25
442.301	268.28
442.742	308.07
443.182	345.52
443.623	291.69
444.063	289.35
444.504	291.69
444.944	368.93
445.385	350.2
445.825	317.44
446.265	331.48
446.706	303.39
447.146	310.41
447.586	296.37
448.026	368.93
448.466	291.69
448.906	343.18
449.346	350.2
449.786	319.78
450.225	310.41
450.665	322.12
451.105	315.09
451.544	343.18
451.984	317.44
452.424	345.52
452.863	296.37
453.302	272.96
453.742	371.27
454.181	322.12
454.62	392.33
455.059	338.5
455.499	368.93
455.938	315.09
456.377	305.73
456.816	312.75
457.254	312.75
457.693	296.37
458.132	296.37
458.571	258.92
459.01	361.91
459.448	371.27
459.887	329.14
460.325	287.01
460.764	301.05
461.202	338.5
461.641	338.5
462.079	270.62
462.517	371.27
462.955	350.2
463.393	279.99
463.832	340.84
464.27	322.12
464.708	310.41
465.145	343.18
465.583	289.35
466.021	282.33
466.459	287.01
466.897	340.84
467.334	296.37
467.772	350.2
468.209	256.58
468.647	371.27
469.084	315.09
469.522	319.78
469.959	352.54
470.396	319.78
470.833	343.18
471.271	338.5
471.708	350.2
472.145	301.05
472.582	317.44
473.019	315.09
473.456	322.12
473.892	305.73
474.329	303.39
474.766	397.01
475.202	301.05
475.639	324.46
476.076	352.54
476.512	272.96
476.949	272.96
477.385	256.58
477.821	315.09
478.258	305.73
478.694	322.12
479.13	279.99
479.566	287.01
480.002	310.41
480.438	319.78
480.874	347.86
481.31	354.88
481.746	282.33
482.181	350.2
482.617	340.84
483.053	326.8
483.488	354.88
483.924	368.93
484.36	380.63
484.795	347.86
485.23	340.84
485.666	378.29
486.101	277.65
486.536	310.41
486.971	340.84
487.407	329.14
487.842	347.86
488.277	399.35
488.712	345.52
489.146	361.91
489.581	326.8
490.016	340.84
490.451	338.5
490.885	359.56
491.32	371.27
491.755	336.16
492.189	347.86
492.624	303.39
493.058	282.33
493.492	352.54
493.927	336.16
494.361	312.75
494.795	343.18
495.229	340.84
495.663	310.41
496.097	336.16
496.531	371.27
496.965	329.14
497.399	361.91
497.833	350.2
498.266	368.93
498.7	375.95
499.134	326.8
499.567	301.05
500.001	375.95
500.434	319.78
500.868	265.94
501.301	368.93
501.734	317.44
502.168	359.56
502.601	312.75
503.034	338.5
503.467	329.14
503.9	298.71
504.333	324.46
504.766	310.41
505.199	336.16
505.632	401.69
506.064	331.48
506.497	277.65
506.93	279.99
507.362	303.39
507.795	364.25
508.227	226.15
508.66	357.22
509.092	308.07
509.524	324.46
509.956	359.56
510.389	354.88
510.821	364.25
511.253	303.39
511.685	380.63
512.117	343.18
512.549	284.67
512.981	308.07
513.412	385.31
513.844	329.14
514.276	296.37
514.707	333.82
515.139	336.16
515.571	308.07
516.002	354.88
516.433	305.73
516.865	315.09
517.296	317.44
517.727	340.84
518.159	308.07
518.59	324.46
519.021	291.69
519.452	279.99
519.883	296.37
520.314	336.16
520.744	324.46
521.175	354.88
521.606	382.97
522.037	287.01
522.467	354.88
522.898	394.67
523.328	308.07
523.759	308.07
524.189	338.5
524.62	303.39
525.05	317.44
525.48	336.16
525.91	326.8
526.341	308.07
526.771	277.65
527.201	265.94
527.631	317.44
528.061	326.8
528.49	279.99
528.92	296.37
529.35	287.01
529.78	340.84
530.209	364.25
530.639	354.88
531.068	296.37
531.498	333.82
531.927	324.46
532.357	406.38
532.786	298.71
533.215	258.92
533.644	296.37
534.074	282.33
534.503	315.09
534.932	359.56
535.361	329.14
535.79	361.91
536.218	326.8
536.647	282.33
537.076	343.18
537.505	298.71
537.933	385.31
538.362	317.44
538.79	373.61
539.219	319.78
539.647	298.71
540.076	270.62
540.504	294.03
540.932	354.88
541.36	298.71
541.788	340.84
542.217	308.07
542.645	343.18
543.073	350.2
543.5	368.93
543.928	333.82
544.356	265.94
544.784	333.82
545.211	361.91
545.639	310.41
546.067	305.73
546.494	324.46
546.922	343.18
547.349	296.37
547.776	298.71
548.204	333.82
548.631	315.09
549.058	268.28
549.485	305.73
549.912	289.35
550.339	361.91
550.766	287.01
551.193	305.73
551.62	315.09
552.047	364.25
552.474	193.39
552.9	338.5
553.327	268.28
553.754	287.01
554.18	340.84
554.607	268.28
555.033	298.71
555.459	361.91
555.886	305.73
556.312	347.86
556.738	268.28
557.164	326.8
557.59	287.01
558.016	268.28
558.442	336.16
558.868	296.37
559.294	364.25
559.72	305.73
560.145	296.37
560.571	317.44
560.997	305.73
561.422	289.35
561.848	315.09
562.273	319.78
562.699	251.9
563.124	343.18
563.549	317.44
563.974	380.63
564.4	354.88
564.825	294.03
565.25	361.91
565.675	294.03
566.1	361.91
566.525	345.52
566.95	338.5
567.374	333.82
567.799	296.37
568.224	305.73
568.648	298.71
569.073	317.44
569.497	296.37
569.922	352.54
570.346	324.46
570.771	298.71
571.195	289.35
571.619	291.69
572.043	277.65
572.467	380.63
572.891	340.84
573.315	298.71
573.739	345.52
574.163	338.5
574.587	361.91
575.011	394.67
575.435	340.84
575.858	354.88
576.282	364.25
576.705	324.46
577.129	336.16
577.552	357.22
577.976	308.07
578.399	326.8
578.822	389.99
579.245	354.88
579.669	392.33
580.092	298.71
580.515	242.54
580.938	329.14
581.361	270.62
581.784	251.9
582.206	308.07
582.629	308.07
583.052	279.99
583.474	279.99
583.897	279.99
584.32	340.84
584.742	289.35
585.165	345.52
585.587	256.58
586.009	340.84
586.431	296.37
586.854	331.48
587.276	317.44
587.698	324.46
588.12	366.59
588.542	361.91
588.964	324.46
589.386	298.71
589.807	333.82
590.229	359.56
590.651	371.27
591.073	361.91
591.494	397.01
591.916	352.54
592.337	343.18
592.759	361.91
593.18	258.92
593.601	319.78
594.022	268.28
594.444	305.73
594.865	305.73
595.286	282.33
595.707	317.44
596.128	371.27
596.549	301.05
596.97	343.18
597.39	308.07
597.811	354.88
598.232	277.65
598.652	294.03
599.073	352.54
599.494	368.93
599.914	354.88
600.334	333.82
600.755	296.37
601.175	305.73
601.595	277.65
602.015	350.2
602.436	324.46
602.856	413.4
603.276	277.65
603.696	296.37
604.115	301.05
604.535	357.22
604.955	392.33
605.375	324.46
605.794	324.46
606.214	326.8
606.634	298.71
607.053	294.03
607.473	361.91
607.892	319.78
608.311	345.52
608.731	294.03
609.15	366.59
609.569	287.01
609.988	256.58
610.407	326.8
610.826	296.37
611.245	322.12
611.664	305.73
612.083	357.22
612.501	331.48
612.92	333.82
613.339	324.46
613.757	329.14
614.176	336.16
614.594	347.86
615.013	310.41
615.431	333.82
615.85	411.06
616.268	331.48
616.686	345.52
617.104	368.93
617.522	338.5
617.94	331.48
618.358	371.27
618.776	336.16
619.194	324.46
619.612	350.2
620.03	315.09
620.447	399.35
620.865	326.8
621.282	291.69
621.7	296.37
622.117	371.27
622.535	357.22
622.952	345.52
623.369	354.88
623.787	291.69
624.204	380.63
624.621	279.99
625.038	340.84
625.455	326.8
625.872	345.52
626.289	347.86
626.706	336.16
627.123	329.14
627.539	322.12
627.956	331.48
628.373	331.48
628.789	312.75
629.206	317.44
629.622	315.09
630.038	329.14
630.455	338.5
630.871	277.65
631.287	382.97
631.703	333.82
632.12	373.61
632.536	308.07
632.952	324.46
633.368	345.52
633.783	343.18
634.199	298.71
634.615	354.88
635.031	352.54
635.446	298.71
635.862	315.09
636.277	378.29
636.693	364.25
637.108	272.96
637.524	354.88
637.939	277.65
638.354	319.78
638.77	378.29
639.185	382.97
639.6	359.56
640.015	305.73
640.43	331.48
640.845	291.69
641.259	308.07
641.674	277.65
642.089	315.09
642.504	287.01
642.918	326.8
643.333	382.97
643.747	268.28
644.162	389.99
644.576	296.37
644.991	308.07
645.405	350.2
645.819	268.28
646.233	347.86
646.647	338.5
647.061	373.61
647.475	305.73
647.889	301.05
648.303	308.07
648.717	354.88
649.131	322.12
649.545	357.22
649.958	317.44
650.372	354.88
650.785	322.12
651.199	338.5
651.612	354.88
652.026	373.61
652.439	345.52
652.852	296.37
653.266	345.52
653.679	298.71
654.092	401.69
654.505	359.56
654.918	296.37
655.331	284.67
655.744	298.71
656.156	364.25
656.569	291.69
656.982	324.46
657.394	333.82
657.807	261.26
658.22	336.16
658.632	312.75
659.044	315.09
659.457	310.41
659.869	317.44
660.281	322.12
660.693	315.09
661.106	301.05
661.518	265.94
661.93	289.35
662.342	352.54
662.754	408.72
663.165	270.62
663.577	291.69
663.989	364.25
664.401	338.5
664.812	319.78
665.224	326.8
665.635	298.71
666.047	354.88
666.458	308.07
666.869	350.2
667.281	373.61
667.692	312.75
668.103	364.25
668.514	368.93
668.925	301.05
669.336	322.12
669.747	347.86
670.158	359.56
670.569	287.01
670.979	336.16
671.39	338.5
671.801	322.12
672.211	343.18
672.622	338.5
673.032	345.52
673.443	368.93
673.853	296.37
674.263	333.82
674.674	350.2
675.084	350.2
675.494	305.73
675.904	301.05
676.314	305.73
676.724	357.22
677.134	272.96
677.544	338.5
677.953	326.8
678.363	347.86
678.773	326.8
679.182	298.71
679.592	359.56
680.001	284.67
680.411	364.25
680.82	312.75
681.23	364.25
681.639	352.54
682.048	338.5
682.457	359.56
682.866	272.96
683.275	382.97
683.684	315.09
684.093	322.12
684.502	305.73
684.911	298.71
685.32	294.03
685.728	263.6
686.137	315.09
686.546	338.5
686.954	303.39
687.363	249.56
687.771	322.12
688.179	333.82
688.588	298.71
688.996	291.69
689.404	352.54
689.812	324.46
690.22	291.69
690.628	326.8
691.036	289.35
691.444	329.14
691.852	291.69
692.26	331.48
692.667	331.48
693.075	289.35
693.483	354.88
693.89	345.52
694.298	343.18
694.705	366.59
695.112	317.44
695.52	298.71
695.927	261.26
696.334	333.82
696.741	317.44
697.148	331.48
697.555	345.52
697.962	345.52
698.369	305.73
698.776	261.26
699.183	361.91
699.59	373.61
699.996	326.8
700.403	324.46
700.81	322.12
701.216	301.05
701.623	364.25
702.029	275.31
702.435	329.14
702.842	366.59
703.248	308.07
703.654	322.12
704.06	343.18
704.466	317.44
704.872	340.84
705.278	298.71
705.684	305.73
706.09	347.86
706.496	326.8
706.901	324.46
707.307	265.94
707.712	287.01
708.118	326.8
708.523	336.16
708.929	333.82
709.334	399.35
709.74	375.95
710.145	322.12
710.55	336.16
710.955	305.73
711.36	305.73
711.765	312.75
712.17	291.69
712.575	336.16
712.98	787.88
713.385	333.82
713.789	268.28
714.194	298.71
714.599	308.07
715.003	364.25
715.408	287.01
715.812	324.46
716.217	251.9
716.621	336.16
717.025	317.44
717.429	357.22
717.833	296.37
718.238	373.61
718.642	284.67
719.046	331.48
719.449	392.33
719.853	301.05
720.257	387.65
720.661	319.78
721.065	366.59
721.468	336.16
721.872	382.97
722.275	319.78
722.679	261.26
723.082	368.93
723.485	336.16
723.889	336.16
724.292	242.54
724.695	233.18
725.098	268.28
725.501	373.61
725.904	308.07
726.307	294.03
726.71	270.62
727.113	380.63
727.516	317.44
727.918	350.2
728.321	315.09
728.724	326.8
729.126	389.99
729.529	378.29
729.931	352.54
730.333	357.22
730.736	322.12
731.138	352.54
731.54	324.46
731.942	254.24
732.344	284.67
732.746	343.18
733.148	347.86
733.55	371.27
733.952	345.52
734.354	333.82
734.756	324.46
735.157	256.58
735.559	277.65
735.96	336.16
736.362	366.59
736.763	310.41
737.165	315.09
737.566	305.73
737.967	350.2
738.368	340.84
738.77	242.54
739.171	375.95
739.572	333.82
739.973	315.09
740.374	310.41
740.774	345.52
741.175	331.48
741.576	305.73
741.977	352.54
742.377	275.31
742.778	336.16
743.178	366.59
743.579	258.92
743.979	291.69
744.379	361.91
744.78	326.8
745.18	364.25
745.58	319.78
745.98	298.71
746.38	338.5
746.78	345.52
747.18	256.58
747.58	382.97
747.98	336.16
748.38	256.58
748.779	326.8
749.179	277.65
749.578	345.52
749.978	368.93
750.377	357.22
750.777	308.07
751.176	352.54
751.575	298.71
751.975	329.14
752.374	312.75
752.773	322.12
753.172	291.69
753.571	279.99
753.97	331.48
754.369	310.41
754.768	305.73
755.166	303.39
755.565	312.75
755.964	347.86
756.362	312.75
756.761	315.09
757.159	249.56
757.558	324.46
757.956	317.44
758.354	338.5
758.753	310.41
759.151	394.67
759.549	343.18
759.947	340.84
760.345	350.2
760.743	303.39
761.141	340.84
761.539	338.5
761.936	305.73
762.334	375.95
762.732	277.65
763.129	389.99
763.527	289.35
763.924	333.82
764.322	401.69
764.719	375.95
