Data from Al_FLMS009871__541__14-43-32-920.txt Node

Date: Fri Mar 08 14:43:32 CST 2024
User: pe5414po
Spectrometer: FLMS00987
Trigger mode: 0
Integration Time (sec): 1.000000E-1
Scans to average: 1
Electric dark correction enabled: true
Nonlinearity correction enabled: false
Boxcar width: 0
XAxis mode: Wavelengths
Number of Pixels in Spectrum: 2048
>>>>>Begin Spectral Data<<<<<
188.938	-139.99
189.409	-139.99
189.879	-139.99
190.349	-135.31
190.819	-125.95
191.29	-86.16
191.76	-102.54
192.23	-53.39
192.7	-55.73
193.17	-74.46
193.64	-29.99
194.109	-90.84
194.579	-46.37
195.049	-34.67
195.519	26.18
195.988	21.5
196.458	33.21
196.927	73
197.397	117.47
197.866	129.17
198.336	173.64
198.805	173.64
199.274	175.98
199.744	164.28
200.213	260.24
200.682	187.68
201.151	173.64
201.62	218.11
202.089	253.22
202.558	143.21
203.027	311.73
203.495	295.35
203.964	271.94
204.433	204.07
204.902	295.35
205.37	318.75
205.839	271.94
206.307	316.41
206.776	321.09
207.244	239.17
207.712	339.82
208.181	269.6
208.649	260.24
209.117	314.07
209.585	314.07
210.053	295.35
210.521	278.96
210.989	283.64
211.457	257.9
211.925	281.3
212.393	239.17
212.861	283.64
213.328	295.35
213.796	309.39
214.264	260.24
214.731	300.03
215.199	276.62
215.666	351.52
216.133	283.64
216.601	269.6
217.068	213.43
217.535	206.41
218.003	215.77
218.47	300.03
218.937	278.96
219.404	255.56
219.871	260.24
220.338	260.24
220.805	250.88
221.271	246.2
221.738	257.9
222.205	302.37
222.671	264.92
223.138	199.38
223.605	290.67
224.071	225.13
224.538	178.32
225.004	234.49
225.47	197.04
225.937	269.6
226.403	241.51
226.869	316.41
227.335	222.79
227.801	241.51
228.267	264.92
228.733	236.83
229.199	264.92
229.665	325.77
230.131	236.83
230.597	276.62
231.062	225.13
231.528	271.94
231.994	166.62
232.459	234.49
232.925	220.45
233.39	274.28
233.856	250.88
234.321	241.51
234.786	278.96
235.252	276.62
235.717	211.09
236.182	218.11
236.647	246.2
237.112	283.64
237.577	248.54
238.042	239.17
238.507	206.41
238.972	225.13
239.436	206.41
239.901	225.13
240.366	267.26
240.83	227.47
241.295	246.2
241.76	307.05
242.224	316.41
242.688	304.71
243.153	271.94
243.617	243.85
244.081	293.01
244.545	297.69
245.01	215.77
245.474	288.32
245.938	297.69
246.402	225.13
246.866	283.64
247.33	236.83
247.793	302.37
248.257	293.01
248.721	269.6
249.185	290.67
249.648	262.58
250.112	248.54
250.575	225.13
251.039	297.69
251.502	241.51
251.965	316.41
252.429	262.58
252.892	283.64
253.355	264.92
253.818	283.64
254.281	283.64
254.744	293.01
255.207	295.35
255.67	234.49
256.133	323.43
256.596	257.9
257.059	253.22
257.522	271.94
257.984	269.6
258.447	267.26
258.909	234.49
259.372	241.51
259.834	241.51
260.297	297.69
260.759	285.98
261.221	255.56
261.684	344.5
262.146	293.01
262.608	274.28
263.07	262.58
263.532	290.67
263.994	222.79
264.456	285.98
264.918	295.35
265.38	246.2
265.842	232.15
266.303	293.01
266.765	332.79
267.227	248.54
267.688	262.58
268.15	278.96
268.611	309.39
269.072	229.81
269.534	267.26
269.995	316.41
270.456	283.64
270.918	325.77
271.379	234.49
271.84	257.9
272.301	227.47
272.762	257.9
273.223	302.37
273.684	250.88
274.144	253.22
274.605	300.03
275.066	262.58
275.527	281.3
275.987	269.6
276.448	339.82
276.908	321.09
277.369	288.32
277.829	278.96
278.289	278.96
278.75	300.03
279.21	271.94
279.67	288.32
280.13	255.56
280.59	293.01
281.05	278.96
281.51	302.37
281.97	236.83
282.43	318.75
282.89	290.67
283.35	293.01
283.809	253.22
284.269	328.11
284.729	307.05
285.188	283.64
285.648	257.9
286.107	274.28
286.567	297.69
287.026	250.88
287.485	304.71
287.944	243.85
288.404	262.58
288.863	283.64
289.322	339.82
289.781	332.79
290.24	250.88
290.699	316.41
291.158	332.79
291.616	257.9
292.075	295.35
292.534	274.28
292.992	269.6
293.451	229.81
293.91	304.71
294.368	304.71
294.827	290.67
295.285	316.41
295.743	300.03
296.202	346.84
296.66	290.67
297.118	278.96
297.576	302.37
298.034	218.11
298.492	339.82
298.95	330.45
299.408	269.6
299.866	328.11
300.324	300.03
300.781	271.94
301.239	360.88
301.697	297.69
302.154	307.05
302.612	236.83
303.069	278.96
303.527	248.54
303.984	255.56
304.441	278.96
304.899	309.39
305.356	325.77
305.813	309.39
306.27	323.43
306.727	321.09
307.184	264.92
307.641	278.96
308.098	325.77
308.555	393.65
309.012	239.17
309.468	281.3
309.925	335.14
310.382	335.14
310.838	283.64
311.295	271.94
311.751	293.01
312.208	302.37
312.664	283.64
313.12	276.62
313.577	297.69
314.033	304.71
314.489	360.88
314.945	281.3
315.401	262.58
315.857	283.64
316.313	365.56
316.769	309.39
317.225	260.24
317.681	297.69
318.136	281.3
318.592	353.86
319.048	278.96
319.503	264.92
319.959	246.2
320.414	307.05
320.869	316.41
321.325	293.01
321.78	290.67
322.235	332.79
322.691	335.14
323.146	349.18
323.601	300.03
324.056	302.37
324.511	276.62
324.966	377.27
325.421	290.67
325.875	274.28
326.33	276.62
326.785	257.9
327.24	309.39
327.694	264.92
328.149	257.9
328.603	295.35
329.058	342.16
329.512	288.32
329.966	271.94
330.421	267.26
330.875	281.3
331.329	323.43
331.783	330.45
332.237	278.96
332.691	243.85
333.145	325.77
333.599	318.75
334.053	290.67
334.507	311.73
334.96	278.96
335.414	381.95
335.868	321.09
336.321	255.56
336.775	309.39
337.228	335.14
337.682	311.73
338.135	314.07
338.588	300.03
339.042	283.64
339.495	288.32
339.948	337.48
340.401	276.62
340.854	321.09
341.307	262.58
341.76	293.01
342.213	349.18
342.666	328.11
343.119	290.67
343.571	386.63
344.024	295.35
344.477	281.3
344.929	321.09
345.382	311.73
345.834	295.35
346.287	271.94
346.739	264.92
347.191	300.03
347.644	304.71
348.096	290.67
348.548	293.01
349	332.79
349.452	250.88
349.904	295.35
350.356	227.47
350.808	262.58
351.26	276.62
351.711	246.2
352.163	314.07
352.615	351.52
353.066	307.05
353.518	295.35
353.969	309.39
354.421	342.16
354.872	257.9
355.324	330.45
355.775	374.92
356.226	363.22
356.677	314.07
357.128	271.94
357.579	271.94
358.03	260.24
358.481	297.69
358.932	342.16
359.383	302.37
359.834	311.73
360.285	377.27
360.735	302.37
361.186	323.43
361.637	342.16
362.087	356.2
362.538	379.61
362.988	365.56
363.438	323.43
363.889	271.94
364.339	316.41
364.789	211.09
365.239	316.41
365.689	290.67
366.139	400.67
366.589	321.09
367.039	323.43
367.489	311.73
367.939	260.24
368.389	283.64
368.839	328.11
369.288	356.2
369.738	271.94
370.187	274.28
370.637	285.98
371.086	293.01
371.536	274.28
371.985	269.6
372.434	304.71
372.884	318.75
373.333	262.58
373.782	300.03
374.231	274.28
374.68	304.71
375.129	311.73
375.578	274.28
376.027	335.14
376.475	309.39
376.924	318.75
377.373	290.67
377.822	337.48
378.27	302.37
378.719	344.5
379.167	293.01
379.616	260.24
380.064	269.6
380.512	309.39
380.961	316.41
381.409	304.71
381.857	297.69
382.305	349.18
382.753	288.32
383.201	311.73
383.649	300.03
384.097	316.41
384.545	300.03
384.992	278.96
385.44	323.43
385.888	288.32
386.335	325.77
386.783	316.41
387.231	367.9
387.678	304.71
388.125	269.6
388.573	377.27
389.02	297.69
389.467	328.11
389.914	342.16
390.362	241.51
390.809	342.16
391.256	325.77
391.703	283.64
392.15	318.75
392.596	260.24
393.043	318.75
393.49	316.41
393.937	304.71
394.383	307.05
394.83	377.27
395.276	316.41
395.723	302.37
396.169	360.88
396.616	372.58
397.062	262.58
397.508	278.96
397.954	276.62
398.401	360.88
398.847	344.5
399.293	293.01
399.739	330.45
400.185	267.26
400.631	234.49
401.076	288.32
401.522	243.85
401.968	300.03
402.414	379.61
402.859	353.86
403.305	311.73
403.75	307.05
404.196	330.45
404.641	281.3
405.086	288.32
405.532	281.3
405.977	302.37
406.422	267.26
406.867	307.05
407.312	316.41
407.757	372.58
408.202	328.11
408.647	323.43
409.092	293.01
409.537	349.18
409.982	241.51
410.426	278.96
410.871	271.94
411.316	271.94
411.76	276.62
412.205	269.6
412.649	302.37
413.093	260.24
413.538	316.41
413.982	253.22
414.426	194.7
414.87	267.26
415.314	325.77
415.758	325.77
416.202	278.96
416.646	293.01
417.09	328.11
417.534	288.32
417.978	293.01
418.421	316.41
418.865	318.75
419.309	325.77
419.752	344.5
420.196	328.11
420.639	325.77
421.083	321.09
421.526	269.6
421.969	274.28
422.412	335.14
422.856	288.32
423.299	314.07
423.742	307.05
424.185	304.71
424.628	250.88
425.071	274.28
425.513	276.62
425.956	288.32
426.399	384.29
426.842	302.37
427.284	342.16
427.727	323.43
428.169	236.83
428.612	311.73
429.054	300.03
429.497	332.79
429.939	314.07
430.381	323.43
430.823	309.39
431.265	349.18
431.707	337.48
432.149	262.58
432.591	304.71
433.033	264.92
433.475	314.07
433.917	250.88
434.359	335.14
434.8	290.67
435.242	267.26
435.684	323.43
436.125	288.32
436.567	293.01
437.008	297.69
437.449	309.39
437.891	285.98
438.332	321.09
438.773	300.03
439.214	321.09
439.656	321.09
440.097	346.84
440.538	309.39
440.978	264.92
441.419	300.03
441.86	314.07
442.301	311.73
442.742	297.69
443.182	309.39
443.623	335.14
444.063	271.94
444.504	393.65
444.944	316.41
445.385	269.6
445.825	283.64
446.265	349.18
446.706	297.69
447.146	274.28
447.586	311.73
448.026	365.56
448.466	332.79
448.906	293.01
449.346	304.71
449.786	248.54
450.225	316.41
450.665	351.52
451.105	257.9
451.544	318.75
451.984	267.26
452.424	311.73
452.863	309.39
453.302	271.94
453.742	302.37
454.181	388.97
454.62	332.79
455.059	358.54
455.499	325.77
455.938	318.75
456.377	285.98
456.816	295.35
457.254	276.62
457.693	339.82
458.132	264.92
458.571	304.71
459.01	309.39
459.448	342.16
459.887	300.03
460.325	342.16
460.764	323.43
461.202	349.18
461.641	342.16
462.079	293.01
462.517	323.43
462.955	300.03
463.393	239.17
463.832	271.94
464.27	365.56
464.708	323.43
465.145	241.51
465.583	281.3
466.021	302.37
466.459	316.41
466.897	253.22
467.334	283.64
467.772	377.27
468.209	295.35
468.647	250.88
469.084	386.63
469.522	328.11
469.959	281.3
470.396	314.07
470.833	288.32
471.271	285.98
471.708	367.9
472.145	293.01
472.582	309.39
473.019	349.18
473.456	365.56
473.892	304.71
474.329	398.33
474.766	302.37
475.202	295.35
475.639	293.01
476.076	314.07
476.512	257.9
476.949	304.71
477.385	318.75
477.821	281.3
478.258	234.49
478.694	332.79
479.13	281.3
479.566	311.73
480.002	255.56
480.438	330.45
480.874	300.03
481.31	339.82
481.746	309.39
482.181	318.75
482.617	285.98
483.053	316.41
483.488	253.22
483.924	349.18
484.36	232.15
484.795	285.98
485.23	311.73
485.666	339.82
486.101	295.35
486.536	311.73
486.971	309.39
487.407	271.94
487.842	281.3
488.277	328.11
488.712	257.9
489.146	353.86
489.581	311.73
490.016	344.5
490.451	344.5
490.885	285.98
491.32	297.69
491.755	267.26
492.189	274.28
492.624	283.64
493.058	342.16
493.492	349.18
493.927	342.16
494.361	271.94
494.795	276.62
495.229	262.58
495.663	351.52
496.097	342.16
496.531	307.05
496.965	328.11
497.399	250.88
497.833	351.52
498.266	356.2
498.7	236.83
499.134	297.69
499.567	316.41
500.001	295.35
500.434	321.09
500.868	304.71
501.301	316.41
501.734	321.09
502.168	337.48
502.601	314.07
503.034	351.52
503.467	339.82
503.9	300.03
504.333	311.73
504.766	328.11
505.199	374.92
505.632	257.9
506.064	302.37
506.497	318.75
506.93	260.24
507.362	288.32
507.795	267.26
508.227	290.67
508.66	288.32
509.092	293.01
509.524	264.92
509.956	271.94
510.389	353.86
510.821	297.69
511.253	314.07
511.685	253.22
512.117	391.31
512.549	283.64
512.981	335.14
513.412	318.75
513.844	293.01
514.276	344.5
514.707	295.35
515.139	283.64
515.571	307.05
516.002	285.98
516.433	278.96
516.865	290.67
517.296	300.03
517.727	293.01
518.159	295.35
518.59	293.01
519.021	316.41
519.452	349.18
519.883	374.92
520.314	281.3
520.744	290.67
521.175	321.09
521.606	342.16
522.037	274.28
522.467	283.64
522.898	349.18
523.328	267.26
523.759	332.79
524.189	262.58
524.62	285.98
525.05	304.71
525.48	239.17
525.91	262.58
526.341	330.45
526.771	318.75
527.201	318.75
527.631	290.67
528.061	316.41
528.49	346.84
528.92	330.45
529.35	316.41
529.78	339.82
530.209	316.41
530.639	288.32
531.068	309.39
531.498	316.41
531.927	295.35
532.357	321.09
532.786	293.01
533.215	264.92
533.644	353.86
534.074	267.26
534.503	342.16
534.932	365.56
535.361	281.3
535.79	283.64
536.218	328.11
536.647	276.62
537.076	335.14
537.505	302.37
537.933	351.52
538.362	344.5
538.79	295.35
539.219	307.05
539.647	300.03
540.076	370.24
540.504	241.51
540.932	276.62
541.36	381.95
541.788	297.69
542.217	328.11
542.645	283.64
543.073	318.75
543.5	293.01
543.928	311.73
544.356	339.82
544.784	356.2
545.211	321.09
545.639	332.79
546.067	290.67
546.494	356.2
546.922	316.41
547.349	332.79
547.776	342.16
548.204	386.63
548.631	297.69
549.058	367.9
549.485	370.24
549.912	295.35
550.339	300.03
550.766	297.69
551.193	295.35
551.62	328.11
552.047	356.2
552.474	293.01
552.9	307.05
553.327	304.71
553.754	260.24
554.18	335.14
554.607	351.52
555.033	283.64
555.459	332.79
555.886	307.05
556.312	353.86
556.738	290.67
557.164	328.11
557.59	328.11
558.016	288.32
558.442	302.37
558.868	311.73
559.294	353.86
559.72	307.05
560.145	278.96
560.571	342.16
560.997	220.45
561.422	302.37
561.848	264.92
562.273	274.28
562.699	290.67
563.124	281.3
563.549	351.52
563.974	332.79
564.4	290.67
564.825	260.24
565.25	400.67
565.675	290.67
566.1	356.2
566.525	293.01
566.95	302.37
567.374	311.73
567.799	344.5
568.224	316.41
568.648	295.35
569.073	328.11
569.497	253.22
569.922	288.32
570.346	353.86
570.771	365.56
571.195	339.82
571.619	302.37
572.043	288.32
572.467	316.41
572.891	339.82
573.315	346.84
573.739	342.16
574.163	325.77
574.587	316.41
575.011	342.16
575.435	339.82
575.858	271.94
576.282	353.86
576.705	307.05
577.129	309.39
577.552	318.75
577.976	264.92
578.399	264.92
578.822	321.09
579.245	288.32
579.669	283.64
580.092	276.62
580.515	281.3
580.938	328.11
581.361	283.64
581.784	403.01
582.206	314.07
582.629	367.9
583.052	307.05
583.474	318.75
583.897	302.37
584.32	257.9
584.742	328.11
585.165	274.28
585.587	344.5
586.009	309.39
586.431	314.07
586.854	339.82
587.276	262.58
587.698	288.32
588.12	307.05
588.542	356.2
588.964	257.9
589.386	293.01
589.807	283.64
590.229	288.32
590.651	321.09
591.073	239.17
591.494	318.75
591.916	304.71
592.337	293.01
592.759	281.3
593.18	323.43
593.601	391.31
594.022	379.61
594.444	211.09
594.865	344.5
595.286	295.35
595.707	236.83
596.128	328.11
596.549	314.07
596.97	260.24
597.39	309.39
597.811	314.07
598.232	325.77
598.652	328.11
599.073	344.5
599.494	297.69
599.914	332.79
600.334	302.37
600.755	302.37
601.175	264.92
601.595	311.73
602.015	285.98
602.436	323.43
602.856	496.63
603.276	393.65
603.696	323.43
604.115	285.98
604.535	332.79
604.955	339.82
605.375	321.09
605.794	323.43
606.214	262.58
606.634	342.16
607.053	314.07
607.473	285.98
607.892	332.79
608.311	297.69
608.731	276.62
609.15	215.77
609.569	290.67
609.988	328.11
610.407	283.64
610.826	295.35
611.245	293.01
611.664	358.54
612.083	297.69
612.501	253.22
612.92	342.16
613.339	300.03
613.757	318.75
614.176	264.92
614.594	386.63
615.013	323.43
615.431	260.24
615.85	311.73
616.268	295.35
616.686	290.67
617.104	323.43
617.522	335.14
617.94	342.16
618.358	309.39
618.776	283.64
619.194	253.22
619.612	325.77
620.03	243.85
620.447	325.77
620.865	314.07
621.282	344.5
621.7	288.32
622.117	330.45
622.535	302.37
622.952	342.16
623.369	302.37
623.787	325.77
624.204	318.75
624.621	290.67
625.038	314.07
625.455	295.35
625.872	339.82
626.289	293.01
626.706	335.14
627.123	281.3
627.539	290.67
627.956	271.94
628.373	253.22
628.789	330.45
629.206	335.14
629.622	283.64
630.038	307.05
630.455	339.82
630.871	342.16
631.287	311.73
631.703	337.48
632.12	335.14
632.536	276.62
632.952	300.03
633.368	271.94
633.783	344.5
634.199	222.79
634.615	328.11
635.031	288.32
635.446	293.01
635.862	316.41
636.277	325.77
636.693	372.58
637.108	274.28
637.524	360.88
637.939	297.69
638.354	311.73
638.77	288.32
639.185	262.58
639.6	271.94
640.015	349.18
640.43	262.58
640.845	307.05
641.259	335.14
641.674	293.01
642.089	295.35
642.504	293.01
642.918	213.43
643.333	283.64
643.747	276.62
644.162	276.62
644.576	337.48
644.991	264.92
645.405	351.52
645.819	346.84
646.233	309.39
646.647	325.77
647.061	257.9
647.475	323.43
647.889	260.24
648.303	293.01
648.717	297.69
649.131	328.11
649.545	314.07
649.958	264.92
650.372	309.39
650.785	297.69
651.199	260.24
651.612	300.03
652.026	318.75
652.439	293.01
652.852	349.18
653.266	307.05
653.679	213.43
654.092	264.92
654.505	220.45
654.918	332.79
655.331	381.95
655.744	269.6
656.156	281.3
656.569	337.48
656.982	304.71
657.394	246.2
657.807	260.24
658.22	311.73
658.632	274.28
659.044	318.75
659.457	295.35
659.869	288.32
660.281	309.39
660.693	267.26
661.106	283.64
661.518	346.84
661.93	269.6
662.342	339.82
662.754	300.03
663.165	342.16
663.577	288.32
663.989	222.79
664.401	281.3
664.812	316.41
665.224	309.39
665.635	264.92
666.047	325.77
666.458	297.69
666.869	264.92
667.281	321.09
667.692	332.79
668.103	274.28
668.514	302.37
668.925	337.48
669.336	314.07
669.747	257.9
670.158	262.58
670.569	323.43
670.979	325.77
671.39	239.17
671.801	229.81
672.211	316.41
672.622	318.75
673.032	255.56
673.443	318.75
673.853	314.07
674.263	293.01
674.674	297.69
675.084	285.98
675.494	255.56
675.904	267.26
676.314	225.13
676.724	288.32
677.134	276.62
677.544	267.26
677.953	356.2
678.363	349.18
678.773	395.99
679.182	285.98
679.592	304.71
680.001	335.14
680.411	318.75
680.82	323.43
681.23	295.35
681.639	356.2
682.048	321.09
682.457	339.82
682.866	281.3
683.275	239.17
683.684	395.99
684.093	314.07
684.502	276.62
684.911	325.77
685.32	281.3
685.728	318.75
686.137	304.71
686.546	309.39
686.954	302.37
687.363	274.28
687.771	283.64
688.179	281.3
688.588	311.73
688.996	271.94
689.404	346.84
689.812	360.88
690.22	316.41
690.628	304.71
691.036	293.01
691.444	311.73
691.852	342.16
692.26	339.82
692.667	398.33
693.075	356.2
693.483	342.16
693.89	281.3
694.298	365.56
694.705	300.03
695.112	307.05
695.52	360.88
695.927	316.41
696.334	349.18
696.741	250.88
697.148	297.69
697.555	267.26
697.962	288.32
698.369	332.79
698.776	246.2
699.183	255.56
699.59	300.03
699.996	321.09
700.403	309.39
700.81	342.16
701.216	314.07
701.623	349.18
702.029	271.94
702.435	246.2
702.842	318.75
703.248	267.26
703.654	262.58
704.06	311.73
704.466	346.84
704.872	311.73
705.278	346.84
705.684	288.32
706.09	257.9
706.496	321.09
706.901	295.35
707.307	353.86
707.712	339.82
708.118	290.67
708.523	290.67
708.929	304.71
709.334	344.5
709.74	309.39
710.145	311.73
710.55	381.95
710.955	309.39
711.36	349.18
711.765	316.41
712.17	262.58
712.575	316.41
712.98	803.24
713.385	346.84
713.789	335.14
714.194	278.96
714.599	283.64
715.003	274.28
715.408	297.69
715.812	278.96
716.217	316.41
716.621	342.16
717.025	271.94
717.429	293.01
717.833	264.92
718.238	330.45
718.642	351.52
719.046	264.92
719.449	276.62
719.853	295.35
720.257	295.35
720.661	314.07
721.065	304.71
721.468	262.58
721.872	351.52
722.275	332.79
722.679	342.16
723.082	342.16
723.485	307.05
723.889	300.03
724.292	360.88
724.695	318.75
725.098	346.84
725.501	297.69
725.904	339.82
726.307	328.11
726.71	311.73
727.113	288.32
727.516	321.09
727.918	285.98
728.321	283.64
728.724	276.62
729.126	311.73
729.529	248.54
729.931	304.71
730.333	300.03
730.736	295.35
731.138	285.98
731.54	253.22
731.942	323.43
732.344	288.32
732.746	262.58
733.148	332.79
733.55	264.92
733.952	314.07
734.354	325.77
734.756	344.5
735.157	285.98
735.559	262.58
735.96	356.2
736.362	278.96
736.763	349.18
737.165	281.3
737.566	339.82
737.967	283.64
738.368	311.73
738.77	304.71
739.171	372.58
739.572	276.62
739.973	276.62
740.374	304.71
740.774	342.16
741.175	372.58
741.576	342.16
741.977	229.81
742.377	309.39
742.778	300.03
743.178	250.88
743.579	281.3
743.979	314.07
744.379	302.37
744.78	208.75
745.18	325.77
745.58	288.32
745.98	276.62
746.38	290.67
746.78	304.71
747.18	307.05
747.58	321.09
747.98	337.48
748.38	330.45
748.779	314.07
749.179	297.69
749.578	295.35
749.978	335.14
750.377	192.36
750.777	257.9
751.176	358.54
751.575	300.03
751.975	316.41
752.374	267.26
752.773	290.67
753.172	290.67
753.571	391.31
753.97	307.05
754.369	300.03
754.768	321.09
755.166	274.28
755.565	241.51
755.964	269.6
756.362	222.79
756.761	309.39
757.159	309.39
757.558	274.28
757.956	302.37
758.354	293.01
758.753	297.69
759.151	353.86
759.549	295.35
759.947	337.48
760.345	346.84
760.743	344.5
761.141	311.73
761.539	276.62
761.936	302.37
762.334	316.41
762.732	274.28
763.129	304.71
763.527	262.58
763.924	328.11
764.322	339.82
