Data from Al_FLMS009871__1158__16-36-06-590.txt Node

Date: Fri Mar 08 16:36:06 CST 2024
User: pe5414po
Spectrometer: FLMS00987
Trigger mode: 0
Integration Time (sec): 1.000000E-1
Scans to average: 1
Electric dark correction enabled: true
Nonlinearity correction enabled: false
Boxcar width: 0
XAxis mode: Wavelengths
Number of Pixels in Spectrum: 2048
>>>>>Begin Spectral Data<<<<<
188.938	-95.38
189.409	-95.38
189.879	-95.38
190.349	-90.7
190.819	-57.93
191.29	-107.08
191.76	-93.04
192.23	-78.99
192.7	-53.25
193.17	-83.67
193.64	-102.4
194.109	-53.25
194.579	-18.14
195.049	-29.84
195.519	82.5
195.988	31.01
196.458	16.97
196.927	119.95
197.397	126.97
197.866	145.7
198.336	96.55
198.805	89.53
199.274	173.78
199.744	201.87
200.213	145.7
200.682	148.04
201.151	169.1
201.62	197.19
202.089	225.28
202.558	253.36
203.027	248.68
203.495	218.25
203.964	194.85
204.433	293.15
204.902	302.51
205.37	229.96
205.839	288.47
206.307	300.17
206.776	311.88
207.244	274.43
207.712	239.32
208.181	300.17
208.649	288.47
209.117	274.43
209.585	283.79
210.053	295.49
210.521	283.79
210.989	300.17
211.457	269.75
211.925	307.2
212.393	314.22
212.861	274.43
213.328	241.66
213.796	234.64
214.264	220.6
214.731	258.04
215.199	265.07
215.666	281.45
216.133	279.11
216.601	318.9
217.068	229.96
217.535	213.57
218.003	194.85
218.47	290.81
218.937	204.21
219.404	286.13
219.871	215.91
220.338	234.64
220.805	274.43
221.271	234.64
221.738	272.09
222.205	241.66
222.671	260.38
223.138	213.57
223.605	246.34
224.071	279.11
224.538	229.96
225.004	262.73
225.47	290.81
225.937	241.66
226.403	272.09
226.869	262.73
227.335	269.75
227.801	246.34
228.267	239.32
228.733	251.02
229.199	255.7
229.665	262.73
230.131	199.53
230.597	286.13
231.062	295.49
231.528	208.89
231.994	293.15
232.459	269.75
232.925	248.68
233.39	229.96
233.856	316.56
234.321	255.7
234.786	290.81
235.252	272.09
235.717	314.22
236.182	300.17
236.647	311.88
237.112	293.15
237.577	218.25
238.042	318.9
238.507	260.38
238.972	255.7
239.436	330.6
239.901	241.66
240.366	288.47
240.83	286.13
241.295	325.92
241.76	265.07
242.224	314.22
242.688	253.36
243.153	248.68
243.617	276.77
244.081	330.6
244.545	286.13
245.01	251.02
245.474	286.13
245.938	229.96
246.402	236.98
246.866	318.9
247.33	211.23
247.793	253.36
248.257	215.91
248.721	325.92
249.185	274.43
249.648	290.81
250.112	283.79
250.575	354.01
251.039	323.58
251.502	274.43
251.965	213.57
252.429	311.88
252.892	332.94
253.355	295.49
253.818	236.98
254.281	272.09
254.744	255.7
255.207	272.09
255.67	286.13
256.133	227.62
256.596	335.28
257.059	222.94
257.522	265.07
257.984	272.09
258.447	283.79
258.909	290.81
259.372	272.09
259.834	283.79
260.297	335.28
260.759	307.2
261.221	279.11
261.684	246.34
262.146	236.98
262.608	304.85
263.07	276.77
263.532	244
263.994	293.15
264.456	279.11
264.918	267.41
265.38	300.17
265.842	297.83
266.303	227.62
266.765	248.68
267.227	337.62
267.688	283.79
268.15	258.04
268.611	251.02
269.072	244
269.534	227.62
269.995	265.07
270.456	295.49
270.918	342.3
271.379	335.28
271.84	325.92
272.301	279.11
272.762	318.9
273.223	295.49
273.684	281.45
274.144	276.77
274.605	309.54
275.066	269.75
275.527	328.26
275.987	255.7
276.448	258.04
276.908	241.66
277.369	304.85
277.829	236.98
278.289	293.15
278.75	304.85
279.21	281.45
279.67	351.67
280.13	325.92
280.59	325.92
281.05	211.23
281.51	297.83
281.97	290.81
282.43	328.26
282.89	239.32
283.35	253.36
283.809	304.85
284.269	307.2
284.729	260.38
285.188	286.13
285.648	222.94
286.107	318.9
286.567	318.9
287.026	276.77
287.485	267.41
287.944	314.22
288.404	269.75
288.863	265.07
289.322	225.28
289.781	361.03
290.24	225.28
290.699	304.85
291.158	246.34
291.616	283.79
292.075	258.04
292.534	288.47
292.992	244
293.451	227.62
293.91	335.28
294.368	300.17
294.827	314.22
295.285	283.79
295.743	283.79
296.202	295.49
296.66	279.11
297.118	281.45
297.576	297.83
298.034	269.75
298.492	300.17
298.95	267.41
299.408	344.64
299.866	309.54
300.324	337.62
300.781	297.83
301.239	211.23
301.697	234.64
302.154	349.32
302.612	269.75
303.069	262.73
303.527	286.13
303.984	293.15
304.441	368.05
304.899	248.68
305.356	335.28
305.813	346.98
306.27	330.6
306.727	279.11
307.184	290.81
307.641	309.54
308.098	255.7
308.555	246.34
309.012	281.45
309.468	283.79
309.925	283.79
310.382	354.01
310.838	311.88
311.295	307.2
311.751	255.7
312.208	297.83
312.664	290.81
313.12	274.43
313.577	276.77
314.033	344.64
314.489	262.73
314.945	265.07
315.401	307.2
315.857	309.54
316.313	286.13
316.769	321.24
317.225	339.96
317.681	328.26
318.136	279.11
318.592	300.17
319.048	274.43
319.503	330.6
319.959	330.6
320.414	258.04
320.869	265.07
321.325	288.47
321.78	325.92
322.235	307.2
322.691	332.94
323.146	358.69
323.601	318.9
324.056	304.85
324.511	197.19
324.966	332.94
325.421	302.51
325.875	302.51
326.33	229.96
326.785	335.28
327.24	281.45
327.694	269.75
328.149	307.2
328.603	309.54
329.058	346.98
329.512	269.75
329.966	337.62
330.421	314.22
330.875	236.98
331.329	316.56
331.783	309.54
332.237	307.2
332.691	272.09
333.145	297.83
333.599	248.68
334.053	349.32
334.507	328.26
334.96	297.83
335.414	342.3
335.868	272.09
336.321	293.15
336.775	297.83
337.228	300.17
337.682	356.35
338.135	330.6
338.588	311.88
339.042	332.94
339.495	199.53
339.948	302.51
340.401	307.2
340.854	279.11
341.307	286.13
341.76	260.38
342.213	288.47
342.666	304.85
343.119	286.13
343.571	290.81
344.024	244
344.477	295.49
344.929	365.71
345.382	229.96
345.834	349.32
346.287	363.37
346.739	328.26
347.191	283.79
347.644	337.62
348.096	325.92
348.548	272.09
349	288.47
349.452	246.34
349.904	274.43
350.356	272.09
350.808	325.92
351.26	323.58
351.711	349.32
352.163	255.7
352.615	274.43
353.066	309.54
353.518	239.32
353.969	260.38
354.421	255.7
354.872	274.43
355.324	316.56
355.775	286.13
356.226	351.67
356.677	335.28
357.128	311.88
357.579	370.39
358.03	323.58
358.481	356.35
358.932	314.22
359.383	316.56
359.834	328.26
360.285	276.77
360.735	288.47
361.186	295.49
361.637	309.54
362.087	325.92
362.538	314.22
362.988	290.81
363.438	295.49
363.889	279.11
364.339	300.17
364.789	314.22
365.239	274.43
365.689	304.85
366.139	342.3
366.589	302.51
367.039	295.49
367.489	339.96
367.939	225.28
368.389	309.54
368.839	321.24
369.288	290.81
369.738	321.24
370.187	339.96
370.637	283.79
371.086	372.73
371.536	279.11
371.985	358.69
372.434	283.79
372.884	339.96
373.333	300.17
373.782	318.9
374.231	293.15
374.68	283.79
375.129	260.38
375.578	260.38
376.027	302.51
376.475	358.69
376.924	339.96
377.373	304.85
377.822	244
378.27	316.56
378.719	349.32
379.167	405.5
379.616	300.17
380.064	358.69
380.512	290.81
380.961	316.56
381.409	297.83
381.857	283.79
382.305	335.28
382.753	307.2
383.201	272.09
383.649	253.36
384.097	330.6
384.545	309.54
384.992	314.22
385.44	297.83
385.888	330.6
386.335	316.56
386.783	307.2
387.231	323.58
387.678	300.17
388.125	307.2
388.573	295.49
389.02	281.45
389.467	220.6
389.914	377.41
390.362	290.81
390.809	323.58
391.256	297.83
391.703	272.09
392.15	349.32
392.596	321.24
393.043	309.54
393.49	183.15
393.937	260.38
394.383	302.51
394.83	354.01
395.276	335.28
395.723	300.17
396.169	375.07
396.616	330.6
397.062	276.77
397.508	323.58
397.954	283.79
398.401	302.51
398.847	368.05
399.293	328.26
399.739	323.58
400.185	368.05
400.631	293.15
401.076	307.2
401.522	349.32
401.968	239.32
402.414	297.83
402.859	330.6
403.305	276.77
403.75	344.64
404.196	384.43
404.641	281.45
405.086	311.88
405.532	337.62
405.977	295.49
406.422	269.75
406.867	251.02
407.312	279.11
407.757	293.15
408.202	276.77
408.647	323.58
409.092	215.91
409.537	304.85
409.982	283.79
410.426	272.09
410.871	300.17
411.316	321.24
411.76	286.13
412.205	274.43
412.649	339.96
413.093	349.32
413.538	311.88
413.982	337.62
414.426	316.56
414.87	288.47
415.314	302.51
415.758	260.38
416.202	297.83
416.646	258.04
417.09	318.9
417.534	335.28
417.978	346.98
418.421	309.54
418.865	300.17
419.309	330.6
419.752	370.39
420.196	283.79
420.639	335.28
421.083	330.6
421.526	316.56
421.969	290.81
422.412	321.24
422.856	258.04
423.299	302.51
423.742	281.45
424.185	288.47
424.628	325.92
425.071	300.17
425.513	321.24
425.956	283.79
426.399	323.58
426.842	276.77
427.284	358.69
427.727	344.64
428.169	302.51
428.612	304.85
429.054	365.71
429.497	344.64
429.939	300.17
430.381	316.56
430.823	332.94
431.265	316.56
431.707	351.67
432.149	321.24
432.591	346.98
433.033	300.17
433.475	346.98
433.917	290.81
434.359	344.64
434.8	302.51
435.242	335.28
435.684	288.47
436.125	325.92
436.567	323.58
437.008	349.32
437.449	356.35
437.891	258.04
438.332	314.22
438.773	286.13
439.214	344.64
439.656	316.56
440.097	295.49
440.538	328.26
440.978	342.3
441.419	356.35
441.86	323.58
442.301	314.22
442.742	307.2
443.182	328.26
443.623	265.07
444.063	389.11
444.504	318.9
444.944	258.04
445.385	349.32
445.825	372.73
446.265	309.54
446.706	288.47
447.146	323.58
447.586	274.43
448.026	332.94
448.466	344.64
448.906	300.17
449.346	309.54
449.786	302.51
450.225	323.58
450.665	309.54
451.105	297.83
451.544	232.3
451.984	302.51
452.424	295.49
452.863	363.37
453.302	258.04
453.742	244
454.181	321.24
454.62	286.13
455.059	286.13
455.499	332.94
455.938	316.56
456.377	363.37
456.816	346.98
457.254	281.45
457.693	328.26
458.132	300.17
458.571	300.17
459.01	325.92
459.448	260.38
459.887	297.83
460.325	274.43
460.764	372.73
461.202	272.09
461.641	328.26
462.079	300.17
462.517	330.6
462.955	295.49
463.393	344.64
463.832	335.28
464.27	274.43
464.708	241.66
465.145	276.77
465.583	262.73
466.021	328.26
466.459	297.83
466.897	286.13
467.334	323.58
467.772	265.07
468.209	246.34
468.647	323.58
469.084	361.03
469.522	295.49
469.959	363.37
470.396	321.24
470.833	323.58
471.271	281.45
471.708	286.13
472.145	300.17
472.582	325.92
473.019	295.49
473.456	307.2
473.892	323.58
474.329	330.6
474.766	337.62
475.202	318.9
475.639	248.68
476.076	318.9
476.512	344.64
476.949	279.11
477.385	297.83
477.821	267.41
478.258	321.24
478.694	286.13
479.13	286.13
479.566	253.36
480.002	332.94
480.438	358.69
480.874	304.85
481.31	370.39
481.746	260.38
482.181	332.94
482.617	386.77
483.053	295.49
483.488	328.26
483.924	295.49
484.36	323.58
484.795	307.2
485.23	304.85
485.666	368.05
486.101	295.49
486.536	328.26
486.971	379.75
487.407	253.36
487.842	307.2
488.277	262.73
488.712	321.24
489.146	384.43
489.581	274.43
490.016	361.03
490.451	260.38
490.885	339.96
491.32	316.56
491.755	339.96
492.189	323.58
492.624	356.35
493.058	288.47
493.492	342.3
493.927	377.41
494.361	323.58
494.795	283.79
495.229	314.22
495.663	309.54
496.097	297.83
496.531	314.22
496.965	288.47
497.399	239.32
497.833	335.28
498.266	300.17
498.7	304.85
499.134	318.9
499.567	295.49
500.001	351.67
500.434	302.51
500.868	356.35
501.301	363.37
501.734	314.22
502.168	351.67
502.601	279.11
503.034	302.51
503.467	234.64
503.9	365.71
504.333	267.41
504.766	276.77
505.199	251.02
505.632	279.11
506.064	293.15
506.497	314.22
506.93	337.62
507.362	318.9
507.795	370.39
508.227	274.43
508.66	351.67
509.092	297.83
509.524	293.15
509.956	309.54
510.389	344.64
510.821	272.09
511.253	248.68
511.685	335.28
512.117	293.15
512.549	286.13
512.981	344.64
513.412	304.85
513.844	351.67
514.276	279.11
514.707	304.85
515.139	300.17
515.571	220.6
516.002	328.26
516.433	332.94
516.865	300.17
517.296	302.51
517.727	356.35
518.159	344.64
518.59	318.9
519.021	311.88
519.452	307.2
519.883	265.07
520.314	272.09
520.744	307.2
521.175	302.51
521.606	290.81
522.037	349.32
522.467	339.96
522.898	295.49
523.328	321.24
523.759	311.88
524.189	302.51
524.62	279.11
525.05	309.54
525.48	307.2
525.91	307.2
526.341	354.01
526.771	290.81
527.201	297.83
527.631	286.13
528.061	318.9
528.49	300.17
528.92	293.15
529.35	281.45
529.78	272.09
530.209	358.69
530.639	330.6
531.068	311.88
531.498	288.47
531.927	349.32
532.357	307.2
532.786	349.32
533.215	311.88
533.644	286.13
534.074	269.75
534.503	328.26
534.932	316.56
535.361	321.24
535.79	332.94
536.218	276.77
536.647	368.05
537.076	281.45
537.505	274.43
537.933	323.58
538.362	248.68
538.79	349.32
539.219	330.6
539.647	321.24
540.076	262.73
540.504	244
540.932	260.38
541.36	358.69
541.788	269.75
542.217	325.92
542.645	330.6
543.073	215.91
543.5	288.47
543.928	281.45
544.356	309.54
544.784	307.2
545.211	269.75
545.639	309.54
546.067	265.07
546.494	307.2
546.922	286.13
547.349	248.68
547.776	307.2
548.204	349.32
548.631	286.13
549.058	295.49
549.485	290.81
549.912	244
550.339	260.38
550.766	300.17
551.193	295.49
551.62	283.79
552.047	255.7
552.474	314.22
552.9	274.43
553.327	309.54
553.754	330.6
554.18	368.05
554.607	314.22
555.033	377.41
555.459	279.11
555.886	255.7
556.312	297.83
556.738	342.3
557.164	330.6
557.59	351.67
558.016	302.51
558.442	328.26
558.868	300.17
559.294	344.64
559.72	328.26
560.145	349.32
560.571	251.02
560.997	307.2
561.422	337.62
561.848	274.43
562.273	283.79
562.699	337.62
563.124	295.49
563.549	283.79
563.974	279.11
564.4	330.6
564.825	297.83
565.25	332.94
565.675	269.75
566.1	300.17
566.525	349.32
566.95	337.62
567.374	351.67
567.799	262.73
568.224	279.11
568.648	251.02
569.073	302.51
569.497	262.73
569.922	274.43
570.346	342.3
570.771	318.9
571.195	260.38
571.619	307.2
572.043	330.6
572.467	351.67
572.891	311.88
573.315	332.94
573.739	314.22
574.163	335.28
574.587	300.17
575.011	288.47
575.435	295.49
575.858	342.3
576.282	389.11
576.705	297.83
577.129	318.9
577.552	258.04
577.976	300.17
578.399	300.17
578.822	295.49
579.245	316.56
579.669	304.85
580.092	274.43
580.515	325.92
580.938	328.26
581.361	281.45
581.784	272.09
582.206	307.2
582.629	370.39
583.052	293.15
583.474	269.75
583.897	344.64
584.32	309.54
584.742	290.81
585.165	316.56
585.587	253.36
586.009	337.62
586.431	354.01
586.854	302.51
587.276	295.49
587.698	246.34
588.12	246.34
588.542	304.85
588.964	354.01
589.386	314.22
589.807	330.6
590.229	316.56
590.651	328.26
591.073	286.13
591.494	276.77
591.916	297.83
592.337	272.09
592.759	302.51
593.18	244
593.601	309.54
594.022	361.03
594.444	358.69
594.865	302.51
595.286	246.34
595.707	358.69
596.128	346.98
596.549	307.2
596.97	344.64
597.39	274.43
597.811	339.96
598.232	288.47
598.652	351.67
599.073	295.49
599.494	246.34
599.914	213.57
600.334	323.58
600.755	281.45
601.175	332.94
601.595	288.47
602.015	370.39
602.436	323.58
602.856	414.86
603.276	304.85
603.696	290.81
604.115	337.62
604.535	258.04
604.955	274.43
605.375	281.45
605.794	288.47
606.214	297.83
606.634	262.73
607.053	325.92
607.473	302.51
607.892	276.77
608.311	323.58
608.731	363.37
609.15	346.98
609.569	293.15
609.988	337.62
610.407	290.81
610.826	337.62
611.245	269.75
611.664	311.88
612.083	288.47
612.501	246.34
612.92	344.64
613.339	328.26
613.757	349.32
614.176	309.54
614.594	330.6
615.013	309.54
615.431	260.38
615.85	302.51
616.268	330.6
616.686	316.56
617.104	363.37
617.522	318.9
617.94	279.11
618.358	297.83
618.776	295.49
619.194	304.85
619.612	311.88
620.03	300.17
620.447	248.68
620.865	337.62
621.282	201.87
621.7	372.73
622.117	325.92
622.535	295.49
622.952	339.96
623.369	304.85
623.787	337.62
624.204	356.35
624.621	351.67
625.038	339.96
625.455	309.54
625.872	274.43
626.289	269.75
626.706	309.54
627.123	265.07
627.539	283.79
627.956	316.56
628.373	328.26
628.789	344.64
629.206	344.64
629.622	302.51
630.038	300.17
630.455	269.75
630.871	318.9
631.287	295.49
631.703	321.24
632.12	288.47
632.536	272.09
632.952	354.01
633.368	328.26
633.783	274.43
634.199	300.17
634.615	311.88
635.031	332.94
635.446	325.92
635.862	274.43
636.277	302.51
636.693	307.2
637.108	267.41
637.524	365.71
637.939	279.11
638.354	255.7
638.77	290.81
639.185	304.85
639.6	274.43
640.015	337.62
640.43	279.11
640.845	297.83
641.259	267.41
641.674	344.64
642.089	297.83
642.504	304.85
642.918	309.54
643.333	342.3
643.747	318.9
644.162	370.39
644.576	389.11
644.991	293.15
645.405	286.13
645.819	293.15
646.233	267.41
646.647	300.17
647.061	330.6
647.475	258.04
647.889	283.79
648.303	253.36
648.717	321.24
649.131	293.15
649.545	318.9
649.958	232.3
650.372	316.56
650.785	274.43
651.199	265.07
651.612	283.79
652.026	276.77
652.439	272.09
652.852	344.64
653.266	363.37
653.679	330.6
654.092	318.9
654.505	274.43
654.918	276.77
655.331	389.11
655.744	344.64
656.156	293.15
656.569	321.24
656.982	318.9
657.394	393.8
657.807	295.49
658.22	321.24
658.632	321.24
659.044	288.47
659.457	307.2
659.869	375.07
660.281	372.73
660.693	297.83
661.106	351.67
661.518	309.54
661.93	325.92
662.342	346.98
662.754	253.36
663.165	314.22
663.577	307.2
663.989	295.49
664.401	382.09
664.812	288.47
665.224	304.85
665.635	286.13
666.047	342.3
666.458	356.35
666.869	342.3
667.281	290.81
667.692	328.26
668.103	272.09
668.514	288.47
668.925	262.73
669.336	358.69
669.747	339.96
670.158	288.47
670.569	267.41
670.979	302.51
671.39	354.01
671.801	349.32
672.211	328.26
672.622	276.77
673.032	335.28
673.443	300.17
673.853	246.34
674.263	311.88
674.674	328.26
675.084	281.45
675.494	269.75
675.904	311.88
676.314	288.47
676.724	283.79
677.134	325.92
677.544	286.13
677.953	302.51
678.363	337.62
678.773	307.2
679.182	314.22
679.592	314.22
680.001	311.88
680.411	330.6
680.82	211.23
681.23	225.28
681.639	318.9
682.048	260.38
682.457	274.43
682.866	286.13
683.275	344.64
683.684	339.96
684.093	300.17
684.502	241.66
684.911	309.54
685.32	248.68
685.728	297.83
686.137	279.11
686.546	262.73
686.954	274.43
687.363	258.04
687.771	309.54
688.179	314.22
688.588	251.02
688.996	307.2
689.404	332.94
689.812	349.32
690.22	290.81
690.628	272.09
691.036	328.26
691.444	272.09
691.852	325.92
692.26	293.15
692.667	321.24
693.075	335.28
693.483	265.07
693.89	318.9
694.298	297.83
694.705	302.51
695.112	370.39
695.52	335.28
695.927	325.92
696.334	272.09
696.741	265.07
697.148	286.13
697.555	328.26
697.962	295.49
698.369	302.51
698.776	279.11
699.183	258.04
699.59	232.3
699.996	272.09
700.403	293.15
700.81	276.77
701.216	309.54
701.623	244
702.029	293.15
702.435	255.7
702.842	328.26
703.248	311.88
703.654	339.96
704.06	382.09
704.466	302.51
704.872	307.2
705.278	297.83
705.684	307.2
706.09	300.17
706.496	377.41
706.901	351.67
707.307	295.49
707.712	323.58
708.118	311.88
708.523	279.11
708.929	351.67
709.334	361.03
709.74	253.36
710.145	302.51
710.55	262.73
710.955	276.77
711.36	318.9
711.765	368.05
712.17	349.32
712.575	339.96
712.98	857.22
713.385	339.96
713.789	344.64
714.194	302.51
714.599	316.56
715.003	323.58
715.408	307.2
715.812	346.98
716.217	269.75
716.621	314.22
717.025	370.39
717.429	309.54
717.833	321.24
718.238	220.6
718.642	332.94
719.046	267.41
719.449	344.64
719.853	288.47
720.257	309.54
720.661	309.54
721.065	314.22
721.468	328.26
721.872	239.32
722.275	293.15
722.679	316.56
723.082	239.32
723.485	269.75
723.889	337.62
724.292	251.02
724.695	370.39
725.098	318.9
725.501	328.26
725.904	260.38
726.307	314.22
726.71	286.13
727.113	265.07
727.516	325.92
727.918	314.22
728.321	318.9
728.724	318.9
729.126	288.47
729.529	295.49
729.931	375.07
730.333	321.24
730.736	288.47
731.138	258.04
731.54	304.85
731.942	330.6
732.344	307.2
732.746	342.3
733.148	356.35
733.55	365.71
733.952	265.07
734.354	314.22
734.756	290.81
735.157	344.64
735.559	251.02
735.96	307.2
736.362	262.73
736.763	302.51
737.165	328.26
737.566	351.67
737.967	318.9
738.368	297.83
738.77	358.69
739.171	269.75
739.572	272.09
739.973	354.01
740.374	332.94
740.774	260.38
741.175	346.98
741.576	293.15
741.977	262.73
742.377	239.32
742.778	342.3
743.178	325.92
743.579	321.24
743.979	354.01
744.379	328.26
744.78	295.49
745.18	351.67
745.58	335.28
745.98	332.94
746.38	335.28
746.78	272.09
747.18	295.49
747.58	276.77
747.98	314.22
748.38	407.84
748.779	241.66
749.179	272.09
749.578	342.3
749.978	295.49
750.377	286.13
750.777	314.22
751.176	307.2
751.575	314.22
751.975	323.58
752.374	267.41
752.773	318.9
753.172	314.22
753.571	351.67
753.97	281.45
754.369	286.13
754.768	274.43
755.166	262.73
755.565	304.85
755.964	358.69
756.362	272.09
756.761	288.47
757.159	330.6
757.558	300.17
757.956	325.92
758.354	368.05
758.753	244
759.151	344.64
759.549	283.79
759.947	346.98
760.345	321.24
760.743	330.6
761.141	365.71
761.539	297.83
761.936	311.88
762.334	349.32
762.732	368.05
763.129	302.51
763.527	351.67
763.924	283.79
764.322	255.7
764.719	321.24
765.117	349.32
765.514	328.26
765.911	255.7
766.308	311.88
