Data from Al_FLMS009871__1145__16-36-05-290.txt Node

Date: Fri Mar 08 16:36:05 CST 2024
User: pe5414po
Spectrometer: FLMS00987
Trigger mode: 0
Integration Time (sec): 1.000000E-1
Scans to average: 1
Electric dark correction enabled: true
Nonlinearity correction enabled: false
Boxcar width: 0
XAxis mode: Wavelengths
Number of Pixels in Spectrum: 2048
>>>>>Begin Spectral Data<<<<<
188.938	-48.71
189.409	-48.71
189.879	-48.71
190.349	-107.23
190.819	-100.2
191.29	-53.39
191.76	-114.25
192.23	-100.2
192.7	-60.42
193.17	-107.23
193.64	-18.29
194.109	-53.39
194.579	9.8
195.049	0.44
195.519	37.89
195.988	7.46
196.458	70.65
196.927	96.4
197.397	82.36
197.866	110.44
198.336	91.72
198.805	183
199.274	159.6
199.744	204.07
200.213	143.21
200.682	204.07
201.151	253.22
201.62	204.07
202.089	260.24
202.558	211.09
203.027	218.11
203.495	325.77
203.964	260.24
204.433	293.01
204.902	243.85
205.37	314.07
205.839	288.32
206.307	236.83
206.776	243.85
207.244	278.96
207.712	304.71
208.181	250.88
208.649	346.84
209.117	307.05
209.585	246.2
210.053	295.35
210.521	302.37
210.989	311.73
211.457	283.64
211.925	346.84
212.393	295.35
212.861	290.67
213.328	271.94
213.796	314.07
214.264	250.88
214.731	267.26
215.199	255.56
215.666	288.32
216.133	234.49
216.601	288.32
217.068	300.03
217.535	239.17
218.003	302.37
218.47	311.73
218.937	330.45
219.404	260.24
219.871	262.58
220.338	337.48
220.805	253.22
221.271	211.09
221.738	246.2
222.205	222.79
222.671	255.56
223.138	185.34
223.605	267.26
224.071	267.26
224.538	283.64
225.004	300.03
225.47	264.92
225.937	248.54
226.403	281.3
226.869	271.94
227.335	255.56
227.801	253.22
228.267	253.22
228.733	222.79
229.199	236.83
229.665	215.77
230.131	269.6
230.597	288.32
231.062	236.83
231.528	262.58
231.994	204.07
232.459	321.09
232.925	274.28
233.39	262.58
233.856	250.88
234.321	199.38
234.786	271.94
235.252	309.39
235.717	255.56
236.182	302.37
236.647	239.17
237.112	241.51
237.577	246.2
238.042	285.98
238.507	304.71
238.972	253.22
239.436	260.24
239.901	267.26
240.366	248.54
240.83	290.67
241.295	344.5
241.76	283.64
242.224	211.09
242.688	220.45
243.153	260.24
243.617	311.73
244.081	243.85
244.545	211.09
245.01	276.62
245.474	321.09
245.938	257.9
246.402	307.05
246.866	225.13
247.33	281.3
247.793	285.98
248.257	342.16
248.721	288.32
249.185	250.88
249.648	260.24
250.112	323.43
250.575	271.94
251.039	330.45
251.502	269.6
251.965	161.94
252.429	300.03
252.892	316.41
253.355	300.03
253.818	330.45
254.281	328.11
254.744	288.32
255.207	283.64
255.67	278.96
256.133	229.81
256.596	297.69
257.059	260.24
257.522	318.75
257.984	241.51
258.447	262.58
258.909	311.73
259.372	297.69
259.834	297.69
260.297	297.69
260.759	274.28
261.221	300.03
261.684	269.6
262.146	288.32
262.608	288.32
263.07	323.43
263.532	325.77
263.994	325.77
264.456	246.2
264.918	330.45
265.38	201.72
265.842	302.37
266.303	335.14
266.765	281.3
267.227	332.79
267.688	328.11
268.15	295.35
268.611	358.54
269.072	269.6
269.534	332.79
269.995	311.73
270.456	318.75
270.918	309.39
271.379	321.09
271.84	304.71
272.301	225.13
272.762	274.28
273.223	297.69
273.684	220.45
274.144	332.79
274.605	293.01
275.066	356.2
275.527	288.32
275.987	304.71
276.448	328.11
276.908	243.85
277.369	246.2
277.829	236.83
278.289	309.39
278.75	321.09
279.21	358.54
279.67	267.26
280.13	304.71
280.59	236.83
281.05	281.3
281.51	314.07
281.97	346.84
282.43	304.71
282.89	267.26
283.35	241.51
283.809	346.84
284.269	236.83
284.729	309.39
285.188	318.75
285.648	269.6
286.107	311.73
286.567	267.26
287.026	199.38
287.485	264.92
287.944	297.69
288.404	323.43
288.863	314.07
289.322	304.71
289.781	253.22
290.24	283.64
290.699	342.16
291.158	328.11
291.616	323.43
292.075	335.14
292.534	300.03
292.992	332.79
293.451	293.01
293.91	337.48
294.368	293.01
294.827	339.82
295.285	314.07
295.743	243.85
296.202	297.69
296.66	309.39
297.118	271.94
297.576	285.98
298.034	232.15
298.492	330.45
298.95	246.2
299.408	241.51
299.866	328.11
300.324	293.01
300.781	285.98
301.239	285.98
301.697	274.28
302.154	250.88
302.612	267.26
303.069	323.43
303.527	281.3
303.984	351.52
304.441	293.01
304.899	229.81
305.356	337.48
305.813	325.77
306.27	262.58
306.727	271.94
307.184	370.24
307.641	297.69
308.098	302.37
308.555	250.88
309.012	283.64
309.468	304.71
309.925	307.05
310.382	304.71
310.838	288.32
311.295	374.92
311.751	295.35
312.208	316.41
312.664	314.07
313.12	321.09
313.577	293.01
314.033	295.35
314.489	330.45
314.945	318.75
315.401	300.03
315.857	290.67
316.313	290.67
316.769	323.43
317.225	250.88
317.681	330.45
318.136	297.69
318.592	353.86
319.048	337.48
319.503	330.45
319.959	379.61
320.414	283.64
320.869	316.41
321.325	311.73
321.78	257.9
322.235	342.16
322.691	328.11
323.146	321.09
323.601	337.48
324.056	351.52
324.511	323.43
324.966	353.86
325.421	318.75
325.875	325.77
326.33	276.62
326.785	356.2
327.24	321.09
327.694	325.77
328.149	288.32
328.603	304.71
329.058	353.86
329.512	300.03
329.966	269.6
330.421	307.05
330.875	318.75
331.329	330.45
331.783	349.18
332.237	260.24
332.691	344.5
333.145	311.73
333.599	243.85
334.053	346.84
334.507	283.64
334.96	302.37
335.414	300.03
335.868	316.41
336.321	250.88
336.775	332.79
337.228	300.03
337.682	335.14
338.135	311.73
338.588	321.09
339.042	295.35
339.495	302.37
339.948	278.96
340.401	314.07
340.854	267.26
341.307	328.11
341.76	300.03
342.213	321.09
342.666	281.3
343.119	332.79
343.571	358.54
344.024	330.45
344.477	342.16
344.929	288.32
345.382	332.79
345.834	253.22
346.287	356.2
346.739	328.11
347.191	321.09
347.644	267.26
348.096	293.01
348.548	250.88
349	325.77
349.452	285.98
349.904	365.56
350.356	295.35
350.808	339.82
351.26	339.82
351.711	300.03
352.163	311.73
352.615	257.9
353.066	346.84
353.518	360.88
353.969	316.41
354.421	351.52
354.872	271.94
355.324	274.28
355.775	290.67
356.226	367.9
356.677	234.49
357.128	325.77
357.579	318.75
358.03	316.41
358.481	356.2
358.932	363.22
359.383	330.45
359.834	339.82
360.285	297.69
360.735	321.09
361.186	335.14
361.637	328.11
362.087	285.98
362.538	264.92
362.988	351.52
363.438	321.09
363.889	344.5
364.339	300.03
364.789	290.67
365.239	262.58
365.689	300.03
366.139	325.77
366.589	316.41
367.039	274.28
367.489	288.32
367.939	377.27
368.389	330.45
368.839	283.64
369.288	318.75
369.738	344.5
370.187	304.71
370.637	295.35
371.086	328.11
371.536	311.73
371.985	367.9
372.434	290.67
372.884	309.39
373.333	330.45
373.782	300.03
374.231	290.67
374.68	325.77
375.129	386.63
375.578	351.52
376.027	330.45
376.475	283.64
376.924	325.77
377.373	285.98
377.822	318.75
378.27	276.62
378.719	309.39
379.167	344.5
379.616	356.2
380.064	283.64
380.512	281.3
380.961	349.18
381.409	349.18
381.857	293.01
382.305	314.07
382.753	344.5
383.201	370.24
383.649	304.71
384.097	342.16
384.545	374.92
384.992	325.77
385.44	300.03
385.888	346.84
386.335	323.43
386.783	250.88
387.231	395.99
387.678	288.32
388.125	381.95
388.573	300.03
389.02	405.35
389.467	365.56
389.914	297.69
390.362	302.37
390.809	307.05
391.256	285.98
391.703	297.69
392.15	293.01
392.596	337.48
393.043	321.09
393.49	304.71
393.937	278.96
394.383	337.48
394.83	269.6
395.276	318.75
395.723	276.62
396.169	278.96
396.616	349.18
397.062	316.41
397.508	316.41
397.954	314.07
398.401	325.77
398.847	300.03
399.293	321.09
399.739	293.01
400.185	342.16
400.631	349.18
401.076	307.05
401.522	271.94
401.968	300.03
402.414	337.48
402.859	318.75
403.305	321.09
403.75	293.01
404.196	325.77
404.641	335.14
405.086	293.01
405.532	346.84
405.977	267.26
406.422	297.69
406.867	381.95
407.312	257.9
407.757	405.35
408.202	342.16
408.647	311.73
409.092	377.27
409.537	468.55
409.982	356.2
410.426	370.24
410.871	271.94
411.316	300.03
411.76	316.41
412.205	349.18
412.649	304.71
413.093	316.41
413.538	307.05
413.982	293.01
414.426	346.84
414.87	295.35
415.314	339.82
415.758	316.41
416.202	300.03
416.646	405.35
417.09	304.71
417.534	384.29
417.978	344.5
418.421	395.99
418.865	304.71
419.309	356.2
419.752	363.22
420.196	302.37
420.639	342.16
421.083	314.07
421.526	316.41
421.969	307.05
422.412	262.58
422.856	332.79
423.299	290.67
423.742	293.01
424.185	330.45
424.628	307.05
425.071	360.88
425.513	311.73
425.956	356.2
426.399	351.52
426.842	335.14
427.284	295.35
427.727	290.67
428.169	349.18
428.612	271.94
429.054	339.82
429.497	337.48
429.939	255.56
430.381	337.48
430.823	335.14
431.265	337.48
431.707	269.6
432.149	318.75
432.591	325.77
433.033	330.45
433.475	307.05
433.917	330.45
434.359	302.37
434.8	349.18
435.242	342.16
435.684	274.28
436.125	323.43
436.567	253.22
437.008	328.11
437.449	318.75
437.891	421.74
438.332	384.29
438.773	344.5
439.214	372.58
439.656	260.24
440.097	344.5
440.538	377.27
440.978	307.05
441.419	386.63
441.86	330.45
442.301	283.64
442.742	290.67
443.182	330.45
443.623	318.75
444.063	323.43
444.504	318.75
444.944	302.37
445.385	304.71
445.825	358.54
446.265	384.29
446.706	325.77
447.146	281.3
447.586	351.52
448.026	314.07
448.466	339.82
448.906	386.63
449.346	330.45
449.786	314.07
450.225	309.39
450.665	295.35
451.105	281.3
451.544	248.54
451.984	393.65
452.424	260.24
452.863	332.79
453.302	307.05
453.742	337.48
454.181	278.96
454.62	344.5
455.059	257.9
455.499	353.86
455.938	307.05
456.377	325.77
456.816	353.86
457.254	309.39
457.693	269.6
458.132	353.86
458.571	264.92
459.01	321.09
459.448	339.82
459.887	307.05
460.325	330.45
460.764	300.03
461.202	318.75
461.641	281.3
462.079	283.64
462.517	304.71
462.955	358.54
463.393	321.09
463.832	297.69
464.27	360.88
464.708	365.56
465.145	351.52
465.583	342.16
466.021	344.5
466.459	304.71
466.897	395.99
467.334	360.88
467.772	351.52
468.209	344.5
468.647	337.48
469.084	328.11
469.522	346.84
469.959	295.35
470.396	325.77
470.833	339.82
471.271	269.6
471.708	307.05
472.145	393.65
472.582	372.58
473.019	314.07
473.456	372.58
473.892	321.09
474.329	344.5
474.766	297.69
475.202	295.35
475.639	339.82
476.076	314.07
476.512	358.54
476.949	344.5
477.385	342.16
477.821	318.75
478.258	309.39
478.694	318.75
479.13	302.37
479.566	281.3
480.002	302.37
480.438	316.41
480.874	250.88
481.31	351.52
481.746	325.77
482.181	314.07
482.617	297.69
483.053	414.71
483.488	290.67
483.924	316.41
484.36	332.79
484.795	339.82
485.23	328.11
485.666	325.77
486.101	283.64
486.536	346.84
486.971	332.79
487.407	335.14
487.842	274.28
488.277	300.03
488.712	297.69
489.146	342.16
489.581	335.14
490.016	346.84
490.451	339.82
490.885	321.09
491.32	304.71
491.755	307.05
492.189	269.6
492.624	374.92
493.058	309.39
493.492	304.71
493.927	349.18
494.361	381.95
494.795	293.01
495.229	297.69
495.663	332.79
496.097	304.71
496.531	288.32
496.965	262.58
497.399	307.05
497.833	346.84
498.266	295.35
498.7	358.54
499.134	311.73
499.567	339.82
500.001	311.73
500.434	309.39
500.868	290.67
501.301	309.39
501.734	262.58
502.168	356.2
502.601	358.54
503.034	372.58
503.467	278.96
503.9	330.45
504.333	349.18
504.766	309.39
505.199	325.77
505.632	405.35
506.064	342.16
506.497	271.94
506.93	316.41
507.362	311.73
507.795	337.48
508.227	300.03
508.66	288.32
509.092	321.09
509.524	332.79
509.956	316.41
510.389	297.69
510.821	241.51
511.253	314.07
511.685	323.43
512.117	335.14
512.549	311.73
512.981	339.82
513.412	342.16
513.844	290.67
514.276	349.18
514.707	309.39
515.139	295.35
515.571	318.75
516.002	293.01
516.433	328.11
516.865	283.64
517.296	351.52
517.727	302.37
518.159	309.39
518.59	344.5
519.021	328.11
519.452	314.07
519.883	271.94
520.314	372.58
520.744	307.05
521.175	344.5
521.606	342.16
522.037	311.73
522.467	302.37
522.898	391.31
523.328	344.5
523.759	276.62
524.189	328.11
524.62	309.39
525.05	260.24
525.48	325.77
525.91	318.75
526.341	316.41
526.771	293.01
527.201	344.5
527.631	297.69
528.061	325.77
528.49	335.14
528.92	262.58
529.35	274.28
529.78	283.64
530.209	316.41
530.639	330.45
531.068	250.88
531.498	300.03
531.927	243.85
532.357	381.95
532.786	318.75
533.215	386.63
533.644	321.09
534.074	311.73
534.503	307.05
534.932	339.82
535.361	295.35
535.79	332.79
536.218	356.2
536.647	274.28
537.076	351.52
537.505	328.11
537.933	285.98
538.362	302.37
538.79	290.67
539.219	309.39
539.647	302.37
540.076	285.98
540.504	318.75
540.932	283.64
541.36	335.14
541.788	314.07
542.217	342.16
542.645	297.69
543.073	309.39
543.5	297.69
543.928	393.65
544.356	304.71
544.784	293.01
545.211	335.14
545.639	344.5
546.067	330.45
546.494	370.24
546.922	323.43
547.349	283.64
547.776	330.45
548.204	257.9
548.631	318.75
549.058	332.79
549.485	215.77
549.912	351.52
550.339	342.16
550.766	363.22
551.193	290.67
551.62	330.45
552.047	276.62
552.474	328.11
552.9	344.5
553.327	377.27
553.754	328.11
554.18	318.75
554.607	293.01
555.033	278.96
555.459	351.52
555.886	316.41
556.312	344.5
556.738	332.79
557.164	311.73
557.59	332.79
558.016	344.5
558.442	293.01
558.868	337.48
559.294	328.11
559.72	276.62
560.145	293.01
560.571	281.3
560.997	321.09
561.422	316.41
561.848	332.79
562.273	309.39
562.699	293.01
563.124	276.62
563.549	274.28
563.974	323.43
564.4	330.45
564.825	309.39
565.25	234.49
565.675	332.79
566.1	332.79
566.525	337.48
566.95	297.69
567.374	288.32
567.799	388.97
568.224	318.75
568.648	330.45
569.073	330.45
569.497	325.77
569.922	351.52
570.346	367.9
570.771	290.67
571.195	262.58
571.619	297.69
572.043	318.75
572.467	314.07
572.891	316.41
573.315	395.99
573.739	349.18
574.163	363.22
574.587	318.75
575.011	339.82
575.435	328.11
575.858	388.97
576.282	353.86
576.705	269.6
577.129	374.92
577.552	414.71
577.976	356.2
578.399	349.18
578.822	358.54
579.245	274.28
579.669	379.61
580.092	367.9
580.515	300.03
580.938	318.75
581.361	295.35
581.784	318.75
582.206	314.07
582.629	325.77
583.052	302.37
583.474	332.79
583.897	297.69
584.32	314.07
584.742	330.45
585.165	318.75
585.587	318.75
586.009	302.37
586.431	328.11
586.854	309.39
587.276	246.2
587.698	297.69
588.12	342.16
588.542	344.5
588.964	293.01
589.386	342.16
589.807	278.96
590.229	309.39
590.651	330.45
591.073	360.88
591.494	365.56
591.916	316.41
592.337	344.5
592.759	323.43
593.18	248.54
593.601	311.73
594.022	264.92
594.444	264.92
594.865	281.3
595.286	304.71
595.707	295.35
596.128	370.24
596.549	360.88
596.97	330.45
597.39	300.03
597.811	281.3
598.232	281.3
598.652	323.43
599.073	295.35
599.494	325.77
599.914	302.37
600.334	325.77
600.755	323.43
601.175	365.56
601.595	316.41
602.015	328.11
602.436	335.14
602.856	496.63
603.276	358.54
603.696	339.82
604.115	278.96
604.535	395.99
604.955	311.73
605.375	281.3
605.794	323.43
606.214	283.64
606.634	309.39
607.053	300.03
607.473	363.22
607.892	309.39
608.311	300.03
608.731	321.09
609.15	311.73
609.569	335.14
609.988	269.6
610.407	344.5
610.826	342.16
611.245	337.48
611.664	330.45
612.083	339.82
612.501	363.22
612.92	337.48
613.339	302.37
613.757	323.43
614.176	257.9
614.594	302.37
615.013	311.73
615.431	295.35
615.85	332.79
616.268	290.67
616.686	365.56
617.104	304.71
617.522	304.71
617.94	318.75
618.358	297.69
618.776	386.63
619.194	356.2
619.612	271.94
620.03	316.41
620.447	321.09
620.865	281.3
621.282	330.45
621.7	395.99
622.117	363.22
622.535	323.43
622.952	372.58
623.369	374.92
623.787	323.43
624.204	311.73
624.621	276.62
625.038	321.09
625.455	307.05
625.872	346.84
626.289	323.43
626.706	290.67
627.123	295.35
627.539	363.22
627.956	339.82
628.373	295.35
628.789	302.37
629.206	328.11
629.622	363.22
630.038	285.98
630.455	262.58
630.871	304.71
631.287	330.45
631.703	302.37
632.12	309.39
632.536	293.01
632.952	332.79
633.368	309.39
633.783	318.75
634.199	330.45
634.615	365.56
635.031	253.22
635.446	255.56
635.862	246.2
636.277	290.67
636.693	344.5
637.108	316.41
637.524	332.79
637.939	337.48
638.354	335.14
638.77	335.14
639.185	349.18
639.6	323.43
640.015	363.22
640.43	349.18
640.845	307.05
641.259	309.39
641.674	360.88
642.089	283.64
642.504	314.07
642.918	297.69
643.333	302.37
643.747	370.24
644.162	267.26
644.576	304.71
644.991	297.69
645.405	285.98
645.819	374.92
646.233	309.39
646.647	318.75
647.061	321.09
647.475	388.97
647.889	335.14
648.303	325.77
648.717	307.05
649.131	360.88
649.545	323.43
649.958	335.14
650.372	321.09
650.785	386.63
651.199	346.84
651.612	356.2
652.026	372.58
652.439	295.35
652.852	370.24
653.266	297.69
653.679	349.18
654.092	316.41
654.505	379.61
654.918	337.48
655.331	302.37
655.744	318.75
656.156	278.96
656.569	300.03
656.982	246.2
657.394	346.84
657.807	353.86
658.22	325.77
658.632	297.69
659.044	304.71
659.457	339.82
659.869	358.54
660.281	321.09
660.693	316.41
661.106	337.48
661.518	271.94
661.93	290.67
662.342	295.35
662.754	274.28
663.165	325.77
663.577	278.96
663.989	353.86
664.401	318.75
664.812	318.75
665.224	311.73
665.635	316.41
666.047	335.14
666.458	358.54
666.869	386.63
667.281	365.56
667.692	386.63
668.103	353.86
668.514	337.48
668.925	318.75
669.336	377.27
669.747	290.67
670.158	372.58
670.569	260.24
670.979	311.73
671.39	318.75
671.801	260.24
672.211	283.64
672.622	278.96
673.032	365.56
673.443	293.01
673.853	311.73
674.263	337.48
674.674	367.9
675.084	302.37
675.494	351.52
675.904	243.85
676.314	311.73
676.724	388.97
677.134	290.67
677.544	332.79
677.953	325.77
678.363	318.75
678.773	370.24
679.182	274.28
679.592	328.11
680.001	316.41
680.411	321.09
680.82	304.71
681.23	220.45
681.639	255.56
682.048	349.18
682.457	332.79
682.866	384.29
683.275	332.79
683.684	342.16
684.093	332.79
684.502	356.2
684.911	278.96
685.32	285.98
685.728	351.52
686.137	323.43
686.546	367.9
686.954	344.5
687.363	276.62
687.771	323.43
688.179	318.75
688.588	304.71
688.996	344.5
689.404	304.71
689.812	300.03
690.22	325.77
690.628	314.07
691.036	293.01
691.444	304.71
691.852	307.05
692.26	339.82
692.667	267.26
693.075	318.75
693.483	393.65
693.89	278.96
694.298	342.16
694.705	356.2
695.112	288.32
695.52	358.54
695.927	260.24
696.334	342.16
696.741	311.73
697.148	339.82
697.555	351.52
697.962	316.41
698.369	328.11
698.776	271.94
699.183	332.79
699.59	304.71
699.996	372.58
700.403	372.58
700.81	381.95
701.216	323.43
701.623	323.43
702.029	293.01
702.435	344.5
702.842	325.77
703.248	318.75
703.654	285.98
704.06	295.35
704.466	349.18
704.872	293.01
705.278	297.69
705.684	323.43
706.09	337.48
706.496	276.62
706.901	328.11
707.307	344.5
707.712	300.03
708.118	372.58
708.523	281.3
708.929	283.64
709.334	316.41
709.74	363.22
710.145	335.14
710.55	288.32
710.955	318.75
711.36	278.96
711.765	250.88
712.17	372.58
712.575	269.6
712.98	915.59
713.385	278.96
713.789	321.09
714.194	353.86
714.599	283.64
715.003	335.14
715.408	335.14
715.812	271.94
716.217	321.09
716.621	337.48
717.025	311.73
717.429	330.45
717.833	278.96
718.238	351.52
718.642	293.01
719.046	253.22
719.449	276.62
719.853	330.45
720.257	323.43
720.661	351.52
721.065	311.73
721.468	285.98
721.872	351.52
722.275	304.71
722.679	300.03
723.082	314.07
723.485	309.39
723.889	356.2
724.292	342.16
724.695	372.58
725.098	318.75
725.501	339.82
725.904	269.6
726.307	323.43
726.71	349.18
727.113	405.35
727.516	323.43
727.918	293.01
728.321	332.79
728.724	342.16
729.126	309.39
729.529	332.79
729.931	295.35
730.333	351.52
730.736	342.16
731.138	311.73
731.54	328.11
731.942	276.62
732.344	356.2
732.746	332.79
733.148	285.98
733.55	349.18
733.952	332.79
734.354	339.82
734.756	285.98
735.157	271.94
735.559	257.9
735.96	356.2
736.362	323.43
736.763	314.07
737.165	367.9
737.566	370.24
737.967	335.14
738.368	295.35
738.77	304.71
739.171	300.03
739.572	276.62
739.973	321.09
740.374	337.48
740.774	370.24
741.175	335.14
741.576	328.11
741.977	332.79
742.377	307.05
742.778	257.9
743.178	274.28
743.579	330.45
743.979	309.39
744.379	293.01
744.78	318.75
745.18	384.29
745.58	407.69
745.98	325.77
746.38	314.07
746.78	325.77
747.18	283.64
747.58	314.07
747.98	367.9
748.38	304.71
748.779	255.56
749.179	314.07
749.578	351.52
749.978	328.11
750.377	295.35
750.777	304.71
751.176	370.24
751.575	328.11
751.975	339.82
752.374	243.85
752.773	309.39
753.172	323.43
753.571	241.51
753.97	342.16
754.369	302.37
754.768	246.2
755.166	300.03
755.565	297.69
755.964	365.56
756.362	379.61
756.761	346.84
757.159	302.37
757.558	358.54
757.956	339.82
758.354	332.79
758.753	297.69
759.151	360.88
759.549	323.43
759.947	309.39
760.345	356.2
760.743	330.45
761.141	300.03
761.539	351.52
761.936	321.09
762.334	311.73
762.732	300.03
763.129	321.09
763.527	318.75
763.924	309.39
764.322	365.56
764.719	363.22
