Data from Al_FLMS009871__1150__16-36-05-791.txt Node

Date: Fri Mar 08 16:36:05 CST 2024
User: pe5414po
Spectrometer: FLMS00987
Trigger mode: 0
Integration Time (sec): 1.000000E-1
Scans to average: 1
Electric dark correction enabled: true
Nonlinearity correction enabled: false
Boxcar width: 0
XAxis mode: Wavelengths
Number of Pixels in Spectrum: 2048
>>>>>Begin Spectral Data<<<<<
188.938	-84.55
189.409	-84.55
189.879	-84.55
190.349	-96.25
190.819	-72.85
191.29	-129.02
191.76	-72.85
192.23	-58.81
192.7	-100.94
193.17	-51.78
193.64	-84.55
194.109	-14.34
194.579	67.58
195.049	-65.83
195.519	-23.7
195.988	53.54
196.458	27.79
196.927	112.05
197.397	53.54
197.866	102.69
198.336	184.61
198.805	133.12
199.274	151.84
199.744	170.57
200.213	189.29
200.682	236.1
201.151	215.04
201.62	224.4
202.089	243.12
202.558	299.3
203.027	247.8
203.495	311
203.964	301.64
204.433	301.64
204.902	254.83
205.37	294.61
205.839	303.98
206.307	289.93
206.776	350.79
207.244	336.74
207.712	275.89
208.181	322.7
208.649	301.64
209.117	308.66
209.585	315.68
210.053	299.3
210.521	238.44
210.989	285.25
211.457	353.13
211.925	315.68
212.393	325.04
212.861	303.98
213.328	280.57
213.796	296.96
214.264	203.33
214.731	217.38
215.199	285.25
215.666	254.83
216.133	254.83
216.601	240.78
217.068	247.8
217.535	280.57
218.003	336.74
218.47	247.8
218.937	296.96
219.404	243.12
219.871	203.33
220.338	268.87
220.805	289.93
221.271	259.51
221.738	282.91
222.205	231.42
222.671	287.59
223.138	287.59
223.605	254.83
224.071	247.8
224.538	296.96
225.004	306.32
225.47	306.32
225.937	196.31
226.403	303.98
226.869	268.87
227.335	198.65
227.801	212.7
228.267	217.38
228.733	182.27
229.199	273.55
229.665	266.53
230.131	212.7
230.597	285.25
231.062	294.61
231.528	266.53
231.994	299.3
232.459	198.65
232.925	229.08
233.39	271.21
233.856	280.57
234.321	343.77
234.786	332.06
235.252	252.49
235.717	268.87
236.182	301.64
236.647	306.32
237.112	238.44
237.577	250.14
238.042	306.32
238.507	289.93
238.972	264.19
239.436	252.49
239.901	273.55
240.366	259.51
240.83	301.64
241.295	332.06
241.76	278.23
242.224	280.57
242.688	282.91
243.153	332.06
243.617	313.34
244.081	231.42
244.545	306.32
245.01	252.49
245.474	322.7
245.938	294.61
246.402	282.91
246.866	339.09
247.33	306.32
247.793	299.3
248.257	238.44
248.721	261.85
249.185	318.02
249.648	282.91
250.112	287.59
250.575	280.57
251.039	306.32
251.502	264.19
251.965	294.61
252.429	250.14
252.892	329.72
253.355	250.14
253.818	280.57
254.281	336.74
254.744	325.04
255.207	261.85
255.67	259.51
256.133	287.59
256.596	306.32
257.059	226.74
257.522	259.51
257.984	250.14
258.447	348.45
258.909	339.09
259.372	229.08
259.834	301.64
260.297	292.27
260.759	219.72
261.221	327.38
261.684	271.21
262.146	280.57
262.608	303.98
263.07	285.25
263.532	325.04
263.994	292.27
264.456	343.77
264.918	275.89
265.38	257.17
265.842	311
266.303	294.61
266.765	311
267.227	261.85
267.688	313.34
268.15	238.44
268.611	313.34
269.072	289.93
269.534	334.4
269.995	303.98
270.456	303.98
270.918	313.34
271.379	353.13
271.84	259.51
272.301	364.83
272.762	327.38
273.223	327.38
273.684	301.64
274.144	292.27
274.605	287.59
275.066	259.51
275.527	329.72
275.987	318.02
276.448	350.79
276.908	329.72
277.369	268.87
277.829	257.17
278.289	292.27
278.75	336.74
279.21	261.85
279.67	278.23
280.13	275.89
280.59	243.12
281.05	296.96
281.51	240.78
281.97	371.85
282.43	280.57
282.89	236.1
283.35	292.27
283.809	268.87
284.269	315.68
284.729	292.27
285.188	280.57
285.648	247.8
286.107	311
286.567	325.04
287.026	341.43
287.485	292.27
287.944	360.15
288.404	275.89
288.863	301.64
289.322	261.85
289.781	299.3
290.24	289.93
290.699	294.61
291.158	360.15
291.616	306.32
292.075	385.9
292.534	236.1
292.992	289.93
293.451	299.3
293.91	254.83
294.368	289.93
294.827	360.15
295.285	311
295.743	306.32
296.202	313.34
296.66	264.19
297.118	247.8
297.576	238.44
298.034	353.13
298.492	303.98
298.95	322.7
299.408	252.49
299.866	346.11
300.324	306.32
300.781	252.49
301.239	336.74
301.697	282.91
302.154	320.36
302.612	301.64
303.069	301.64
303.527	250.14
303.984	332.06
304.441	266.53
304.899	271.21
305.356	285.25
305.813	311
306.27	285.25
306.727	313.34
307.184	296.96
307.641	313.34
308.098	364.83
308.555	275.89
309.012	350.79
309.468	236.1
309.925	299.3
310.382	306.32
310.838	294.61
311.295	369.51
311.751	308.66
312.208	315.68
312.664	325.04
313.12	294.61
313.577	318.02
314.033	264.19
314.489	301.64
314.945	311
315.401	322.7
315.857	301.64
316.313	308.66
316.769	294.61
317.225	280.57
317.681	285.25
318.136	346.11
318.592	278.23
319.048	294.61
319.503	334.4
319.959	318.02
320.414	315.68
320.869	348.45
321.325	243.12
321.78	348.45
322.235	296.96
322.691	306.32
323.146	336.74
323.601	329.72
324.056	318.02
324.511	311
324.966	362.49
325.421	320.36
325.875	294.61
326.33	287.59
326.785	285.25
327.24	306.32
327.694	289.93
328.149	318.02
328.603	282.91
329.058	275.89
329.512	339.09
329.966	329.72
330.421	278.23
330.875	271.21
331.329	360.15
331.783	318.02
332.237	289.93
332.691	329.72
333.145	296.96
333.599	289.93
334.053	348.45
334.507	296.96
334.96	289.93
335.414	268.87
335.868	348.45
336.321	369.51
336.775	320.36
337.228	306.32
337.682	282.91
338.135	299.3
338.588	364.83
339.042	308.66
339.495	296.96
339.948	303.98
340.401	268.87
340.854	343.77
341.307	320.36
341.76	367.17
342.213	313.34
342.666	320.36
343.119	292.27
343.571	257.17
344.024	266.53
344.477	285.25
344.929	341.43
345.382	336.74
345.834	308.66
346.287	327.38
346.739	299.3
347.191	327.38
347.644	311
348.096	343.77
348.548	264.19
349	278.23
349.452	292.27
349.904	289.93
350.356	245.46
350.808	294.61
351.26	301.64
351.711	252.49
352.163	315.68
352.615	275.89
353.066	388.24
353.518	313.34
353.969	264.19
354.421	264.19
354.872	369.51
355.324	318.02
355.775	336.74
356.226	318.02
356.677	303.98
357.128	303.98
357.579	306.32
358.03	376.53
358.481	325.04
358.932	327.38
359.383	364.83
359.834	343.77
360.285	346.11
360.735	320.36
361.186	353.13
361.637	315.68
362.087	325.04
362.538	329.72
362.988	318.02
363.438	315.68
363.889	329.72
364.339	329.72
364.789	332.06
365.239	315.68
365.689	362.49
366.139	318.02
366.589	252.49
367.039	289.93
367.489	329.72
367.939	282.91
368.389	325.04
368.839	282.91
369.288	278.23
369.738	313.34
370.187	322.7
370.637	296.96
371.086	332.06
371.536	311
371.985	308.66
372.434	318.02
372.884	367.17
373.333	313.34
373.782	313.34
374.231	259.51
374.68	296.96
375.129	318.02
375.578	261.85
376.027	299.3
376.475	329.72
376.924	292.27
377.373	287.59
377.822	278.23
378.27	339.09
378.719	341.43
379.167	430.37
379.616	325.04
380.064	282.91
380.512	313.34
380.961	369.51
381.409	339.09
381.857	329.72
382.305	374.19
382.753	350.79
383.201	299.3
383.649	355.47
384.097	261.85
384.545	259.51
384.992	336.74
385.44	367.17
385.888	329.72
386.335	353.13
386.783	343.77
387.231	311
387.678	299.3
388.125	360.15
388.573	325.04
389.02	282.91
389.467	355.47
389.914	339.09
390.362	308.66
390.809	268.87
391.256	322.7
391.703	329.72
392.15	327.38
392.596	329.72
393.043	381.21
393.49	303.98
393.937	355.47
394.383	320.36
394.83	322.7
395.276	306.32
395.723	327.38
396.169	301.64
396.616	289.93
397.062	257.17
397.508	311
397.954	334.4
398.401	299.3
398.847	315.68
399.293	346.11
399.739	289.93
400.185	362.49
400.631	292.27
401.076	264.19
401.522	278.23
401.968	367.17
402.414	339.09
402.859	289.93
403.305	308.66
403.75	287.59
404.196	327.38
404.641	341.43
405.086	339.09
405.532	334.4
405.977	282.91
406.422	292.27
406.867	336.74
407.312	313.34
407.757	348.45
408.202	336.74
408.647	289.93
409.092	329.72
409.537	313.34
409.982	313.34
410.426	306.32
410.871	287.59
411.316	313.34
411.76	332.06
412.205	341.43
412.649	348.45
413.093	306.32
413.538	299.3
413.982	294.61
414.426	299.3
414.87	327.38
415.314	357.81
415.758	329.72
416.202	294.61
416.646	301.64
417.09	311
417.534	303.98
417.978	322.7
418.421	318.02
418.865	303.98
419.309	336.74
419.752	327.38
420.196	299.3
420.639	296.96
421.083	313.34
421.526	287.59
421.969	315.68
422.412	348.45
422.856	306.32
423.299	346.11
423.742	320.36
424.185	273.55
424.628	285.25
425.071	348.45
425.513	343.77
425.956	327.38
426.399	313.34
426.842	341.43
427.284	294.61
427.727	311
428.169	278.23
428.612	285.25
429.054	346.11
429.497	294.61
429.939	318.02
430.381	329.72
430.823	271.21
431.265	301.64
431.707	322.7
432.149	301.64
432.591	313.34
433.033	320.36
433.475	332.06
433.917	318.02
434.359	336.74
434.8	238.44
435.242	346.11
435.684	261.85
436.125	367.17
436.567	343.77
437.008	289.93
437.449	357.81
437.891	390.58
438.332	360.15
438.773	306.32
439.214	315.68
439.656	280.57
440.097	306.32
440.538	299.3
440.978	362.49
441.419	292.27
441.86	334.4
442.301	339.09
442.742	357.81
443.182	339.09
443.623	318.02
444.063	362.49
444.504	332.06
444.944	313.34
445.385	313.34
445.825	320.36
446.265	357.81
446.706	313.34
447.146	322.7
447.586	322.7
448.026	243.12
448.466	261.85
448.906	360.15
449.346	308.66
449.786	341.43
450.225	320.36
450.665	273.55
451.105	271.21
451.544	311
451.984	327.38
452.424	332.06
452.863	364.83
453.302	334.4
453.742	280.57
454.181	282.91
454.62	308.66
455.059	353.13
455.499	385.9
455.938	329.72
456.377	369.51
456.816	376.53
457.254	339.09
457.693	327.38
458.132	346.11
458.571	341.43
459.01	303.98
459.448	327.38
459.887	348.45
460.325	353.13
460.764	308.66
461.202	360.15
461.641	334.4
462.079	355.47
462.517	306.32
462.955	329.72
463.393	280.57
463.832	343.77
464.27	264.19
464.708	339.09
465.145	266.53
465.583	296.96
466.021	315.68
466.459	266.53
466.897	341.43
467.334	308.66
467.772	212.7
468.209	236.1
468.647	336.74
469.084	294.61
469.522	348.45
469.959	371.85
470.396	350.79
470.833	329.72
471.271	303.98
471.708	322.7
472.145	325.04
472.582	243.12
473.019	341.43
473.456	294.61
473.892	369.51
474.329	296.96
474.766	343.77
475.202	280.57
475.639	280.57
476.076	388.24
476.512	343.77
476.949	264.19
477.385	278.23
477.821	329.72
478.258	378.87
478.694	334.4
479.13	303.98
479.566	357.81
480.002	406.96
480.438	388.24
480.874	315.68
481.31	350.79
481.746	271.21
482.181	318.02
482.617	303.98
483.053	306.32
483.488	252.49
483.924	315.68
484.36	296.96
484.795	252.49
485.23	329.72
485.666	334.4
486.101	339.09
486.536	287.59
486.971	278.23
487.407	271.21
487.842	329.72
488.277	350.79
488.712	339.09
489.146	311
489.581	325.04
490.016	322.7
490.451	374.19
490.885	303.98
491.32	299.3
491.755	282.91
492.189	266.53
492.624	357.81
493.058	341.43
493.492	334.4
493.927	378.87
494.361	322.7
494.795	318.02
495.229	313.34
495.663	315.68
496.097	308.66
496.531	332.06
496.965	343.77
497.399	308.66
497.833	306.32
498.266	381.21
498.7	294.61
499.134	343.77
499.567	413.98
500.001	315.68
500.434	362.49
500.868	299.3
501.301	325.04
501.734	350.79
502.168	399.94
502.601	320.36
503.034	334.4
503.467	254.83
503.9	332.06
504.333	245.46
504.766	369.51
505.199	315.68
505.632	266.53
506.064	388.24
506.497	313.34
506.93	350.79
507.362	259.51
507.795	313.34
508.227	308.66
508.66	332.06
509.092	308.66
509.524	343.77
509.956	294.61
510.389	287.59
510.821	360.15
511.253	296.96
511.685	367.17
512.117	327.38
512.549	334.4
512.981	346.11
513.412	348.45
513.844	364.83
514.276	282.91
514.707	334.4
515.139	217.38
515.571	313.34
516.002	343.77
516.433	341.43
516.865	315.68
517.296	313.34
517.727	289.93
518.159	343.77
518.59	346.11
519.021	339.09
519.452	303.98
519.883	395.26
520.314	399.94
520.744	362.49
521.175	346.11
521.606	346.11
522.037	303.98
522.467	315.68
522.898	287.59
523.328	282.91
523.759	278.23
524.189	336.74
524.62	334.4
525.05	301.64
525.48	303.98
525.91	264.19
526.341	268.87
526.771	315.68
527.201	299.3
527.631	322.7
528.061	346.11
528.49	296.96
528.92	325.04
529.35	296.96
529.78	327.38
530.209	315.68
530.639	343.77
531.068	273.55
531.498	362.49
531.927	367.17
532.357	245.46
532.786	357.81
533.215	294.61
533.644	311
534.074	289.93
534.503	308.66
534.932	318.02
535.361	271.21
535.79	336.74
536.218	287.59
536.647	287.59
537.076	325.04
537.505	301.64
537.933	311
538.362	334.4
538.79	339.09
539.219	339.09
539.647	303.98
540.076	257.17
540.504	306.32
540.932	294.61
541.36	308.66
541.788	369.51
542.217	383.56
542.645	348.45
543.073	341.43
543.5	399.94
543.928	327.38
544.356	306.32
544.784	397.6
545.211	313.34
545.639	339.09
546.067	311
546.494	311
546.922	364.83
547.349	383.56
547.776	360.15
548.204	294.61
548.631	369.51
549.058	268.87
549.485	292.27
549.912	355.47
550.339	350.79
550.766	327.38
551.193	325.04
551.62	318.02
552.047	315.68
552.474	313.34
552.9	282.91
553.327	353.13
553.754	268.87
554.18	259.51
554.607	346.11
555.033	364.83
555.459	320.36
555.886	320.36
556.312	362.49
556.738	334.4
557.164	236.1
557.59	271.21
558.016	280.57
558.442	259.51
558.868	348.45
559.294	299.3
559.72	268.87
560.145	306.32
560.571	339.09
560.997	308.66
561.422	311
561.848	259.51
562.273	315.68
562.699	285.25
563.124	343.77
563.549	383.56
563.974	292.27
564.4	301.64
564.825	392.92
565.25	343.77
565.675	329.72
566.1	355.47
566.525	378.87
566.95	329.72
567.374	367.17
567.799	364.83
568.224	371.85
568.648	313.34
569.073	266.53
569.497	280.57
569.922	315.68
570.346	320.36
570.771	346.11
571.195	243.12
571.619	329.72
572.043	320.36
572.467	285.25
572.891	311
573.315	357.81
573.739	308.66
574.163	378.87
574.587	355.47
575.011	275.89
575.435	313.34
575.858	315.68
576.282	266.53
576.705	381.21
577.129	364.83
577.552	308.66
577.976	329.72
578.399	346.11
578.822	292.27
579.245	306.32
579.669	320.36
580.092	341.43
580.515	329.72
580.938	303.98
581.361	343.77
581.784	289.93
582.206	303.98
582.629	294.61
583.052	271.21
583.474	376.53
583.897	325.04
584.32	327.38
584.742	341.43
585.165	264.19
585.587	303.98
586.009	306.32
586.431	329.72
586.854	318.02
587.276	336.74
587.698	322.7
588.12	315.68
588.542	383.56
588.964	381.21
589.386	357.81
589.807	252.49
590.229	292.27
590.651	362.49
591.073	306.32
591.494	332.06
591.916	296.96
592.337	322.7
592.759	329.72
593.18	353.13
593.601	303.98
594.022	348.45
594.444	308.66
594.865	289.93
595.286	362.49
595.707	285.25
596.128	355.47
596.549	339.09
596.97	320.36
597.39	367.17
597.811	369.51
598.232	334.4
598.652	299.3
599.073	360.15
599.494	299.3
599.914	308.66
600.334	320.36
600.755	357.81
601.175	332.06
601.595	334.4
602.015	311
602.436	360.15
602.856	444.41
603.276	322.7
603.696	348.45
604.115	327.38
604.535	289.93
604.955	271.21
605.375	322.7
605.794	327.38
606.214	320.36
606.634	315.68
607.053	282.91
607.473	355.47
607.892	334.4
608.311	360.15
608.731	320.36
609.15	313.34
609.569	329.72
609.988	353.13
610.407	336.74
610.826	327.38
611.245	303.98
611.664	257.17
612.083	278.23
612.501	348.45
612.92	301.64
613.339	252.49
613.757	318.02
614.176	334.4
614.594	308.66
615.013	360.15
615.431	315.68
615.85	306.32
616.268	231.42
616.686	259.51
617.104	332.06
617.522	404.62
617.94	343.77
618.358	306.32
618.776	301.64
619.194	318.02
619.612	252.49
620.03	250.14
620.447	371.85
620.865	289.93
621.282	339.09
621.7	339.09
622.117	311
622.535	311
622.952	353.13
623.369	336.74
623.787	322.7
624.204	289.93
624.621	313.34
625.038	292.27
625.455	353.13
625.872	322.7
626.289	259.51
626.706	299.3
627.123	275.89
627.539	278.23
627.956	313.34
628.373	292.27
628.789	311
629.206	299.3
629.622	367.17
630.038	341.43
630.455	243.12
630.871	271.21
631.287	315.68
631.703	257.17
632.12	289.93
632.536	315.68
632.952	320.36
633.368	292.27
633.783	327.38
634.199	357.81
634.615	292.27
635.031	303.98
635.446	299.3
635.862	320.36
636.277	303.98
636.693	332.06
637.108	383.56
637.524	367.17
637.939	346.11
638.354	318.02
638.77	257.17
639.185	320.36
639.6	350.79
640.015	296.96
640.43	315.68
640.845	289.93
641.259	378.87
641.674	257.17
642.089	301.64
642.504	343.77
642.918	320.36
643.333	332.06
643.747	266.53
644.162	280.57
644.576	343.77
644.991	388.24
645.405	294.61
645.819	318.02
646.233	325.04
646.647	301.64
647.061	271.21
647.475	303.98
647.889	357.81
648.303	315.68
648.717	299.3
649.131	306.32
649.545	308.66
649.958	346.11
650.372	287.59
650.785	306.32
651.199	353.13
651.612	353.13
652.026	339.09
652.439	367.17
652.852	353.13
653.266	343.77
653.679	306.32
654.092	341.43
654.505	318.02
654.918	273.55
655.331	343.77
655.744	301.64
656.156	341.43
656.569	353.13
656.982	303.98
657.394	348.45
657.807	308.66
658.22	327.38
658.632	376.53
659.044	285.25
659.457	294.61
659.869	273.55
660.281	254.83
660.693	294.61
661.106	336.74
661.518	327.38
661.93	322.7
662.342	327.38
662.754	308.66
663.165	296.96
663.577	339.09
663.989	374.19
664.401	306.32
664.812	306.32
665.224	320.36
665.635	257.17
666.047	329.72
666.458	348.45
666.869	423.34
667.281	355.47
667.692	313.34
668.103	308.66
668.514	327.38
668.925	350.79
669.336	320.36
669.747	332.06
670.158	315.68
670.569	343.77
670.979	332.06
671.39	332.06
671.801	322.7
672.211	381.21
672.622	268.87
673.032	360.15
673.443	350.79
673.853	289.93
674.263	325.04
674.674	353.13
675.084	261.85
675.494	322.7
675.904	357.81
676.314	306.32
676.724	320.36
677.134	287.59
677.544	360.15
677.953	313.34
678.363	325.04
678.773	346.11
679.182	334.4
679.592	374.19
680.001	360.15
680.411	287.59
680.82	353.13
681.23	306.32
681.639	334.4
682.048	341.43
682.457	325.04
682.866	320.36
683.275	315.68
683.684	278.23
684.093	257.17
684.502	315.68
684.911	318.02
685.32	357.81
685.728	320.36
686.137	346.11
686.546	315.68
686.954	329.72
687.363	285.25
687.771	252.49
688.179	325.04
688.588	348.45
688.996	327.38
689.404	332.06
689.812	292.27
690.22	306.32
690.628	275.89
691.036	250.14
691.444	360.15
691.852	355.47
692.26	306.32
692.667	303.98
693.075	348.45
693.483	285.25
693.89	208.02
694.298	282.91
694.705	243.12
695.112	350.79
695.52	383.56
695.927	303.98
696.334	336.74
696.741	329.72
697.148	327.38
697.555	320.36
697.962	285.25
698.369	334.4
698.776	313.34
699.183	311
699.59	341.43
699.996	280.57
700.403	343.77
700.81	374.19
701.216	313.34
701.623	294.61
702.029	315.68
702.435	250.14
702.842	329.72
703.248	313.34
703.654	280.57
704.06	301.64
704.466	325.04
704.872	299.3
705.278	336.74
705.684	325.04
706.09	383.56
706.496	362.49
706.901	339.09
707.307	311
707.712	264.19
708.118	329.72
708.523	296.96
708.929	336.74
709.334	336.74
709.74	280.57
710.145	289.93
710.55	287.59
710.955	282.91
711.36	287.59
711.765	348.45
712.17	315.68
712.575	301.64
712.98	903.15
713.385	315.68
713.789	341.43
714.194	296.96
714.599	341.43
715.003	369.51
715.408	273.55
715.812	336.74
716.217	268.87
716.621	346.11
717.025	350.79
717.429	346.11
717.833	343.77
718.238	315.68
718.642	348.45
719.046	341.43
719.449	329.72
719.853	259.51
720.257	385.9
720.661	364.83
721.065	318.02
721.468	318.02
721.872	301.64
722.275	322.7
722.679	301.64
723.082	278.23
723.485	315.68
723.889	397.6
724.292	280.57
724.695	364.83
725.098	306.32
725.501	259.51
725.904	327.38
726.307	339.09
726.71	320.36
727.113	296.96
727.516	315.68
727.918	250.14
728.321	289.93
728.724	374.19
729.126	301.64
729.529	325.04
729.931	367.17
730.333	278.23
730.736	343.77
731.138	374.19
731.54	334.4
731.942	308.66
732.344	306.32
732.746	348.45
733.148	320.36
733.55	301.64
733.952	315.68
734.354	357.81
734.756	322.7
735.157	308.66
735.559	308.66
735.96	320.36
736.362	355.47
736.763	289.93
737.165	367.17
737.566	311
737.967	289.93
738.368	301.64
738.77	296.96
739.171	308.66
739.572	294.61
739.973	334.4
740.374	303.98
740.774	254.83
741.175	273.55
741.576	383.56
741.977	325.04
742.377	346.11
742.778	336.74
743.178	275.89
743.579	254.83
743.979	311
744.379	278.23
744.78	254.83
745.18	341.43
745.58	332.06
745.98	313.34
746.38	306.32
746.78	313.34
747.18	275.89
747.58	261.85
747.98	369.51
748.38	339.09
748.779	266.53
749.179	346.11
749.578	311
749.978	364.83
750.377	261.85
750.777	346.11
751.176	315.68
751.575	294.61
751.975	306.32
752.374	306.32
752.773	371.85
753.172	334.4
753.571	303.98
753.97	311
754.369	296.96
754.768	245.46
755.166	353.13
755.565	332.06
755.964	322.7
756.362	339.09
756.761	397.6
757.159	367.17
757.558	336.74
757.956	364.83
758.354	303.98
758.753	280.57
759.151	275.89
759.549	296.96
759.947	273.55
760.345	355.47
760.743	292.27
761.141	388.24
761.539	353.13
761.936	313.34
762.334	296.96
762.732	364.83
763.129	303.98
763.527	367.17
763.924	364.83
764.322	306.32
764.719	329.72
765.117	327.38
765.514	322.7
765.911	254.83
766.308	287.59
766.705	289.93
