Data from Al_FLMS009871__1149__16-36-05-690.txt Node

Date: Fri Mar 08 16:36:05 CST 2024
User: pe5414po
Spectrometer: FLMS00987
Trigger mode: 0
Integration Time (sec): 1.000000E-1
Scans to average: 1
Electric dark correction enabled: true
Nonlinearity correction enabled: false
Boxcar width: 0
XAxis mode: Wavelengths
Number of Pixels in Spectrum: 2048
>>>>>Begin Spectral Data<<<<<
188.938	-82.07
189.409	-82.07
189.879	-82.07
190.349	-100.79
190.819	-61
191.29	-98.45
191.76	-44.62
192.23	-107.81
192.7	-112.49
193.17	-79.72
193.64	-51.64
194.109	-18.87
194.579	-56.32
195.049	-11.85
195.519	65.39
195.988	-37.59
196.458	58.37
196.927	72.41
197.397	91.13
197.866	151.99
198.336	180.07
198.805	56.03
199.274	123.9
199.744	217.52
200.213	229.23
200.682	201.14
201.151	137.95
201.62	266.67
202.089	276.04
202.558	304.12
203.027	261.99
203.495	245.61
203.964	294.76
204.433	276.04
204.902	318.17
205.37	306.46
205.839	322.85
206.307	360.3
206.776	364.98
207.244	283.06
207.712	348.59
208.181	350.93
208.649	318.17
209.117	348.59
209.585	322.85
210.053	313.49
210.521	318.17
210.989	339.23
211.457	280.72
211.925	294.76
212.393	332.21
212.861	240.93
213.328	290.08
213.796	273.7
214.264	294.76
214.731	327.53
215.199	353.27
215.666	231.57
216.133	285.4
216.601	327.53
217.068	292.42
217.535	329.87
218.003	273.7
218.47	308.8
218.937	278.38
219.404	313.49
219.871	332.21
220.338	290.08
220.805	269.02
221.271	273.7
221.738	252.63
222.205	252.63
222.671	254.97
223.138	292.42
223.605	299.44
224.071	292.42
224.538	269.02
225.004	247.95
225.47	290.08
225.937	259.65
226.403	290.08
226.869	320.51
227.335	318.17
227.801	339.23
228.267	250.29
228.733	297.1
229.199	205.82
229.665	236.25
230.131	271.36
230.597	339.23
231.062	278.38
231.528	348.59
231.994	294.76
232.459	254.97
232.925	322.85
233.39	343.91
233.856	266.67
234.321	294.76
234.786	299.44
235.252	271.36
235.717	259.65
236.182	294.76
236.647	290.08
237.112	278.38
237.577	311.14
238.042	269.02
238.507	280.72
238.972	320.51
239.436	259.65
239.901	299.44
240.366	264.33
240.83	353.27
241.295	318.17
241.76	240.93
242.224	301.78
242.688	318.17
243.153	254.97
243.617	287.74
244.081	301.78
244.545	257.31
245.01	254.97
245.474	243.27
245.938	353.27
246.402	299.44
246.866	266.67
247.33	266.67
247.793	273.7
248.257	264.33
248.721	283.06
249.185	285.4
249.648	294.76
250.112	341.57
250.575	201.14
251.039	285.4
251.502	266.67
251.965	271.36
252.429	233.91
252.892	332.21
253.355	271.36
253.818	252.63
254.281	315.83
254.744	301.78
255.207	318.17
255.67	343.91
256.133	250.29
256.596	259.65
257.059	346.25
257.522	306.46
257.984	315.83
258.447	348.59
258.909	301.78
259.372	273.7
259.834	311.14
260.297	320.51
260.759	322.85
261.221	266.67
261.684	294.76
262.146	299.44
262.608	327.53
263.07	285.4
263.532	304.12
263.994	276.04
264.456	372
264.918	334.55
265.38	276.04
265.842	322.85
266.303	364.98
266.765	292.42
267.227	301.78
267.688	313.49
268.15	313.49
268.611	269.02
269.072	346.25
269.534	393.06
269.995	313.49
270.456	341.57
270.918	348.59
271.379	395.4
271.84	301.78
272.301	318.17
272.762	261.99
273.223	276.04
273.684	261.99
274.144	327.53
274.605	343.91
275.066	278.38
275.527	322.85
275.987	343.91
276.448	292.42
276.908	283.06
277.369	301.78
277.829	290.08
278.289	311.14
278.75	308.8
279.21	299.44
279.67	290.08
280.13	306.46
280.59	271.36
281.05	306.46
281.51	292.42
281.97	301.78
282.43	315.83
282.89	240.93
283.35	348.59
283.809	360.3
284.269	304.12
284.729	353.27
285.188	386.04
285.648	290.08
286.107	219.86
286.567	299.44
287.026	273.7
287.485	318.17
287.944	269.02
288.404	247.95
288.863	334.55
289.322	257.31
289.781	315.83
290.24	311.14
290.699	350.93
291.158	320.51
291.616	299.44
292.075	362.64
292.534	360.3
292.992	290.08
293.451	322.85
293.91	287.74
294.368	240.93
294.827	299.44
295.285	273.7
295.743	346.25
296.202	381.36
296.66	297.1
297.118	287.74
297.576	261.99
298.034	264.33
298.492	301.78
298.95	357.96
299.408	334.55
299.866	306.46
300.324	318.17
300.781	332.21
301.239	355.62
301.697	325.19
302.154	306.46
302.612	283.06
303.069	304.12
303.527	334.55
303.984	353.27
304.441	339.23
304.899	336.89
305.356	346.25
305.813	376.68
306.27	301.78
306.727	290.08
307.184	301.78
307.641	329.87
308.098	233.91
308.555	318.17
309.012	278.38
309.468	252.63
309.925	252.63
310.382	343.91
310.838	315.83
311.295	273.7
311.751	348.59
312.208	353.27
312.664	297.1
313.12	325.19
313.577	304.12
314.033	346.25
314.489	329.87
314.945	301.78
315.401	357.96
315.857	322.85
316.313	306.46
316.769	341.57
317.225	360.3
317.681	257.31
318.136	285.4
318.592	306.46
319.048	318.17
319.503	313.49
319.959	285.4
320.414	285.4
320.869	348.59
321.325	315.83
321.78	364.98
322.235	322.85
322.691	252.63
323.146	327.53
323.601	343.91
324.056	292.42
324.511	299.44
324.966	329.87
325.421	297.1
325.875	329.87
326.33	308.8
326.785	329.87
327.24	397.74
327.694	297.1
328.149	313.49
328.603	353.27
329.058	290.08
329.512	304.12
329.966	278.38
330.421	355.62
330.875	292.42
331.329	325.19
331.783	327.53
332.237	311.14
332.691	301.78
333.145	322.85
333.599	325.19
334.053	306.46
334.507	276.04
334.96	336.89
335.414	318.17
335.868	334.55
336.321	297.1
336.775	346.25
337.228	367.32
337.682	348.59
338.135	367.32
338.588	297.1
339.042	386.04
339.495	304.12
339.948	257.31
340.401	304.12
340.854	367.32
341.307	332.21
341.76	322.85
342.213	332.21
342.666	318.17
343.119	299.44
343.571	318.17
344.024	261.99
344.477	369.66
344.929	320.51
345.382	292.42
345.834	297.1
346.287	357.96
346.739	322.85
347.191	261.99
347.644	411.79
348.096	334.55
348.548	318.17
349	276.04
349.452	367.32
349.904	259.65
350.356	348.59
350.808	339.23
351.26	322.85
351.711	276.04
352.163	311.14
352.615	327.53
353.066	290.08
353.518	374.34
353.969	247.95
354.421	355.62
354.872	353.27
355.324	325.19
355.775	343.91
356.226	313.49
356.677	329.87
357.128	264.33
357.579	315.83
358.03	325.19
358.481	276.04
358.932	430.51
359.383	327.53
359.834	348.59
360.285	292.42
360.735	379.02
361.186	306.46
361.637	320.51
362.087	341.57
362.538	346.25
362.988	261.99
363.438	418.81
363.889	421.15
364.339	360.3
364.789	339.23
365.239	278.38
365.689	292.42
366.139	381.36
366.589	327.53
367.039	318.17
367.489	409.45
367.939	290.08
368.389	301.78
368.839	301.78
369.288	320.51
369.738	367.32
370.187	259.65
370.637	299.44
371.086	299.44
371.536	332.21
371.985	276.04
372.434	301.78
372.884	278.38
373.333	278.38
373.782	313.49
374.231	327.53
374.68	374.34
375.129	301.78
375.578	348.59
376.027	280.72
376.475	339.23
376.924	372
377.373	313.49
377.822	341.57
378.27	343.91
378.719	318.17
379.167	297.1
379.616	341.57
380.064	327.53
380.512	334.55
380.961	306.46
381.409	325.19
381.857	336.89
382.305	278.38
382.753	372
383.201	334.55
383.649	329.87
384.097	339.23
384.545	348.59
384.992	254.97
385.44	325.19
385.888	304.12
386.335	350.93
386.783	364.98
387.231	318.17
387.678	301.78
388.125	313.49
388.573	327.53
389.02	343.91
389.467	315.83
389.914	332.21
390.362	313.49
390.809	287.74
391.256	329.87
391.703	367.32
392.15	360.3
392.596	388.38
393.043	329.87
393.49	374.34
393.937	374.34
394.383	327.53
394.83	285.4
395.276	318.17
395.723	320.51
396.169	311.14
396.616	339.23
397.062	271.36
397.508	311.14
397.954	327.53
398.401	369.66
398.847	336.89
399.293	362.64
399.739	327.53
400.185	297.1
400.631	322.85
401.076	329.87
401.522	320.51
401.968	269.02
402.414	367.32
402.859	360.3
403.305	308.8
403.75	336.89
404.196	381.36
404.641	290.08
405.086	350.93
405.532	343.91
405.977	301.78
406.422	343.91
406.867	297.1
407.312	350.93
407.757	400.09
408.202	318.17
408.647	343.91
409.092	301.78
409.537	383.7
409.982	357.96
410.426	418.81
410.871	315.83
411.316	383.7
411.76	315.83
412.205	332.21
412.649	320.51
413.093	292.42
413.538	381.36
413.982	400.09
414.426	332.21
414.87	308.8
415.314	379.02
415.758	381.36
416.202	372
416.646	322.85
417.09	367.32
417.534	369.66
417.978	292.42
418.421	287.74
418.865	336.89
419.309	350.93
419.752	355.62
420.196	374.34
420.639	348.59
421.083	325.19
421.526	332.21
421.969	390.72
422.412	287.74
422.856	336.89
423.299	315.83
423.742	383.7
424.185	283.06
424.628	357.96
425.071	409.45
425.513	278.38
425.956	329.87
426.399	313.49
426.842	318.17
427.284	259.65
427.727	273.7
428.169	318.17
428.612	327.53
429.054	367.32
429.497	367.32
429.939	322.85
430.381	329.87
430.823	367.32
431.265	271.36
431.707	383.7
432.149	341.57
432.591	318.17
433.033	332.21
433.475	320.51
433.917	362.64
434.359	355.62
434.8	301.78
435.242	280.72
435.684	322.85
436.125	334.55
436.567	292.42
437.008	299.44
437.449	329.87
437.891	313.49
438.332	339.23
438.773	332.21
439.214	353.27
439.656	355.62
440.097	332.21
440.538	350.93
440.978	364.98
441.419	315.83
441.86	339.23
442.301	341.57
442.742	336.89
443.182	320.51
443.623	357.96
444.063	290.08
444.504	332.21
444.944	311.14
445.385	327.53
445.825	355.62
446.265	334.55
446.706	280.72
447.146	327.53
447.586	376.68
448.026	306.46
448.466	329.87
448.906	343.91
449.346	325.19
449.786	360.3
450.225	381.36
450.665	341.57
451.105	343.91
451.544	329.87
451.984	280.72
452.424	339.23
452.863	369.66
453.302	273.7
453.742	322.85
454.181	320.51
454.62	313.49
455.059	350.93
455.499	346.25
455.938	355.62
456.377	388.38
456.816	332.21
457.254	280.72
457.693	348.59
458.132	334.55
458.571	336.89
459.01	285.4
459.448	348.59
459.887	266.67
460.325	297.1
460.764	325.19
461.202	336.89
461.641	393.06
462.079	346.25
462.517	329.87
462.955	315.83
463.393	311.14
463.832	264.33
464.27	357.96
464.708	332.21
465.145	334.55
465.583	374.34
466.021	407.11
466.459	336.89
466.897	407.11
467.334	348.59
467.772	325.19
468.209	294.76
468.647	283.06
469.084	393.06
469.522	355.62
469.959	372
470.396	261.99
470.833	346.25
471.271	329.87
471.708	329.87
472.145	306.46
472.582	329.87
473.019	306.46
473.456	294.76
473.892	383.7
474.329	245.61
474.766	261.99
475.202	400.09
475.639	304.12
476.076	301.78
476.512	261.99
476.949	339.23
477.385	320.51
477.821	294.76
478.258	332.21
478.694	395.4
479.13	290.08
479.566	355.62
480.002	304.12
480.438	360.3
480.874	346.25
481.31	297.1
481.746	283.06
482.181	341.57
482.617	402.43
483.053	372
483.488	353.27
483.924	308.8
484.36	374.34
484.795	386.04
485.23	283.06
485.666	334.55
486.101	301.78
486.536	339.23
486.971	332.21
487.407	280.72
487.842	311.14
488.277	313.49
488.712	280.72
489.146	271.36
489.581	292.42
490.016	355.62
490.451	304.12
490.885	287.74
491.32	311.14
491.755	374.34
492.189	301.78
492.624	374.34
493.058	372
493.492	322.85
493.927	348.59
494.361	346.25
494.795	297.1
495.229	357.96
495.663	360.3
496.097	332.21
496.531	278.38
496.965	372
497.399	388.38
497.833	332.21
498.266	313.49
498.7	306.46
499.134	367.32
499.567	304.12
500.001	261.99
500.434	261.99
500.868	287.74
501.301	290.08
501.734	318.17
502.168	269.02
502.601	301.78
503.034	357.96
503.467	315.83
503.9	329.87
504.333	334.55
504.766	276.04
505.199	393.06
505.632	325.19
506.064	421.15
506.497	334.55
506.93	294.76
507.362	306.46
507.795	334.55
508.227	315.83
508.66	404.77
509.092	294.76
509.524	339.23
509.956	362.64
510.389	315.83
510.821	285.4
511.253	294.76
511.685	304.12
512.117	325.19
512.549	315.83
512.981	304.12
513.412	313.49
513.844	383.7
514.276	353.27
514.707	325.19
515.139	332.21
515.571	327.53
516.002	283.06
516.433	287.74
516.865	357.96
517.296	276.04
517.727	334.55
518.159	355.62
518.59	390.72
519.021	327.53
519.452	336.89
519.883	297.1
520.314	311.14
520.744	362.64
521.175	334.55
521.606	343.91
522.037	353.27
522.467	304.12
522.898	315.83
523.328	311.14
523.759	372
524.189	278.38
524.62	327.53
525.05	311.14
525.48	346.25
525.91	297.1
526.341	353.27
526.771	348.59
527.201	360.3
527.631	334.55
528.061	278.38
528.49	283.06
528.92	341.57
529.35	322.85
529.78	325.19
530.209	245.61
530.639	304.12
531.068	393.06
531.498	350.93
531.927	353.27
532.357	304.12
532.786	308.8
533.215	287.74
533.644	276.04
534.074	325.19
534.503	336.89
534.932	329.87
535.361	367.32
535.79	346.25
536.218	362.64
536.647	325.19
537.076	341.57
537.505	290.08
537.933	320.51
538.362	325.19
538.79	325.19
539.219	364.98
539.647	301.78
540.076	350.93
540.504	329.87
540.932	329.87
541.36	315.83
541.788	299.44
542.217	393.06
542.645	304.12
543.073	341.57
543.5	367.32
543.928	283.06
544.356	329.87
544.784	308.8
545.211	360.3
545.639	374.34
546.067	280.72
546.494	355.62
546.922	367.32
547.349	299.44
547.776	315.83
548.204	311.14
548.631	259.65
549.058	327.53
549.485	353.27
549.912	353.27
550.339	304.12
550.766	287.74
551.193	362.64
551.62	306.46
552.047	325.19
552.474	318.17
552.9	325.19
553.327	357.96
553.754	339.23
554.18	287.74
554.607	348.59
555.033	287.74
555.459	369.66
555.886	374.34
556.312	306.46
556.738	322.85
557.164	301.78
557.59	304.12
558.016	292.42
558.442	348.59
558.868	318.17
559.294	332.21
559.72	280.72
560.145	332.21
560.571	397.74
560.997	306.46
561.422	313.49
561.848	376.68
562.273	341.57
562.699	346.25
563.124	334.55
563.549	332.21
563.974	313.49
564.4	374.34
564.825	372
565.25	334.55
565.675	379.02
566.1	322.85
566.525	325.19
566.95	343.91
567.374	339.23
567.799	341.57
568.224	308.8
568.648	348.59
569.073	297.1
569.497	299.44
569.922	341.57
570.346	320.51
570.771	341.57
571.195	348.59
571.619	353.27
572.043	364.98
572.467	355.62
572.891	322.85
573.315	327.53
573.739	311.14
574.163	306.46
574.587	306.46
575.011	280.72
575.435	297.1
575.858	332.21
576.282	362.64
576.705	320.51
577.129	343.91
577.552	320.51
577.976	360.3
578.399	381.36
578.822	350.93
579.245	357.96
579.669	280.72
580.092	336.89
580.515	236.25
580.938	299.44
581.361	374.34
581.784	325.19
582.206	306.46
582.629	304.12
583.052	287.74
583.474	362.64
583.897	367.32
584.32	250.29
584.742	341.57
585.165	353.27
585.587	357.96
586.009	355.62
586.431	287.74
586.854	374.34
587.276	320.51
587.698	322.85
588.12	329.87
588.542	367.32
588.964	348.59
589.386	327.53
589.807	379.02
590.229	388.38
590.651	360.3
591.073	355.62
591.494	376.68
591.916	271.36
592.337	322.85
592.759	369.66
593.18	339.23
593.601	294.76
594.022	287.74
594.444	290.08
594.865	383.7
595.286	290.08
595.707	313.49
596.128	343.91
596.549	353.27
596.97	269.02
597.39	287.74
597.811	350.93
598.232	348.59
598.652	278.38
599.073	367.32
599.494	245.61
599.914	215.18
600.334	364.98
600.755	357.96
601.175	374.34
601.595	271.36
602.015	376.68
602.436	278.38
602.856	453.92
603.276	353.27
603.696	315.83
604.115	355.62
604.535	329.87
604.955	336.89
605.375	386.04
605.794	292.42
606.214	306.46
606.634	322.85
607.053	287.74
607.473	271.36
607.892	285.4
608.311	376.68
608.731	341.57
609.15	357.96
609.569	343.91
609.988	304.12
610.407	322.85
610.826	360.3
611.245	322.85
611.664	339.23
612.083	327.53
612.501	336.89
612.92	294.76
613.339	327.53
613.757	346.25
614.176	357.96
614.594	353.27
615.013	304.12
615.431	283.06
615.85	311.14
616.268	336.89
616.686	339.23
617.104	350.93
617.522	346.25
617.94	336.89
618.358	320.51
618.776	280.72
619.194	332.21
619.612	348.59
620.03	334.55
620.447	407.11
620.865	320.51
621.282	346.25
621.7	346.25
622.117	301.78
622.535	369.66
622.952	313.49
623.369	348.59
623.787	348.59
624.204	299.44
624.621	332.21
625.038	308.8
625.455	355.62
625.872	313.49
626.289	357.96
626.706	322.85
627.123	297.1
627.539	329.87
627.956	304.12
628.373	299.44
628.789	313.49
629.206	301.78
629.622	285.4
630.038	388.38
630.455	348.59
630.871	327.53
631.287	294.76
631.703	393.06
632.12	261.99
632.536	379.02
632.952	339.23
633.368	364.98
633.783	329.87
634.199	343.91
634.615	313.49
635.031	332.21
635.446	334.55
635.862	271.36
636.277	297.1
636.693	276.04
637.108	304.12
637.524	348.59
637.939	329.87
638.354	292.42
638.77	308.8
639.185	266.67
639.6	341.57
640.015	364.98
640.43	350.93
640.845	325.19
641.259	360.3
641.674	285.4
642.089	297.1
642.504	332.21
642.918	301.78
643.333	261.99
643.747	327.53
644.162	329.87
644.576	341.57
644.991	280.72
645.405	362.64
645.819	297.1
646.233	280.72
646.647	308.8
647.061	329.87
647.475	273.7
647.889	315.83
648.303	348.59
648.717	320.51
649.131	379.02
649.545	322.85
649.958	306.46
650.372	346.25
650.785	341.57
651.199	276.04
651.612	332.21
652.026	320.51
652.439	264.33
652.852	327.53
653.266	247.95
653.679	364.98
654.092	332.21
654.505	336.89
654.918	325.19
655.331	313.49
655.744	339.23
656.156	290.08
656.569	315.83
656.982	339.23
657.394	294.76
657.807	322.85
658.22	297.1
658.632	311.14
659.044	280.72
659.457	318.17
659.869	313.49
660.281	306.46
660.693	308.8
661.106	348.59
661.518	301.78
661.93	290.08
662.342	339.23
662.754	269.02
663.165	327.53
663.577	336.89
663.989	292.42
664.401	332.21
664.812	343.91
665.224	367.32
665.635	315.83
666.047	350.93
666.458	299.44
666.869	325.19
667.281	299.44
667.692	348.59
668.103	318.17
668.514	292.42
668.925	357.96
669.336	329.87
669.747	257.31
670.158	245.61
670.569	308.8
670.979	257.31
671.39	304.12
671.801	318.17
672.211	332.21
672.622	353.27
673.032	346.25
673.443	308.8
673.853	320.51
674.263	285.4
674.674	343.91
675.084	315.83
675.494	325.19
675.904	304.12
676.314	318.17
676.724	353.27
677.134	367.32
677.544	362.64
677.953	360.3
678.363	353.27
678.773	339.23
679.182	247.95
679.592	381.36
680.001	332.21
680.411	273.7
680.82	322.85
681.23	285.4
681.639	325.19
682.048	341.57
682.457	318.17
682.866	290.08
683.275	374.34
683.684	301.78
684.093	346.25
684.502	278.38
684.911	400.09
685.32	367.32
685.728	313.49
686.137	301.78
686.546	311.14
686.954	343.91
687.363	355.62
687.771	318.17
688.179	369.66
688.588	304.12
688.996	292.42
689.404	329.87
689.812	325.19
690.22	266.67
690.628	374.34
691.036	332.21
691.444	318.17
691.852	292.42
692.26	336.89
692.667	334.55
693.075	332.21
693.483	292.42
693.89	318.17
694.298	362.64
694.705	297.1
695.112	346.25
695.52	332.21
695.927	334.55
696.334	353.27
696.741	325.19
697.148	306.46
697.555	346.25
697.962	278.38
698.369	348.59
698.776	381.36
699.183	376.68
699.59	343.91
699.996	287.74
700.403	327.53
700.81	325.19
701.216	346.25
701.623	311.14
702.029	292.42
702.435	287.74
702.842	329.87
703.248	325.19
703.654	280.72
704.06	285.4
704.466	381.36
704.872	313.49
705.278	414.13
705.684	409.45
706.09	332.21
706.496	395.4
706.901	313.49
707.307	336.89
707.712	367.32
708.118	308.8
708.523	346.25
708.929	332.21
709.334	325.19
709.74	379.02
710.145	339.23
710.55	353.27
710.955	280.72
711.36	339.23
711.765	332.21
712.17	364.98
712.575	301.78
712.98	947.77
713.385	360.3
713.789	355.62
714.194	339.23
714.599	332.21
715.003	332.21
715.408	332.21
715.812	306.46
716.217	327.53
716.621	350.93
717.025	290.08
717.429	322.85
717.833	283.06
718.238	264.33
718.642	299.44
719.046	292.42
719.449	322.85
719.853	271.36
720.257	313.49
720.661	269.02
721.065	322.85
721.468	332.21
721.872	311.14
722.275	327.53
722.679	353.27
723.082	397.74
723.485	341.57
723.889	299.44
724.292	292.42
724.695	343.91
725.098	271.36
725.501	294.76
725.904	320.51
726.307	327.53
726.71	320.51
727.113	315.83
727.516	318.17
727.918	257.31
728.321	264.33
728.724	350.93
729.126	339.23
729.529	315.83
729.931	318.17
730.333	369.66
730.736	327.53
731.138	346.25
731.54	315.83
731.942	311.14
732.344	271.36
732.746	264.33
733.148	376.68
733.55	306.46
733.952	304.12
734.354	339.23
734.756	374.34
735.157	416.47
735.559	348.59
735.96	355.62
736.362	369.66
736.763	339.23
737.165	290.08
737.566	318.17
737.967	283.06
738.368	355.62
738.77	364.98
739.171	320.51
739.572	301.78
739.973	332.21
740.374	287.74
740.774	362.64
741.175	322.85
741.576	308.8
741.977	304.12
742.377	292.42
742.778	283.06
743.178	313.49
743.579	339.23
743.979	407.11
744.379	379.02
744.78	313.49
745.18	360.3
745.58	360.3
745.98	397.74
746.38	308.8
746.78	350.93
747.18	388.38
747.58	294.76
747.98	322.85
748.38	315.83
748.779	280.72
749.179	290.08
749.578	299.44
749.978	304.12
750.377	301.78
750.777	231.57
751.176	273.7
751.575	306.46
751.975	322.85
752.374	369.66
752.773	311.14
753.172	341.57
753.571	357.96
753.97	341.57
754.369	266.67
754.768	276.04
755.166	374.34
755.565	322.85
755.964	304.12
756.362	364.98
756.761	350.93
757.159	353.27
757.558	364.98
757.956	290.08
758.354	376.68
758.753	327.53
759.151	325.19
759.549	339.23
759.947	292.42
760.345	280.72
760.743	269.02
761.141	292.42
761.539	318.17
761.936	276.04
762.334	320.51
762.732	301.78
763.129	294.76
763.527	254.97
763.924	299.44
764.322	294.76
764.719	294.76
765.117	369.66
