Data from Al_FLMS009871__1156__16-36-06-391.txt Node

Date: Fri Mar 08 16:36:06 CST 2024
User: pe5414po
Spectrometer: FLMS00987
Trigger mode: 0
Integration Time (sec): 1.000000E-1
Scans to average: 1
Electric dark correction enabled: true
Nonlinearity correction enabled: false
Boxcar width: 0
XAxis mode: Wavelengths
Number of Pixels in Spectrum: 2048
>>>>>Begin Spectral Data<<<<<
188.938	-123.46
189.409	-123.46
189.879	-123.46
190.349	-137.51
190.819	-144.53
191.29	-102.4
191.76	-118.78
192.23	-69.63
192.7	-67.29
193.17	-62.61
193.64	-41.54
194.109	-25.16
194.579	-1.76
195.049	5.27
195.519	21.65
195.988	91.87
196.458	49.74
196.927	56.76
197.397	40.37
197.866	166.76
198.336	56.76
198.805	129.31
199.274	126.97
199.744	129.31
200.213	150.38
200.682	173.78
201.151	206.55
201.62	241.66
202.089	253.36
202.558	244
203.027	222.94
203.495	225.28
203.964	272.09
204.433	258.04
204.902	314.22
205.37	346.98
205.839	309.54
206.307	281.45
206.776	297.83
207.244	358.69
207.712	286.13
208.181	267.41
208.649	290.81
209.117	267.41
209.585	302.51
210.053	279.11
210.521	241.66
210.989	206.55
211.457	297.83
211.925	241.66
212.393	276.77
212.861	244
213.328	234.64
213.796	244
214.264	300.17
214.731	283.79
215.199	295.49
215.666	244
216.133	276.77
216.601	229.96
217.068	222.94
217.535	265.07
218.003	192.51
218.47	218.25
218.937	283.79
219.404	206.55
219.871	269.75
220.338	288.47
220.805	265.07
221.271	302.51
221.738	253.36
222.205	281.45
222.671	304.85
223.138	251.02
223.605	222.94
224.071	248.68
224.538	281.45
225.004	283.79
225.47	295.49
225.937	253.36
226.403	251.02
226.869	262.73
227.335	279.11
227.801	251.02
228.267	281.45
228.733	220.6
229.199	234.64
229.665	267.41
230.131	295.49
230.597	258.04
231.062	265.07
231.528	295.49
231.994	251.02
232.459	330.6
232.925	260.38
233.39	213.57
233.856	297.83
234.321	244
234.786	269.75
235.252	276.77
235.717	253.36
236.182	225.28
236.647	211.23
237.112	332.94
237.577	279.11
238.042	290.81
238.507	290.81
238.972	330.6
239.436	288.47
239.901	286.13
240.366	244
240.83	323.58
241.295	297.83
241.76	328.26
242.224	339.96
242.688	215.91
243.153	199.53
243.617	281.45
244.081	314.22
244.545	269.75
245.01	281.45
245.474	265.07
245.938	262.73
246.402	251.02
246.866	253.36
247.33	304.85
247.793	232.3
248.257	304.85
248.721	258.04
249.185	286.13
249.648	297.83
250.112	304.85
250.575	255.7
251.039	293.15
251.502	255.7
251.965	272.09
252.429	288.47
252.892	269.75
253.355	255.7
253.818	311.88
254.281	248.68
254.744	220.6
255.207	309.54
255.67	251.02
256.133	241.66
256.596	297.83
257.059	265.07
257.522	267.41
257.984	281.45
258.447	248.68
258.909	328.26
259.372	330.6
259.834	265.07
260.297	253.36
260.759	354.01
261.221	276.77
261.684	241.66
262.146	274.43
262.608	258.04
263.07	248.68
263.532	255.7
263.994	267.41
264.456	265.07
264.918	232.3
265.38	265.07
265.842	218.25
266.303	302.51
266.765	260.38
267.227	258.04
267.688	293.15
268.15	297.83
268.611	335.28
269.072	192.51
269.534	246.34
269.995	335.28
270.456	262.73
270.918	258.04
271.379	363.37
271.84	269.75
272.301	295.49
272.762	318.9
273.223	246.34
273.684	281.45
274.144	309.54
274.605	325.92
275.066	323.58
275.527	297.83
275.987	309.54
276.448	295.49
276.908	295.49
277.369	185.49
277.829	272.09
278.289	272.09
278.75	302.51
279.21	325.92
279.67	361.03
280.13	300.17
280.59	361.03
281.05	269.75
281.51	290.81
281.97	204.21
282.43	300.17
282.89	251.02
283.35	295.49
283.809	239.32
284.269	318.9
284.729	248.68
285.188	276.77
285.648	269.75
286.107	288.47
286.567	206.55
287.026	321.24
287.485	279.11
287.944	295.49
288.404	239.32
288.863	258.04
289.322	363.37
289.781	304.85
290.24	274.43
290.699	246.34
291.158	321.24
291.616	309.54
292.075	311.88
292.534	269.75
292.992	288.47
293.451	283.79
293.91	258.04
294.368	213.57
294.827	272.09
295.285	328.26
295.743	260.38
296.202	274.43
296.66	304.85
297.118	229.96
297.576	272.09
298.034	220.6
298.492	269.75
298.95	274.43
299.408	265.07
299.866	290.81
300.324	307.2
300.781	332.94
301.239	307.2
301.697	236.98
302.154	290.81
302.612	304.85
303.069	307.2
303.527	328.26
303.984	236.98
304.441	309.54
304.899	265.07
305.356	314.22
305.813	281.45
306.27	349.32
306.727	239.32
307.184	358.69
307.641	274.43
308.098	272.09
308.555	265.07
309.012	227.62
309.468	335.28
309.925	297.83
310.382	304.85
310.838	297.83
311.295	335.28
311.751	342.3
312.208	304.85
312.664	311.88
313.12	286.13
313.577	215.91
314.033	335.28
314.489	316.56
314.945	255.7
315.401	279.11
315.857	206.55
316.313	365.71
316.769	206.55
317.225	246.34
317.681	290.81
318.136	267.41
318.592	337.62
319.048	290.81
319.503	279.11
319.959	323.58
320.414	251.02
320.869	262.73
321.325	262.73
321.78	309.54
322.235	311.88
322.691	267.41
323.146	272.09
323.601	267.41
324.056	267.41
324.511	302.51
324.966	302.51
325.421	262.73
325.875	316.56
326.33	302.51
326.785	260.38
327.24	246.34
327.694	244
328.149	229.96
328.603	283.79
329.058	272.09
329.512	302.51
329.966	361.03
330.421	260.38
330.875	297.83
331.329	314.22
331.783	251.02
332.237	302.51
332.691	304.85
333.145	309.54
333.599	269.75
334.053	318.9
334.507	321.24
334.96	297.83
335.414	229.96
335.868	267.41
336.321	272.09
336.775	251.02
337.228	267.41
337.682	302.51
338.135	339.96
338.588	356.35
339.042	346.98
339.495	307.2
339.948	297.83
340.401	222.94
340.854	267.41
341.307	318.9
341.76	262.73
342.213	276.77
342.666	365.71
343.119	335.28
343.571	351.67
344.024	370.39
344.477	330.6
344.929	328.26
345.382	332.94
345.834	335.28
346.287	297.83
346.739	293.15
347.191	328.26
347.644	283.79
348.096	267.41
348.548	304.85
349	255.7
349.452	304.85
349.904	363.37
350.356	297.83
350.808	283.79
351.26	307.2
351.711	325.92
352.163	262.73
352.615	318.9
353.066	288.47
353.518	300.17
353.969	295.49
354.421	295.49
354.872	248.68
355.324	309.54
355.775	276.77
356.226	288.47
356.677	279.11
357.128	260.38
357.579	351.67
358.03	335.28
358.481	323.58
358.932	309.54
359.383	244
359.834	236.98
360.285	332.94
360.735	297.83
361.186	253.36
361.637	346.98
362.087	330.6
362.538	363.37
362.988	300.17
363.438	318.9
363.889	267.41
364.339	265.07
364.789	342.3
365.239	276.77
365.689	300.17
366.139	255.7
366.589	288.47
367.039	311.88
367.489	339.96
367.939	281.45
368.389	358.69
368.839	276.77
369.288	241.66
369.738	363.37
370.187	248.68
370.637	307.2
371.086	283.79
371.536	351.67
371.985	276.77
372.434	241.66
372.884	262.73
373.333	265.07
373.782	265.07
374.231	293.15
374.68	323.58
375.129	318.9
375.578	311.88
376.027	222.94
376.475	274.43
376.924	293.15
377.373	328.26
377.822	297.83
378.27	318.9
378.719	307.2
379.167	279.11
379.616	286.13
380.064	300.17
380.512	300.17
380.961	276.77
381.409	253.36
381.857	283.79
382.305	286.13
382.753	314.22
383.201	307.2
383.649	323.58
384.097	283.79
384.545	279.11
384.992	311.88
385.44	356.35
385.888	293.15
386.335	255.7
386.783	290.81
387.231	325.92
387.678	295.49
388.125	330.6
388.573	307.2
389.02	318.9
389.467	248.68
389.914	382.09
390.362	288.47
390.809	281.45
391.256	300.17
391.703	302.51
392.15	290.81
392.596	304.85
393.043	295.49
393.49	328.26
393.937	297.83
394.383	356.35
394.83	213.57
395.276	293.15
395.723	304.85
396.169	300.17
396.616	234.64
397.062	248.68
397.508	325.92
397.954	311.88
398.401	318.9
398.847	314.22
399.293	269.75
399.739	290.81
400.185	297.83
400.631	314.22
401.076	241.66
401.522	323.58
401.968	328.26
402.414	389.11
402.859	288.47
403.305	318.9
403.75	311.88
404.196	314.22
404.641	354.01
405.086	295.49
405.532	286.13
405.977	344.64
406.422	246.34
406.867	328.26
407.312	325.92
407.757	302.51
408.202	351.67
408.647	339.96
409.092	323.58
409.537	337.62
409.982	321.24
410.426	358.69
410.871	269.75
411.316	368.05
411.76	239.32
412.205	274.43
412.649	274.43
413.093	356.35
413.538	344.64
413.982	293.15
414.426	288.47
414.87	325.92
415.314	290.81
415.758	290.81
416.202	297.83
416.646	286.13
417.09	300.17
417.534	290.81
417.978	314.22
418.421	304.85
418.865	232.3
419.309	351.67
419.752	300.17
420.196	288.47
420.639	288.47
421.083	309.54
421.526	344.64
421.969	351.67
422.412	281.45
422.856	304.85
423.299	304.85
423.742	253.36
424.185	325.92
424.628	318.9
425.071	293.15
425.513	307.2
425.956	346.98
426.399	332.94
426.842	262.73
427.284	307.2
427.727	337.62
428.169	370.39
428.612	222.94
429.054	281.45
429.497	248.68
429.939	356.35
430.381	293.15
430.823	262.73
431.265	300.17
431.707	302.51
432.149	337.62
432.591	311.88
433.033	225.28
433.475	281.45
433.917	293.15
434.359	361.03
434.8	236.98
435.242	384.43
435.684	309.54
436.125	260.38
436.567	232.3
437.008	288.47
437.449	248.68
437.891	351.67
438.332	318.9
438.773	309.54
439.214	318.9
439.656	279.11
440.097	293.15
440.538	332.94
440.978	244
441.419	300.17
441.86	300.17
442.301	283.79
442.742	283.79
443.182	281.45
443.623	281.45
444.063	342.3
444.504	321.24
444.944	283.79
445.385	295.49
445.825	295.49
446.265	307.2
446.706	325.92
447.146	302.51
447.586	386.77
448.026	316.56
448.466	314.22
448.906	332.94
449.346	307.2
449.786	321.24
450.225	323.58
450.665	232.3
451.105	311.88
451.544	314.22
451.984	274.43
452.424	349.32
452.863	281.45
453.302	246.34
453.742	316.56
454.181	283.79
454.62	274.43
455.059	290.81
455.499	297.83
455.938	304.85
456.377	274.43
456.816	279.11
457.254	267.41
457.693	281.45
458.132	344.64
458.571	269.75
459.01	337.62
459.448	307.2
459.887	253.36
460.325	431.24
460.764	318.9
461.202	318.9
461.641	342.3
462.079	300.17
462.517	295.49
462.955	318.9
463.393	332.94
463.832	330.6
464.27	234.64
464.708	335.28
465.145	323.58
465.583	335.28
466.021	302.51
466.459	262.73
466.897	375.07
467.334	274.43
467.772	309.54
468.209	349.32
468.647	253.36
469.084	328.26
469.522	335.28
469.959	262.73
470.396	269.75
470.833	262.73
471.271	314.22
471.708	281.45
472.145	323.58
472.582	304.85
473.019	323.58
473.456	251.02
473.892	290.81
474.329	330.6
474.766	335.28
475.202	260.38
475.639	370.39
476.076	258.04
476.512	391.45
476.949	337.62
477.385	337.62
477.821	255.7
478.258	358.69
478.694	290.81
479.13	314.22
479.566	300.17
480.002	307.2
480.438	363.37
480.874	332.94
481.31	288.47
481.746	361.03
482.181	309.54
482.617	304.85
483.053	293.15
483.488	314.22
483.924	316.56
484.36	300.17
484.795	382.09
485.23	288.47
485.666	339.96
486.101	328.26
486.536	323.58
486.971	379.75
487.407	342.3
487.842	339.96
488.277	281.45
488.712	251.02
489.146	302.51
489.581	316.56
490.016	283.79
490.451	295.49
490.885	309.54
491.32	283.79
491.755	295.49
492.189	311.88
492.624	269.75
493.058	295.49
493.492	302.51
493.927	321.24
494.361	311.88
494.795	290.81
495.229	330.6
495.663	325.92
496.097	293.15
496.531	316.56
496.965	258.04
497.399	297.83
497.833	332.94
498.266	265.07
498.7	328.26
499.134	316.56
499.567	323.58
500.001	316.56
500.434	269.75
500.868	318.9
501.301	272.09
501.734	321.24
502.168	286.13
502.601	328.26
503.034	309.54
503.467	276.77
503.9	269.75
504.333	330.6
504.766	328.26
505.199	276.77
505.632	330.6
506.064	314.22
506.497	283.79
506.93	314.22
507.362	321.24
507.795	297.83
508.227	354.01
508.66	311.88
509.092	363.37
509.524	354.01
509.956	337.62
510.389	239.32
510.821	288.47
511.253	323.58
511.685	342.3
512.117	346.98
512.549	302.51
512.981	346.98
513.412	297.83
513.844	293.15
514.276	332.94
514.707	283.79
515.139	318.9
515.571	286.13
516.002	279.11
516.433	354.01
516.865	307.2
517.296	286.13
517.727	321.24
518.159	318.9
518.59	290.81
519.021	309.54
519.452	321.24
519.883	265.07
520.314	281.45
520.744	267.41
521.175	262.73
521.606	335.28
522.037	297.83
522.467	239.32
522.898	260.38
523.328	234.64
523.759	211.23
524.189	332.94
524.62	321.24
525.05	300.17
525.48	323.58
525.91	288.47
526.341	246.34
526.771	246.34
527.201	258.04
527.631	354.01
528.061	332.94
528.49	283.79
528.92	358.69
529.35	358.69
529.78	309.54
530.209	344.64
530.639	311.88
531.068	316.56
531.498	293.15
531.927	295.49
532.357	290.81
532.786	297.83
533.215	281.45
533.644	265.07
534.074	321.24
534.503	361.03
534.932	356.35
535.361	323.58
535.79	321.24
536.218	288.47
536.647	330.6
537.076	295.49
537.505	269.75
537.933	279.11
538.362	258.04
538.79	269.75
539.219	377.41
539.647	323.58
540.076	272.09
540.504	363.37
540.932	332.94
541.36	279.11
541.788	354.01
542.217	258.04
542.645	295.49
543.073	349.32
543.5	267.41
543.928	332.94
544.356	246.34
544.784	335.28
545.211	269.75
545.639	288.47
546.067	288.47
546.494	382.09
546.922	328.26
547.349	248.68
547.776	337.62
548.204	337.62
548.631	342.3
549.058	309.54
549.485	316.56
549.912	286.13
550.339	328.26
550.766	279.11
551.193	262.73
551.62	384.43
552.047	311.88
552.474	323.58
552.9	244
553.327	309.54
553.754	337.62
554.18	283.79
554.607	358.69
555.033	267.41
555.459	290.81
555.886	272.09
556.312	363.37
556.738	339.96
557.164	325.92
557.59	300.17
558.016	281.45
558.442	281.45
558.868	232.3
559.294	328.26
559.72	215.91
560.145	337.62
560.571	314.22
560.997	309.54
561.422	323.58
561.848	351.67
562.273	309.54
562.699	293.15
563.124	332.94
563.549	368.05
563.974	311.88
564.4	295.49
564.825	330.6
565.25	321.24
565.675	321.24
566.1	321.24
566.525	382.09
566.95	297.83
567.374	339.96
567.799	279.11
568.224	251.02
568.648	346.98
569.073	244
569.497	297.83
569.922	258.04
570.346	300.17
570.771	361.03
571.195	337.62
571.619	346.98
572.043	307.2
572.467	244
572.891	339.96
573.315	328.26
573.739	375.07
574.163	309.54
574.587	253.36
575.011	269.75
575.435	309.54
575.858	314.22
576.282	323.58
576.705	328.26
577.129	393.8
577.552	253.36
577.976	349.32
578.399	325.92
578.822	262.73
579.245	258.04
579.669	318.9
580.092	265.07
580.515	286.13
580.938	281.45
581.361	302.51
581.784	309.54
582.206	293.15
582.629	316.56
583.052	300.17
583.474	255.7
583.897	356.35
584.32	288.47
584.742	253.36
585.165	304.85
585.587	265.07
586.009	281.45
586.431	258.04
586.854	332.94
587.276	293.15
587.698	288.47
588.12	244
588.542	260.38
588.964	279.11
589.386	293.15
589.807	262.73
590.229	337.62
590.651	244
591.073	248.68
591.494	321.24
591.916	342.3
592.337	300.17
592.759	346.98
593.18	297.83
593.601	335.28
594.022	386.77
594.444	407.84
594.865	295.49
595.286	337.62
595.707	356.35
596.128	232.3
596.549	283.79
596.97	349.32
597.39	314.22
597.811	276.77
598.232	309.54
598.652	311.88
599.073	316.56
599.494	269.75
599.914	293.15
600.334	361.03
600.755	339.96
601.175	379.75
601.595	276.77
602.015	283.79
602.436	246.34
602.856	363.37
603.276	377.41
603.696	255.7
604.115	265.07
604.535	293.15
604.955	276.77
605.375	274.43
605.794	293.15
606.214	311.88
606.634	321.24
607.053	288.47
607.473	349.32
607.892	316.56
608.311	358.69
608.731	316.56
609.15	290.81
609.569	386.77
609.988	314.22
610.407	335.28
610.826	346.98
611.245	290.81
611.664	307.2
612.083	302.51
612.501	318.9
612.92	272.09
613.339	295.49
613.757	309.54
614.176	316.56
614.594	318.9
615.013	290.81
615.431	307.2
615.85	281.45
616.268	314.22
616.686	290.81
617.104	267.41
617.522	304.85
617.94	314.22
618.358	279.11
618.776	290.81
619.194	330.6
619.612	279.11
620.03	293.15
620.447	267.41
620.865	328.26
621.282	246.34
621.7	375.07
622.117	335.28
622.535	288.47
622.952	309.54
623.369	325.92
623.787	389.11
624.204	290.81
624.621	337.62
625.038	300.17
625.455	361.03
625.872	269.75
626.289	304.85
626.706	272.09
627.123	267.41
627.539	321.24
627.956	370.39
628.373	316.56
628.789	337.62
629.206	302.51
629.622	232.3
630.038	297.83
630.455	300.17
630.871	267.41
631.287	297.83
631.703	314.22
632.12	272.09
632.536	272.09
632.952	321.24
633.368	318.9
633.783	316.56
634.199	304.85
634.615	295.49
635.031	279.11
635.446	332.94
635.862	332.94
636.277	321.24
636.693	241.66
637.108	304.85
637.524	311.88
637.939	339.96
638.354	325.92
638.77	318.9
639.185	297.83
639.6	311.88
640.015	255.7
640.43	281.45
640.845	323.58
641.259	258.04
641.674	260.38
642.089	316.56
642.504	337.62
642.918	297.83
643.333	325.92
643.747	286.13
644.162	290.81
644.576	309.54
644.991	272.09
645.405	295.49
645.819	302.51
646.233	318.9
646.647	290.81
647.061	342.3
647.475	321.24
647.889	255.7
648.303	295.49
648.717	295.49
649.131	246.34
649.545	260.38
649.958	279.11
650.372	260.38
650.785	325.92
651.199	377.41
651.612	304.85
652.026	300.17
652.439	272.09
652.852	286.13
653.266	269.75
653.679	382.09
654.092	286.13
654.505	239.32
654.918	255.7
655.331	309.54
655.744	248.68
656.156	297.83
656.569	339.96
656.982	283.79
657.394	225.28
657.807	335.28
658.22	346.98
658.632	330.6
659.044	293.15
659.457	361.03
659.869	281.45
660.281	304.85
660.693	293.15
661.106	335.28
661.518	302.51
661.93	281.45
662.342	325.92
662.754	279.11
663.165	309.54
663.577	293.15
663.989	248.68
664.401	323.58
664.812	300.17
665.224	314.22
665.635	293.15
666.047	335.28
666.458	307.2
666.869	332.94
667.281	330.6
667.692	321.24
668.103	323.58
668.514	286.13
668.925	293.15
669.336	297.83
669.747	269.75
670.158	260.38
670.569	260.38
670.979	302.51
671.39	300.17
671.801	332.94
672.211	356.35
672.622	332.94
673.032	368.05
673.443	276.77
673.853	358.69
674.263	300.17
674.674	344.64
675.084	288.47
675.494	255.7
675.904	344.64
676.314	295.49
676.724	332.94
677.134	309.54
677.544	316.56
677.953	318.9
678.363	330.6
678.773	311.88
679.182	276.77
679.592	318.9
680.001	314.22
680.411	316.56
680.82	311.88
681.23	321.24
681.639	314.22
682.048	279.11
682.457	276.77
682.866	307.2
683.275	339.96
683.684	302.51
684.093	342.3
684.502	283.79
684.911	272.09
685.32	293.15
685.728	307.2
686.137	307.2
686.546	274.43
686.954	323.58
687.363	321.24
687.771	276.77
688.179	286.13
688.588	274.43
688.996	307.2
689.404	321.24
689.812	311.88
690.22	344.64
690.628	302.51
691.036	398.48
691.444	297.83
691.852	330.6
692.26	332.94
692.667	325.92
693.075	311.88
693.483	253.36
693.89	321.24
694.298	344.64
694.705	276.77
695.112	363.37
695.52	318.9
695.927	265.07
696.334	332.94
696.741	269.75
697.148	272.09
697.555	281.45
697.962	321.24
698.369	335.28
698.776	328.26
699.183	290.81
699.59	234.64
699.996	363.37
700.403	346.98
700.81	300.17
701.216	300.17
701.623	337.62
702.029	262.73
702.435	295.49
702.842	332.94
703.248	314.22
703.654	295.49
704.06	239.32
704.466	297.83
704.872	241.66
705.278	368.05
705.684	241.66
706.09	283.79
706.496	248.68
706.901	295.49
707.307	354.01
707.712	290.81
708.118	293.15
708.523	297.83
708.929	325.92
709.334	328.26
709.74	281.45
710.145	307.2
710.55	328.26
710.955	384.43
711.36	267.41
711.765	267.41
712.17	295.49
712.575	356.35
712.98	889.99
713.385	386.77
713.789	293.15
714.194	269.75
714.599	290.81
715.003	323.58
715.408	288.47
715.812	180.81
716.217	295.49
716.621	286.13
717.025	335.28
717.429	272.09
717.833	279.11
718.238	339.96
718.642	307.2
719.046	318.9
719.449	318.9
719.853	253.36
720.257	321.24
720.661	314.22
721.065	267.41
721.468	323.58
721.872	295.49
722.275	354.01
722.679	283.79
723.082	288.47
723.485	293.15
723.889	335.28
724.292	234.64
724.695	274.43
725.098	356.35
725.501	283.79
725.904	286.13
726.307	323.58
726.71	265.07
727.113	342.3
727.516	316.56
727.918	279.11
728.321	349.32
728.724	307.2
729.126	311.88
729.529	286.13
729.931	295.49
730.333	297.83
730.736	318.9
731.138	227.62
731.54	288.47
731.942	330.6
732.344	351.67
732.746	295.49
733.148	279.11
733.55	328.26
733.952	316.56
734.354	358.69
734.756	316.56
735.157	286.13
735.559	309.54
735.96	272.09
736.362	358.69
736.763	342.3
737.165	307.2
737.566	262.73
737.967	351.67
738.368	325.92
738.77	283.79
739.171	211.23
739.572	314.22
739.973	288.47
740.374	300.17
740.774	349.32
741.175	297.83
741.576	227.62
741.977	258.04
742.377	342.3
742.778	283.79
743.178	248.68
743.579	269.75
743.979	255.7
744.379	302.51
744.78	335.28
745.18	335.28
745.58	332.94
745.98	241.66
746.38	311.88
746.78	309.54
747.18	328.26
747.58	311.88
747.98	300.17
748.38	283.79
748.779	351.67
749.179	248.68
749.578	297.83
749.978	346.98
750.377	330.6
750.777	316.56
751.176	311.88
751.575	281.45
751.975	337.62
752.374	283.79
752.773	290.81
753.172	335.28
753.571	346.98
753.97	276.77
754.369	297.83
754.768	356.35
755.166	351.67
755.565	295.49
755.964	279.11
756.362	300.17
756.761	309.54
757.159	302.51
757.558	241.66
757.956	323.58
758.354	323.58
758.753	304.85
759.151	297.83
759.549	375.07
759.947	321.24
760.345	274.43
760.743	325.92
761.141	393.8
761.539	365.71
761.936	251.02
762.334	208.89
762.732	304.85
763.129	309.54
763.527	262.73
763.924	318.9
764.322	283.79
764.719	194.85
765.117	220.6
765.514	295.49
765.911	258.04
