Data from Al_FLMS009871__1151__16-36-05-892.txt Node

Date: Fri Mar 08 16:36:05 CST 2024
User: pe5414po
Spectrometer: FLMS00987
Trigger mode: 0
Integration Time (sec): 1.000000E-1
Scans to average: 1
Electric dark correction enabled: true
Nonlinearity correction enabled: false
Boxcar width: 0
XAxis mode: Wavelengths
Number of Pixels in Spectrum: 2048
>>>>>Begin Spectral Data<<<<<
188.938	-115.27
189.409	-115.27
189.879	-115.27
190.349	-103.57
190.819	-77.82
191.29	-77.82
191.76	-77.82
192.23	-105.91
192.7	-21.65
193.17	-63.78
193.64	-77.82
194.109	1.76
194.579	11.12
195.049	-31.01
195.519	-42.71
195.988	34.52
196.458	97.72
196.927	64.95
197.397	71.97
197.866	107.08
198.336	109.42
198.805	153.89
199.274	189
199.744	203.04
200.213	135.17
200.682	282.62
201.151	191.34
201.62	210.06
202.089	301.34
202.558	219.43
203.027	313.05
203.495	270.92
203.964	266.24
204.433	233.47
204.902	210.06
205.37	294.32
205.839	291.98
206.307	345.81
206.776	296.66
207.244	280.28
207.712	210.06
208.181	284.96
208.649	282.62
209.117	259.21
209.585	338.79
210.053	284.96
210.521	341.13
210.989	294.32
211.457	306.03
211.925	275.6
212.393	275.6
212.861	294.32
213.328	256.87
213.796	268.58
214.264	275.6
214.731	233.47
215.199	336.45
215.666	219.43
216.133	296.66
216.601	261.55
217.068	296.66
217.535	343.47
218.003	233.47
218.47	268.58
218.937	296.66
219.404	306.03
219.871	282.62
220.338	245.17
220.805	212.4
221.271	310.71
221.738	249.85
222.205	350.5
222.671	284.96
223.138	240.49
223.605	200.7
224.071	249.85
224.538	228.79
225.004	233.47
225.47	282.62
225.937	247.51
226.403	217.08
226.869	256.87
227.335	306.03
227.801	303.68
228.267	275.6
228.733	284.96
229.199	247.51
229.665	235.81
230.131	280.28
230.597	252.19
231.062	266.24
231.528	331.77
231.994	261.55
232.459	277.94
232.925	282.62
233.39	275.6
233.856	256.87
234.321	296.66
234.786	306.03
235.252	317.73
235.717	299
236.182	294.32
236.647	231.13
237.112	282.62
237.577	249.85
238.042	273.26
238.507	331.77
238.972	287.3
239.436	238.15
239.901	198.36
240.366	224.11
240.83	299
241.295	282.62
241.76	270.92
242.224	275.6
242.688	287.3
243.153	207.72
243.617	270.92
244.081	324.75
244.545	317.73
245.01	277.94
245.474	289.64
245.938	348.15
246.402	324.75
246.866	320.07
247.33	296.66
247.793	249.85
248.257	289.64
248.721	235.81
249.185	228.79
249.648	282.62
250.112	348.15
250.575	254.53
251.039	317.73
251.502	275.6
251.965	266.24
252.429	261.55
252.892	299
253.355	296.66
253.818	317.73
254.281	275.6
254.744	296.66
255.207	263.9
255.67	235.81
256.133	334.11
256.596	369.22
257.059	240.49
257.522	317.73
257.984	284.96
258.447	268.58
258.909	299
259.372	334.11
259.834	296.66
260.297	331.77
260.759	263.9
261.221	296.66
261.684	263.9
262.146	282.62
262.608	247.51
263.07	280.28
263.532	287.3
263.994	331.77
264.456	336.45
264.918	284.96
265.38	277.94
265.842	273.26
266.303	313.05
266.765	254.53
267.227	317.73
267.688	291.98
268.15	303.68
268.611	303.68
269.072	294.32
269.534	231.13
269.995	313.05
270.456	233.47
270.918	317.73
271.379	331.77
271.84	245.17
272.301	219.43
272.762	324.75
273.223	296.66
273.684	280.28
274.144	256.87
274.605	313.05
275.066	259.21
275.527	231.13
275.987	324.75
276.448	266.24
276.908	327.09
277.369	287.3
277.829	254.53
278.289	338.79
278.75	280.28
279.21	263.9
279.67	296.66
280.13	294.32
280.59	233.47
281.05	273.26
281.51	303.68
281.97	362.2
282.43	299
282.89	287.3
283.35	327.09
283.809	289.64
284.269	259.21
284.729	334.11
285.188	301.34
285.648	315.39
286.107	334.11
286.567	268.58
287.026	273.26
287.485	303.68
287.944	291.98
288.404	240.49
288.863	329.43
289.322	294.32
289.781	336.45
290.24	317.73
290.699	352.84
291.158	280.28
291.616	284.96
292.075	291.98
292.534	296.66
292.992	315.39
293.451	329.43
293.91	331.77
294.368	247.51
294.827	310.71
295.285	306.03
295.743	313.05
296.202	266.24
296.66	345.81
297.118	327.09
297.576	277.94
298.034	224.11
298.492	308.37
298.95	348.15
299.408	263.9
299.866	310.71
300.324	240.49
300.781	306.03
301.239	266.24
301.697	280.28
302.154	270.92
302.612	301.34
303.069	259.21
303.527	303.68
303.984	296.66
304.441	362.2
304.899	350.5
305.356	287.3
305.813	284.96
306.27	254.53
306.727	320.07
307.184	327.09
307.641	306.03
308.098	284.96
308.555	228.79
309.012	299
309.468	371.56
309.925	259.21
310.382	289.64
310.838	327.09
311.295	301.34
311.751	329.43
312.208	291.98
312.664	282.62
313.12	282.62
313.577	308.37
314.033	345.81
314.489	294.32
314.945	359.86
315.401	322.41
315.857	315.39
316.313	348.15
316.769	364.54
317.225	327.09
317.681	299
318.136	357.52
318.592	299
319.048	301.34
319.503	390.28
319.959	380.92
320.414	303.68
320.869	301.34
321.325	289.64
321.78	343.47
322.235	315.39
322.691	350.5
323.146	322.41
323.601	240.49
324.056	352.84
324.511	320.07
324.966	373.9
325.421	327.09
325.875	249.85
326.33	282.62
326.785	345.81
327.24	320.07
327.694	315.39
328.149	277.94
328.603	369.22
329.058	277.94
329.512	327.09
329.966	217.08
330.421	329.43
330.875	308.37
331.329	245.17
331.783	259.21
332.237	308.37
332.691	299
333.145	268.58
333.599	294.32
334.053	306.03
334.507	320.07
334.96	291.98
335.414	329.43
335.868	345.81
336.321	287.3
336.775	322.41
337.228	355.18
337.682	308.37
338.135	338.79
338.588	320.07
339.042	266.24
339.495	282.62
339.948	282.62
340.401	289.64
340.854	303.68
341.307	369.22
341.76	336.45
342.213	303.68
342.666	277.94
343.119	359.86
343.571	336.45
344.024	310.71
344.477	299
344.929	282.62
345.382	317.73
345.834	259.21
346.287	270.92
346.739	338.79
347.191	322.41
347.644	338.79
348.096	310.71
348.548	306.03
349	327.09
349.452	266.24
349.904	331.77
350.356	252.19
350.808	273.26
351.26	254.53
351.711	303.68
352.163	266.24
352.615	296.66
353.066	252.19
353.518	327.09
353.969	345.81
354.421	355.18
354.872	315.39
355.324	306.03
355.775	329.43
356.226	362.2
356.677	296.66
357.128	268.58
357.579	277.94
358.03	331.77
358.481	352.84
358.932	343.47
359.383	338.79
359.834	277.94
360.285	284.96
360.735	310.71
361.186	329.43
361.637	327.09
362.087	310.71
362.538	308.37
362.988	383.26
363.438	317.73
363.889	245.17
364.339	303.68
364.789	226.45
365.239	301.34
365.689	306.03
366.139	294.32
366.589	359.86
367.039	336.45
367.489	256.87
367.939	362.2
368.389	313.05
368.839	313.05
369.288	329.43
369.738	284.96
370.187	324.75
370.637	331.77
371.086	355.18
371.536	336.45
371.985	359.86
372.434	296.66
372.884	350.5
373.333	277.94
373.782	287.3
374.231	355.18
374.68	306.03
375.129	284.96
375.578	306.03
376.027	282.62
376.475	310.71
376.924	310.71
377.373	387.94
377.822	287.3
378.27	308.37
378.719	284.96
379.167	299
379.616	350.5
380.064	324.75
380.512	245.17
380.961	242.83
381.409	273.26
381.857	331.77
382.305	329.43
382.753	233.47
383.201	259.21
383.649	331.77
384.097	345.81
384.545	294.32
384.992	315.39
385.44	310.71
385.888	280.28
386.335	301.34
386.783	308.37
387.231	320.07
387.678	270.92
388.125	296.66
388.573	294.32
389.02	301.34
389.467	345.81
389.914	343.47
390.362	287.3
390.809	308.37
391.256	317.73
391.703	310.71
392.15	277.94
392.596	315.39
393.043	334.11
393.49	348.15
393.937	331.77
394.383	287.3
394.83	315.39
395.276	343.47
395.723	289.64
396.169	308.37
396.616	306.03
397.062	306.03
397.508	268.58
397.954	273.26
398.401	329.43
398.847	362.2
399.293	282.62
399.739	334.11
400.185	336.45
400.631	341.13
401.076	329.43
401.522	336.45
401.968	245.17
402.414	310.71
402.859	327.09
403.305	364.54
403.75	343.47
404.196	359.86
404.641	345.81
405.086	343.47
405.532	338.79
405.977	282.62
406.422	425.39
406.867	310.71
407.312	329.43
407.757	364.54
408.202	317.73
408.647	294.32
409.092	303.68
409.537	308.37
409.982	320.07
410.426	338.79
410.871	317.73
411.316	331.77
411.76	282.62
412.205	341.13
412.649	284.96
413.093	343.47
413.538	299
413.982	270.92
414.426	303.68
414.87	313.05
415.314	282.62
415.758	240.49
416.202	315.39
416.646	303.68
417.09	294.32
417.534	373.9
417.978	306.03
418.421	329.43
418.865	327.09
419.309	350.5
419.752	310.71
420.196	310.71
420.639	294.32
421.083	273.26
421.526	303.68
421.969	270.92
422.412	294.32
422.856	345.81
423.299	392.62
423.742	261.55
424.185	362.2
424.628	327.09
425.071	371.56
425.513	277.94
425.956	315.39
426.399	310.71
426.842	352.84
427.284	338.79
427.727	352.84
428.169	282.62
428.612	303.68
429.054	277.94
429.497	313.05
429.939	352.84
430.381	341.13
430.823	266.24
431.265	338.79
431.707	289.64
432.149	320.07
432.591	345.81
433.033	369.22
433.475	308.37
433.917	366.88
434.359	294.32
434.8	282.62
435.242	294.32
435.684	357.52
436.125	308.37
436.567	322.41
437.008	252.19
437.449	252.19
437.891	373.9
438.332	348.15
438.773	331.77
439.214	348.15
439.656	362.2
440.097	249.85
440.538	331.77
440.978	280.28
441.419	299
441.86	320.07
442.301	343.47
442.742	327.09
443.182	371.56
443.623	296.66
444.063	294.32
444.504	343.47
444.944	282.62
445.385	329.43
445.825	315.39
446.265	322.41
446.706	371.56
447.146	266.24
447.586	345.81
448.026	324.75
448.466	364.54
448.906	334.11
449.346	261.55
449.786	296.66
450.225	320.07
450.665	320.07
451.105	376.24
451.544	385.6
451.984	329.43
452.424	369.22
452.863	308.37
453.302	313.05
453.742	373.9
454.181	284.96
454.62	401.99
455.059	348.15
455.499	341.13
455.938	329.43
456.377	392.62
456.816	259.21
457.254	327.09
457.693	359.86
458.132	289.64
458.571	291.98
459.01	273.26
459.448	320.07
459.887	308.37
460.325	277.94
460.764	270.92
461.202	331.77
461.641	266.24
462.079	282.62
462.517	277.94
462.955	348.15
463.393	317.73
463.832	261.55
464.27	336.45
464.708	324.75
465.145	266.24
465.583	306.03
466.021	315.39
466.459	306.03
466.897	306.03
467.334	308.37
467.772	301.34
468.209	277.94
468.647	348.15
469.084	371.56
469.522	324.75
469.959	308.37
470.396	268.58
470.833	299
471.271	296.66
471.708	409.01
472.145	296.66
472.582	282.62
473.019	362.2
473.456	291.98
473.892	277.94
474.329	348.15
474.766	317.73
475.202	254.53
475.639	331.77
476.076	306.03
476.512	266.24
476.949	348.15
477.385	317.73
477.821	275.6
478.258	240.49
478.694	355.18
479.13	284.96
479.566	287.3
480.002	341.13
480.438	320.07
480.874	338.79
481.31	313.05
481.746	357.52
482.181	345.81
482.617	284.96
483.053	308.37
483.488	308.37
483.924	355.18
484.36	324.75
484.795	336.45
485.23	291.98
485.666	348.15
486.101	291.98
486.536	282.62
486.971	207.72
487.407	275.6
487.842	317.73
488.277	331.77
488.712	322.41
489.146	359.86
489.581	336.45
490.016	357.52
490.451	355.18
490.885	322.41
491.32	369.22
491.755	362.2
492.189	378.58
492.624	287.3
493.058	322.41
493.492	261.55
493.927	291.98
494.361	350.5
494.795	277.94
495.229	299
495.663	324.75
496.097	369.22
496.531	341.13
496.965	301.34
497.399	249.85
497.833	310.71
498.266	322.41
498.7	345.81
499.134	289.64
499.567	254.53
500.001	355.18
500.434	299
500.868	320.07
501.301	254.53
501.734	303.68
502.168	287.3
502.601	343.47
503.034	299
503.467	261.55
503.9	369.22
504.333	320.07
504.766	324.75
505.199	380.92
505.632	371.56
506.064	317.73
506.497	308.37
506.93	249.85
507.362	282.62
507.795	338.79
508.227	348.15
508.66	277.94
509.092	329.43
509.524	294.32
509.956	331.77
510.389	350.5
510.821	352.84
511.253	308.37
511.685	252.19
512.117	364.54
512.549	252.19
512.981	329.43
513.412	306.03
513.844	315.39
514.276	263.9
514.707	324.75
515.139	336.45
515.571	376.24
516.002	338.79
516.433	303.68
516.865	324.75
517.296	334.11
517.727	317.73
518.159	289.64
518.59	331.77
519.021	338.79
519.452	277.94
519.883	320.07
520.314	371.56
520.744	299
521.175	336.45
521.606	338.79
522.037	313.05
522.467	296.66
522.898	301.34
523.328	291.98
523.759	387.94
524.189	331.77
524.62	320.07
525.05	359.86
525.48	373.9
525.91	327.09
526.341	224.11
526.771	280.28
527.201	289.64
527.631	254.53
528.061	296.66
528.49	268.58
528.92	366.88
529.35	282.62
529.78	289.64
530.209	291.98
530.639	371.56
531.068	242.83
531.498	345.81
531.927	320.07
532.357	313.05
532.786	348.15
533.215	324.75
533.644	310.71
534.074	359.86
534.503	313.05
534.932	327.09
535.361	362.2
535.79	308.37
536.218	322.41
536.647	331.77
537.076	324.75
537.505	338.79
537.933	282.62
538.362	341.13
538.79	280.28
539.219	357.52
539.647	313.05
540.076	317.73
540.504	275.6
540.932	362.2
541.36	270.92
541.788	252.19
542.217	334.11
542.645	317.73
543.073	301.34
543.5	310.71
543.928	343.47
544.356	315.39
544.784	324.75
545.211	280.28
545.639	299
546.067	324.75
546.494	301.34
546.922	273.26
547.349	245.17
547.776	277.94
548.204	306.03
548.631	266.24
549.058	294.32
549.485	294.32
549.912	310.71
550.339	315.39
550.766	322.41
551.193	317.73
551.62	397.31
552.047	313.05
552.474	371.56
552.9	317.73
553.327	357.52
553.754	317.73
554.18	327.09
554.607	376.24
555.033	273.26
555.459	331.77
555.886	296.66
556.312	306.03
556.738	317.73
557.164	270.92
557.59	299
558.016	357.52
558.442	296.66
558.868	390.28
559.294	301.34
559.72	315.39
560.145	350.5
560.571	362.2
560.997	343.47
561.422	341.13
561.848	310.71
562.273	270.92
562.699	329.43
563.124	310.71
563.549	387.94
563.974	303.68
564.4	296.66
564.825	308.37
565.25	299
565.675	364.54
566.1	308.37
566.525	282.62
566.95	301.34
567.374	371.56
567.799	301.34
568.224	376.24
568.648	350.5
569.073	331.77
569.497	287.3
569.922	336.45
570.346	369.22
570.771	275.6
571.195	289.64
571.619	320.07
572.043	329.43
572.467	322.41
572.891	308.37
573.315	329.43
573.739	270.92
574.163	289.64
574.587	280.28
575.011	357.52
575.435	359.86
575.858	362.2
576.282	306.03
576.705	338.79
577.129	359.86
577.552	313.05
577.976	324.75
578.399	254.53
578.822	401.99
579.245	317.73
579.669	313.05
580.092	334.11
580.515	331.77
580.938	320.07
581.361	366.88
581.784	252.19
582.206	315.39
582.629	359.86
583.052	355.18
583.474	331.77
583.897	362.2
584.32	352.84
584.742	280.28
585.165	310.71
585.587	289.64
586.009	310.71
586.431	306.03
586.854	334.11
587.276	355.18
587.698	310.71
588.12	364.54
588.542	357.52
588.964	357.52
589.386	273.26
589.807	308.37
590.229	376.24
590.651	364.54
591.073	289.64
591.494	355.18
591.916	263.9
592.337	322.41
592.759	343.47
593.18	296.66
593.601	338.79
594.022	345.81
594.444	317.73
594.865	338.79
595.286	287.3
595.707	327.09
596.128	385.6
596.549	315.39
596.97	308.37
597.39	320.07
597.811	315.39
598.232	322.41
598.652	334.11
599.073	343.47
599.494	359.86
599.914	259.21
600.334	313.05
600.755	277.94
601.175	306.03
601.595	280.28
602.015	301.34
602.436	289.64
602.856	469.86
603.276	310.71
603.696	273.26
604.115	369.22
604.535	282.62
604.955	341.13
605.375	331.77
605.794	341.13
606.214	313.05
606.634	294.32
607.053	359.86
607.473	280.28
607.892	289.64
608.311	331.77
608.731	294.32
609.15	369.22
609.569	306.03
609.988	343.47
610.407	284.96
610.826	308.37
611.245	327.09
611.664	320.07
612.083	287.3
612.501	322.41
612.92	343.47
613.339	348.15
613.757	341.13
614.176	291.98
614.594	284.96
615.013	254.53
615.431	378.58
615.85	341.13
616.268	294.32
616.686	364.54
617.104	336.45
617.522	303.68
617.94	299
618.358	327.09
618.776	343.47
619.194	324.75
619.612	313.05
620.03	291.98
620.447	357.52
620.865	329.43
621.282	338.79
621.7	355.18
622.117	299
622.535	289.64
622.952	294.32
623.369	364.54
623.787	263.9
624.204	291.98
624.621	338.79
625.038	331.77
625.455	320.07
625.872	327.09
626.289	280.28
626.706	369.22
627.123	331.77
627.539	275.6
627.956	324.75
628.373	320.07
628.789	289.64
629.206	289.64
629.622	345.81
630.038	263.9
630.455	369.22
630.871	306.03
631.287	315.39
631.703	268.58
632.12	364.54
632.536	294.32
632.952	371.56
633.368	338.79
633.783	324.75
634.199	301.34
634.615	331.77
635.031	315.39
635.446	411.35
635.862	320.07
636.277	299
636.693	261.55
637.108	259.21
637.524	320.07
637.939	280.28
638.354	329.43
638.77	315.39
639.185	249.85
639.6	317.73
640.015	376.24
640.43	327.09
640.845	296.66
641.259	245.17
641.674	268.58
642.089	313.05
642.504	306.03
642.918	334.11
643.333	289.64
643.747	263.9
644.162	378.58
644.576	334.11
644.991	245.17
645.405	348.15
645.819	303.68
646.233	299
646.647	371.56
647.061	266.24
647.475	270.92
647.889	336.45
648.303	329.43
648.717	324.75
649.131	308.37
649.545	366.88
649.958	301.34
650.372	331.77
650.785	310.71
651.199	362.2
651.612	270.92
652.026	313.05
652.439	327.09
652.852	327.09
653.266	343.47
653.679	254.53
654.092	247.51
654.505	310.71
654.918	324.75
655.331	296.66
655.744	280.28
656.156	387.94
656.569	303.68
656.982	301.34
657.394	338.79
657.807	338.79
658.22	294.32
658.632	303.68
659.044	280.28
659.457	317.73
659.869	331.77
660.281	364.54
660.693	355.18
661.106	310.71
661.518	385.6
661.93	303.68
662.342	334.11
662.754	334.11
663.165	355.18
663.577	289.64
663.989	289.64
664.401	324.75
664.812	315.39
665.224	324.75
665.635	306.03
666.047	362.2
666.458	366.88
666.869	366.88
667.281	329.43
667.692	263.9
668.103	296.66
668.514	317.73
668.925	359.86
669.336	256.87
669.747	275.6
670.158	310.71
670.569	306.03
670.979	364.54
671.39	270.92
671.801	308.37
672.211	308.37
672.622	310.71
673.032	329.43
673.443	366.88
673.853	348.15
674.263	329.43
674.674	350.5
675.084	294.32
675.494	317.73
675.904	336.45
676.314	336.45
676.724	331.77
677.134	355.18
677.544	324.75
677.953	329.43
678.363	249.85
678.773	336.45
679.182	273.26
679.592	315.39
680.001	317.73
680.411	277.94
680.82	254.53
681.23	294.32
681.639	296.66
682.048	352.84
682.457	315.39
682.866	322.41
683.275	256.87
683.684	320.07
684.093	320.07
684.502	343.47
684.911	317.73
685.32	270.92
685.728	327.09
686.137	313.05
686.546	282.62
686.954	291.98
687.363	329.43
687.771	301.34
688.179	284.96
688.588	238.15
688.996	294.32
689.404	345.81
689.812	373.9
690.22	317.73
690.628	331.77
691.036	364.54
691.444	324.75
691.852	334.11
692.26	306.03
692.667	327.09
693.075	310.71
693.483	352.84
693.89	315.39
694.298	334.11
694.705	320.07
695.112	289.64
695.52	324.75
695.927	315.39
696.334	310.71
696.741	322.41
697.148	348.15
697.555	310.71
697.962	301.34
698.369	336.45
698.776	299
699.183	308.37
699.59	280.28
699.996	341.13
700.403	301.34
700.81	259.21
701.216	357.52
701.623	348.15
702.029	355.18
702.435	303.68
702.842	320.07
703.248	289.64
703.654	327.09
704.06	385.6
704.466	313.05
704.872	336.45
705.278	296.66
705.684	296.66
706.09	299
706.496	313.05
706.901	254.53
707.307	343.47
707.712	324.75
708.118	287.3
708.523	331.77
708.929	308.37
709.334	324.75
709.74	348.15
710.145	263.9
710.55	256.87
710.955	348.15
711.36	413.69
711.765	331.77
712.17	350.5
712.575	327.09
712.98	865.41
713.385	355.18
713.789	284.96
714.194	373.9
714.599	334.11
715.003	313.05
715.408	315.39
715.812	299
716.217	348.15
716.621	371.56
717.025	327.09
717.429	343.47
717.833	273.26
718.238	331.77
718.642	366.88
719.046	296.66
719.449	212.4
719.853	275.6
720.257	228.79
720.661	294.32
721.065	338.79
721.468	315.39
721.872	284.96
722.275	317.73
722.679	336.45
723.082	345.81
723.485	320.07
723.889	256.87
724.292	301.34
724.695	320.07
725.098	329.43
725.501	397.31
725.904	341.13
726.307	317.73
726.71	355.18
727.113	355.18
727.516	345.81
727.918	280.28
728.321	315.39
728.724	282.62
729.126	324.75
729.529	249.85
729.931	338.79
730.333	334.11
730.736	313.05
731.138	343.47
731.54	310.71
731.942	355.18
732.344	287.3
732.746	327.09
733.148	315.39
733.55	275.6
733.952	329.43
734.354	301.34
734.756	273.26
735.157	287.3
735.559	392.62
735.96	336.45
736.362	341.13
736.763	387.94
737.165	301.34
737.566	315.39
737.967	348.15
738.368	378.58
738.77	247.51
739.171	284.96
739.572	306.03
739.973	317.73
740.374	317.73
740.774	317.73
741.175	284.96
741.576	306.03
741.977	291.98
742.377	287.3
742.778	324.75
743.178	289.64
743.579	329.43
743.979	317.73
744.379	324.75
744.78	324.75
745.18	334.11
745.58	270.92
745.98	343.47
746.38	343.47
746.78	348.15
747.18	235.81
747.58	287.3
747.98	357.52
748.38	296.66
748.779	364.54
749.179	364.54
749.578	282.62
749.978	317.73
750.377	301.34
750.777	296.66
751.176	259.21
751.575	322.41
751.975	306.03
752.374	336.45
752.773	366.88
753.172	263.9
753.571	261.55
753.97	385.6
754.369	273.26
754.768	331.77
755.166	378.58
755.565	287.3
755.964	270.92
756.362	406.67
756.761	331.77
757.159	289.64
757.558	329.43
757.956	343.47
758.354	317.73
758.753	275.6
759.151	334.11
759.549	355.18
759.947	320.07
760.345	320.07
760.743	266.24
761.141	310.71
761.539	301.34
761.936	317.73
762.334	331.77
762.732	256.87
763.129	294.32
763.527	364.54
763.924	273.26
764.322	355.18
764.719	317.73
765.117	341.13
765.514	324.75
765.911	228.79
766.308	338.79
