Data from Al_FLMS009871__1153__16-36-06-091.txt Node

Date: Fri Mar 08 16:36:06 CST 2024
User: pe5414po
Spectrometer: FLMS00987
Trigger mode: 0
Integration Time (sec): 1.000000E-1
Scans to average: 1
Electric dark correction enabled: true
Nonlinearity correction enabled: false
Boxcar width: 0
XAxis mode: Wavelengths
Number of Pixels in Spectrum: 2048
>>>>>Begin Spectral Data<<<<<
188.938	-63.63
189.409	-63.63
189.879	-63.63
190.349	-110.44
190.819	-115.13
191.29	-87.04
191.76	-108.1
192.23	-73
192.7	-166.62
193.17	-61.29
193.64	-47.25
194.109	-21.5
194.579	-40.23
195.049	-26.18
195.519	39.35
195.988	65.1
196.458	116.59
196.927	74.46
197.397	104.89
197.866	156.38
198.336	74.46
198.805	184.46
199.274	214.89
199.744	235.96
200.213	158.72
200.682	233.61
201.151	242.98
201.62	266.38
202.089	259.36
202.558	238.3
203.027	350.64
203.495	271.06
203.964	273.4
204.433	303.83
204.902	329.58
205.37	301.49
205.839	294.47
206.307	296.81
206.776	352.98
207.244	310.85
207.712	320.21
208.181	292.13
208.649	336.6
209.117	294.47
209.585	315.53
210.053	310.85
210.521	324.9
210.989	299.15
211.457	254.68
211.925	257.02
212.393	287.45
212.861	378.73
213.328	327.24
213.796	278.08
214.264	278.08
214.731	252.34
215.199	273.4
215.666	252.34
216.133	252.34
216.601	266.38
217.068	331.92
217.535	306.17
218.003	275.74
218.47	182.12
218.937	235.96
219.404	278.08
219.871	238.3
220.338	292.13
220.805	254.68
221.271	250
221.738	317.87
222.205	329.58
222.671	296.81
223.138	221.91
223.605	275.74
224.071	271.06
224.538	320.21
225.004	280.43
225.47	303.83
225.937	259.36
226.403	280.43
226.869	259.36
227.335	266.38
227.801	296.81
228.267	280.43
228.733	233.61
229.199	285.11
229.665	217.23
230.131	214.89
230.597	242.98
231.062	266.38
231.528	292.13
231.994	273.4
232.459	252.34
232.925	299.15
233.39	268.72
233.856	268.72
234.321	296.81
234.786	285.11
235.252	285.11
235.717	228.93
236.182	257.02
236.647	252.34
237.112	301.49
237.577	273.4
238.042	278.08
238.507	287.45
238.972	228.93
239.436	245.32
239.901	329.58
240.366	261.7
240.83	275.74
241.295	306.17
241.76	292.13
242.224	310.85
242.688	228.93
243.153	348.3
243.617	285.11
244.081	268.72
244.545	240.64
245.01	264.04
245.474	338.94
245.938	282.77
246.402	289.79
246.866	313.19
247.33	343.62
247.793	324.9
248.257	315.53
248.721	313.19
249.185	221.91
249.648	266.38
250.112	238.3
250.575	313.19
251.039	259.36
251.502	275.74
251.965	282.77
252.429	306.17
252.892	235.96
253.355	280.43
253.818	278.08
254.281	254.68
254.744	294.47
255.207	334.26
255.67	247.66
256.133	350.64
256.596	245.32
257.059	259.36
257.522	294.47
257.984	259.36
258.447	282.77
258.909	348.3
259.372	345.96
259.834	320.21
260.297	242.98
260.759	292.13
261.221	329.58
261.684	280.43
262.146	278.08
262.608	299.15
263.07	306.17
263.532	301.49
263.994	261.7
264.456	280.43
264.918	322.56
265.38	383.41
265.842	352.98
266.303	374.05
266.765	350.64
267.227	292.13
267.688	261.7
268.15	322.56
268.611	275.74
269.072	287.45
269.534	296.81
269.995	317.87
270.456	273.4
270.918	338.94
271.379	280.43
271.84	317.87
272.301	266.38
272.762	292.13
273.223	287.45
273.684	397.45
274.144	299.15
274.605	324.9
275.066	315.53
275.527	186.8
275.987	306.17
276.448	275.74
276.908	257.02
277.369	313.19
277.829	308.51
278.289	327.24
278.75	231.27
279.21	362.34
279.67	320.21
280.13	350.64
280.59	285.11
281.05	331.92
281.51	317.87
281.97	329.58
282.43	334.26
282.89	329.58
283.35	306.17
283.809	289.79
284.269	320.21
284.729	355.32
285.188	245.32
285.648	308.51
286.107	289.79
286.567	292.13
287.026	322.56
287.485	301.49
287.944	219.57
288.404	303.83
288.863	338.94
289.322	306.17
289.781	292.13
290.24	320.21
290.699	329.58
291.158	259.36
291.616	266.38
292.075	352.98
292.534	310.85
292.992	320.21
293.451	341.28
293.91	324.9
294.368	355.32
294.827	250
295.285	292.13
295.743	245.32
296.202	327.24
296.66	345.96
297.118	275.74
297.576	320.21
298.034	278.08
298.492	271.06
298.95	308.51
299.408	348.3
299.866	268.72
300.324	289.79
300.781	285.11
301.239	331.92
301.697	315.53
302.154	322.56
302.612	257.02
303.069	231.27
303.527	292.13
303.984	285.11
304.441	329.58
304.899	254.68
305.356	294.47
305.813	301.49
306.27	352.98
306.727	301.49
307.184	296.81
307.641	254.68
308.098	287.45
308.555	331.92
309.012	292.13
309.468	275.74
309.925	287.45
310.382	327.24
310.838	371.71
311.295	282.77
311.751	287.45
312.208	252.34
312.664	299.15
313.12	345.96
313.577	306.17
314.033	317.87
314.489	303.83
314.945	336.6
315.401	280.43
315.857	289.79
316.313	285.11
316.769	287.45
317.225	294.47
317.681	331.92
318.136	285.11
318.592	329.58
319.048	308.51
319.503	338.94
319.959	292.13
320.414	282.77
320.869	273.4
321.325	313.19
321.78	315.53
322.235	324.9
322.691	367.03
323.146	315.53
323.601	315.53
324.056	280.43
324.511	238.3
324.966	278.08
325.421	252.34
325.875	322.56
326.33	285.11
326.785	268.72
327.24	266.38
327.694	308.51
328.149	273.4
328.603	268.72
329.058	313.19
329.512	268.72
329.966	355.32
330.421	320.21
330.875	289.79
331.329	296.81
331.783	360
332.237	266.38
332.691	296.81
333.145	345.96
333.599	299.15
334.053	301.49
334.507	320.21
334.96	336.6
335.414	289.79
335.868	336.6
336.321	367.03
336.775	315.53
337.228	345.96
337.682	341.28
338.135	238.3
338.588	329.58
339.042	238.3
339.495	331.92
339.948	324.9
340.401	296.81
340.854	287.45
341.307	371.71
341.76	296.81
342.213	303.83
342.666	299.15
343.119	350.64
343.571	275.74
344.024	369.37
344.477	357.66
344.929	336.6
345.382	338.94
345.834	282.77
346.287	338.94
346.739	315.53
347.191	261.7
347.644	296.81
348.096	301.49
348.548	367.03
349	364.68
349.452	308.51
349.904	247.66
350.356	301.49
350.808	357.66
351.26	289.79
351.711	327.24
352.163	338.94
352.615	352.98
353.066	395.11
353.518	327.24
353.969	322.56
354.421	315.53
354.872	294.47
355.324	362.34
355.775	317.87
356.226	348.3
356.677	322.56
357.128	320.21
357.579	341.28
358.03	313.19
358.481	338.94
358.932	221.91
359.383	292.13
359.834	390.43
360.285	338.94
360.735	338.94
361.186	275.74
361.637	301.49
362.087	374.05
362.538	371.71
362.988	301.49
363.438	338.94
363.889	348.3
364.339	341.28
364.789	331.92
365.239	310.85
365.689	362.34
366.139	343.62
366.589	376.39
367.039	329.58
367.489	390.43
367.939	374.05
368.389	317.87
368.839	310.85
369.288	296.81
369.738	369.37
370.187	350.64
370.637	336.6
371.086	329.58
371.536	345.96
371.985	348.3
372.434	310.85
372.884	317.87
373.333	357.66
373.782	313.19
374.231	334.26
374.68	343.62
375.129	345.96
375.578	310.85
376.027	348.3
376.475	327.24
376.924	313.19
377.373	327.24
377.822	320.21
378.27	320.21
378.719	331.92
379.167	315.53
379.616	294.47
380.064	287.45
380.512	296.81
380.961	287.45
381.409	294.47
381.857	329.58
382.305	374.05
382.753	327.24
383.201	299.15
383.649	334.26
384.097	362.34
384.545	275.74
384.992	369.37
385.44	294.47
385.888	331.92
386.335	355.32
386.783	362.34
387.231	329.58
387.678	348.3
388.125	334.26
388.573	294.47
389.02	266.38
389.467	334.26
389.914	310.85
390.362	345.96
390.809	273.4
391.256	320.21
391.703	322.56
392.15	296.81
392.596	257.02
393.043	338.94
393.49	296.81
393.937	315.53
394.383	331.92
394.83	264.04
395.276	292.13
395.723	299.15
396.169	303.83
396.616	329.58
397.062	296.81
397.508	264.04
397.954	271.06
398.401	381.07
398.847	278.08
399.293	327.24
399.739	352.98
400.185	331.92
400.631	303.83
401.076	374.05
401.522	266.38
401.968	303.83
402.414	287.45
402.859	287.45
403.305	280.43
403.75	329.58
404.196	343.62
404.641	303.83
405.086	350.64
405.532	303.83
405.977	352.98
406.422	345.96
406.867	324.9
407.312	296.81
407.757	357.66
408.202	355.32
408.647	313.19
409.092	336.6
409.537	271.06
409.982	329.58
410.426	313.19
410.871	315.53
411.316	317.87
411.76	308.51
412.205	324.9
412.649	292.13
413.093	294.47
413.538	275.74
413.982	336.6
414.426	266.38
414.87	306.17
415.314	310.85
415.758	310.85
416.202	313.19
416.646	357.66
417.09	299.15
417.534	320.21
417.978	268.72
418.421	348.3
418.865	292.13
419.309	345.96
419.752	278.08
420.196	322.56
420.639	306.17
421.083	329.58
421.526	285.11
421.969	374.05
422.412	329.58
422.856	303.83
423.299	282.77
423.742	357.66
424.185	355.32
424.628	357.66
425.071	329.58
425.513	362.34
425.956	329.58
426.399	252.34
426.842	395.11
427.284	315.53
427.727	313.19
428.169	329.58
428.612	327.24
429.054	268.72
429.497	275.74
429.939	343.62
430.381	343.62
430.823	341.28
431.265	289.79
431.707	352.98
432.149	364.68
432.591	336.6
433.033	320.21
433.475	402.13
433.917	350.64
434.359	308.51
434.8	355.32
435.242	315.53
435.684	317.87
436.125	282.77
436.567	303.83
437.008	247.66
437.449	303.83
437.891	402.13
438.332	362.34
438.773	254.68
439.214	278.08
439.656	343.62
440.097	327.24
440.538	336.6
440.978	324.9
441.419	336.6
441.86	313.19
442.301	345.96
442.742	360
443.182	299.15
443.623	303.83
444.063	338.94
444.504	308.51
444.944	301.49
445.385	336.6
445.825	357.66
446.265	310.85
446.706	285.11
447.146	259.36
447.586	322.56
448.026	329.58
448.466	315.53
448.906	296.81
449.346	336.6
449.786	273.4
450.225	287.45
450.665	327.24
451.105	336.6
451.544	285.11
451.984	334.26
452.424	331.92
452.863	285.11
453.302	303.83
453.742	324.9
454.181	345.96
454.62	306.17
455.059	292.13
455.499	367.03
455.938	374.05
456.377	331.92
456.816	303.83
457.254	334.26
457.693	362.34
458.132	317.87
458.571	310.85
459.01	338.94
459.448	294.47
459.887	308.51
460.325	280.43
460.764	376.39
461.202	338.94
461.641	343.62
462.079	285.11
462.517	308.51
462.955	292.13
463.393	320.21
463.832	303.83
464.27	376.39
464.708	388.09
465.145	310.85
465.583	315.53
466.021	268.72
466.459	324.9
466.897	296.81
467.334	320.21
467.772	350.64
468.209	350.64
468.647	313.19
469.084	331.92
469.522	338.94
469.959	292.13
470.396	296.81
470.833	320.21
471.271	296.81
471.708	306.17
472.145	329.58
472.582	303.83
473.019	287.45
473.456	350.64
473.892	308.51
474.329	315.53
474.766	296.81
475.202	369.37
475.639	348.3
476.076	360
476.512	345.96
476.949	322.56
477.385	282.77
477.821	273.4
478.258	296.81
478.694	308.51
479.13	352.98
479.566	324.9
480.002	292.13
480.438	364.68
480.874	331.92
481.31	289.79
481.746	289.79
482.181	329.58
482.617	336.6
483.053	343.62
483.488	322.56
483.924	308.51
484.36	338.94
484.795	388.09
485.23	322.56
485.666	292.13
486.101	331.92
486.536	306.17
486.971	334.26
487.407	292.13
487.842	310.85
488.277	348.3
488.712	331.92
489.146	336.6
489.581	367.03
490.016	371.71
490.451	301.49
490.885	292.13
491.32	317.87
491.755	352.98
492.189	280.43
492.624	306.17
493.058	371.71
493.492	364.68
493.927	388.09
494.361	317.87
494.795	341.28
495.229	280.43
495.663	355.32
496.097	348.3
496.531	275.74
496.965	334.26
497.399	303.83
497.833	322.56
498.266	287.45
498.7	367.03
499.134	317.87
499.567	348.3
500.001	320.21
500.434	355.32
500.868	362.34
501.301	275.74
501.734	348.3
502.168	334.26
502.601	271.06
503.034	345.96
503.467	310.85
503.9	315.53
504.333	313.19
504.766	322.56
505.199	336.6
505.632	306.17
506.064	313.19
506.497	399.79
506.93	296.81
507.362	289.79
507.795	299.15
508.227	296.81
508.66	341.28
509.092	322.56
509.524	299.15
509.956	336.6
510.389	294.47
510.821	296.81
511.253	320.21
511.685	261.7
512.117	331.92
512.549	385.75
512.981	313.19
513.412	343.62
513.844	313.19
514.276	334.26
514.707	268.72
515.139	310.85
515.571	355.32
516.002	306.17
516.433	345.96
516.865	303.83
517.296	343.62
517.727	317.87
518.159	369.37
518.59	341.28
519.021	324.9
519.452	331.92
519.883	345.96
520.314	324.9
520.744	301.49
521.175	294.47
521.606	329.58
522.037	308.51
522.467	350.64
522.898	292.13
523.328	324.9
523.759	357.66
524.189	364.68
524.62	324.9
525.05	278.08
525.48	327.24
525.91	292.13
526.341	313.19
526.771	317.87
527.201	289.79
527.631	392.77
528.061	310.85
528.49	343.62
528.92	280.43
529.35	360
529.78	345.96
530.209	315.53
530.639	360
531.068	397.45
531.498	357.66
531.927	327.24
532.357	289.79
532.786	306.17
533.215	343.62
533.644	320.21
534.074	327.24
534.503	369.37
534.932	299.15
535.361	228.93
535.79	329.58
536.218	299.15
536.647	282.77
537.076	247.66
537.505	338.94
537.933	268.72
538.362	355.32
538.79	343.62
539.219	250
539.647	324.9
540.076	317.87
540.504	294.47
540.932	266.38
541.36	331.92
541.788	313.19
542.217	350.64
542.645	343.62
543.073	282.77
543.5	268.72
543.928	329.58
544.356	320.21
544.784	303.83
545.211	324.9
545.639	271.06
546.067	343.62
546.494	362.34
546.922	338.94
547.349	285.11
547.776	360
548.204	303.83
548.631	402.13
549.058	296.81
549.485	315.53
549.912	348.3
550.339	292.13
550.766	378.73
551.193	355.32
551.62	289.79
552.047	301.49
552.474	352.98
552.9	282.77
553.327	266.38
553.754	355.32
554.18	329.58
554.607	369.37
555.033	367.03
555.459	310.85
555.886	383.41
556.312	338.94
556.738	310.85
557.164	357.66
557.59	352.98
558.016	275.74
558.442	348.3
558.868	329.58
559.294	282.77
559.72	294.47
560.145	348.3
560.571	310.85
560.997	301.49
561.422	296.81
561.848	306.17
562.273	367.03
562.699	343.62
563.124	381.07
563.549	355.32
563.974	336.6
564.4	273.4
564.825	299.15
565.25	378.73
565.675	355.32
566.1	317.87
566.525	320.21
566.95	266.38
567.374	334.26
567.799	392.77
568.224	285.11
568.648	334.26
569.073	343.62
569.497	374.05
569.922	299.15
570.346	315.53
570.771	378.73
571.195	341.28
571.619	327.24
572.043	289.79
572.467	299.15
572.891	301.49
573.315	259.36
573.739	303.83
574.163	364.68
574.587	313.19
575.011	301.49
575.435	289.79
575.858	381.07
576.282	378.73
576.705	278.08
577.129	273.4
577.552	345.96
577.976	299.15
578.399	306.17
578.822	331.92
579.245	306.17
579.669	327.24
580.092	350.64
580.515	322.56
580.938	362.34
581.361	378.73
581.784	360
582.206	338.94
582.629	287.45
583.052	294.47
583.474	357.66
583.897	348.3
584.32	306.17
584.742	355.32
585.165	348.3
585.587	315.53
586.009	315.53
586.431	266.38
586.854	360
587.276	390.43
587.698	331.92
588.12	303.83
588.542	296.81
588.964	352.98
589.386	355.32
589.807	338.94
590.229	343.62
590.651	327.24
591.073	345.96
591.494	322.56
591.916	301.49
592.337	308.51
592.759	364.68
593.18	350.64
593.601	348.3
594.022	301.49
594.444	336.6
594.865	252.34
595.286	268.72
595.707	306.17
596.128	320.21
596.549	327.24
596.97	345.96
597.39	299.15
597.811	345.96
598.232	301.49
598.652	257.02
599.073	360
599.494	345.96
599.914	383.41
600.334	338.94
600.755	254.68
601.175	320.21
601.595	280.43
602.015	303.83
602.436	362.34
602.856	385.75
603.276	292.13
603.696	360
604.115	329.58
604.535	275.74
604.955	362.34
605.375	273.4
605.794	315.53
606.214	324.9
606.634	301.49
607.053	345.96
607.473	310.85
607.892	360
608.311	378.73
608.731	348.3
609.15	322.56
609.569	240.64
609.988	395.11
610.407	338.94
610.826	357.66
611.245	287.45
611.664	331.92
612.083	329.58
612.501	324.9
612.92	338.94
613.339	280.43
613.757	259.36
614.176	376.39
614.594	364.68
615.013	348.3
615.431	242.98
615.85	345.96
616.268	296.81
616.686	313.19
617.104	287.45
617.522	285.11
617.94	317.87
618.358	289.79
618.776	292.13
619.194	261.7
619.612	352.98
620.03	303.83
620.447	303.83
620.865	278.08
621.282	355.32
621.7	345.96
622.117	324.9
622.535	292.13
622.952	289.79
623.369	317.87
623.787	280.43
624.204	369.37
624.621	320.21
625.038	252.34
625.455	341.28
625.872	360
626.289	324.9
626.706	320.21
627.123	313.19
627.539	343.62
627.956	362.34
628.373	289.79
628.789	352.98
629.206	259.36
629.622	303.83
630.038	364.68
630.455	322.56
630.871	350.64
631.287	327.24
631.703	310.85
632.12	374.05
632.536	334.26
632.952	348.3
633.368	303.83
633.783	329.58
634.199	317.87
634.615	308.51
635.031	343.62
635.446	390.43
635.862	352.98
636.277	299.15
636.693	364.68
637.108	350.64
637.524	331.92
637.939	224.25
638.354	308.51
638.77	331.92
639.185	334.26
639.6	376.39
640.015	364.68
640.43	317.87
640.845	296.81
641.259	341.28
641.674	306.17
642.089	383.41
642.504	257.02
642.918	322.56
643.333	301.49
643.747	303.83
644.162	322.56
644.576	362.34
644.991	287.45
645.405	381.07
645.819	278.08
646.233	320.21
646.647	360
647.061	280.43
647.475	303.83
647.889	252.34
648.303	315.53
648.717	292.13
649.131	313.19
649.545	315.53
649.958	350.64
650.372	294.47
650.785	371.71
651.199	324.9
651.612	280.43
652.026	348.3
652.439	301.49
652.852	289.79
653.266	392.77
653.679	322.56
654.092	320.21
654.505	357.66
654.918	355.32
655.331	322.56
655.744	320.21
656.156	390.43
656.569	306.17
656.982	303.83
657.394	334.26
657.807	324.9
658.22	313.19
658.632	355.32
659.044	352.98
659.457	355.32
659.869	308.51
660.281	385.75
660.693	303.83
661.106	331.92
661.518	369.37
661.93	355.32
662.342	264.04
662.754	334.26
663.165	338.94
663.577	292.13
663.989	266.38
664.401	352.98
664.812	308.51
665.224	315.53
665.635	320.21
666.047	306.17
666.458	355.32
666.869	317.87
667.281	242.98
667.692	296.81
668.103	327.24
668.514	313.19
668.925	317.87
669.336	275.74
669.747	257.02
670.158	294.47
670.569	287.45
670.979	341.28
671.39	306.17
671.801	310.85
672.211	338.94
672.622	280.43
673.032	348.3
673.443	331.92
673.853	357.66
674.263	320.21
674.674	378.73
675.084	296.81
675.494	324.9
675.904	338.94
676.314	324.9
676.724	296.81
677.134	374.05
677.544	303.83
677.953	259.36
678.363	331.92
678.773	345.96
679.182	331.92
679.592	376.39
680.001	317.87
680.411	320.21
680.82	360
681.23	296.81
681.639	381.07
682.048	317.87
682.457	306.17
682.866	310.85
683.275	345.96
683.684	355.32
684.093	360
684.502	322.56
684.911	362.34
685.32	345.96
685.728	280.43
686.137	357.66
686.546	282.77
686.954	271.06
687.363	331.92
687.771	303.83
688.179	348.3
688.588	362.34
688.996	383.41
689.404	287.45
689.812	324.9
690.22	343.62
690.628	406.81
691.036	341.28
691.444	336.6
691.852	388.09
692.26	336.6
692.667	334.26
693.075	306.17
693.483	238.3
693.89	324.9
694.298	322.56
694.705	303.83
695.112	266.38
695.52	320.21
695.927	430.22
696.334	296.81
696.741	334.26
697.148	357.66
697.555	301.49
697.962	322.56
698.369	369.37
698.776	317.87
699.183	371.71
699.59	310.85
699.996	301.49
700.403	343.62
700.81	317.87
701.216	303.83
701.623	306.17
702.029	348.3
702.435	331.92
702.842	336.6
703.248	310.85
703.654	289.79
704.06	320.21
704.466	343.62
704.872	322.56
705.278	235.96
705.684	341.28
706.09	348.3
706.496	378.73
706.901	282.77
707.307	334.26
707.712	310.85
708.118	320.21
708.523	371.71
708.929	301.49
709.334	233.61
709.74	282.77
710.145	315.53
710.55	336.6
710.955	301.49
711.36	345.96
711.765	362.34
712.17	336.6
712.575	350.64
712.98	928.75
713.385	341.28
713.789	341.28
714.194	299.15
714.599	338.94
715.003	334.26
715.408	278.08
715.812	240.64
716.217	275.74
716.621	306.17
717.025	327.24
717.429	327.24
717.833	308.51
718.238	329.58
718.642	350.64
719.046	285.11
719.449	327.24
719.853	233.61
720.257	287.45
720.661	306.17
721.065	338.94
721.468	313.19
721.872	369.37
722.275	275.74
722.679	327.24
723.082	320.21
723.485	371.71
723.889	357.66
724.292	334.26
724.695	303.83
725.098	357.66
725.501	299.15
725.904	315.53
726.307	303.83
726.71	306.17
727.113	357.66
727.516	322.56
727.918	285.11
728.321	282.77
728.724	275.74
729.126	273.4
729.529	259.36
729.931	376.39
730.333	292.13
730.736	338.94
731.138	306.17
731.54	257.02
731.942	371.71
732.344	310.85
732.746	338.94
733.148	331.92
733.55	273.4
733.952	355.32
734.354	362.34
734.756	320.21
735.157	315.53
735.559	334.26
735.96	313.19
736.362	364.68
736.763	367.03
737.165	317.87
737.566	317.87
737.967	306.17
738.368	266.38
738.77	343.62
739.171	317.87
739.572	350.64
739.973	350.64
740.374	296.81
740.774	322.56
741.175	303.83
741.576	278.08
741.977	357.66
742.377	308.51
742.778	329.58
743.178	367.03
743.579	308.51
743.979	324.9
744.379	308.51
744.78	306.17
745.18	287.45
745.58	294.47
745.98	331.92
746.38	402.13
746.78	322.56
747.18	313.19
747.58	296.81
747.98	315.53
748.38	345.96
748.779	385.75
749.179	352.98
749.578	317.87
749.978	252.34
750.377	327.24
750.777	362.34
751.176	313.19
751.575	331.92
751.975	308.51
752.374	327.24
752.773	313.19
753.172	357.66
753.571	334.26
753.97	392.77
754.369	331.92
754.768	338.94
755.166	268.72
755.565	355.32
755.964	336.6
756.362	296.81
756.761	376.39
757.159	360
757.558	350.64
757.956	308.51
758.354	299.15
758.753	329.58
759.151	334.26
759.549	343.62
759.947	294.47
760.345	350.64
760.743	352.98
761.141	285.11
761.539	327.24
761.936	320.21
762.334	324.9
762.732	322.56
763.129	315.53
763.527	294.47
763.924	334.26
764.322	322.56
764.719	320.21
765.117	271.06
765.514	367.03
765.911	294.47
