Data from Al_FLMS009871__1154__16-36-06-190.txt Node

Date: Fri Mar 08 16:36:06 CST 2024
User: pe5414po
Spectrometer: FLMS00987
Trigger mode: 0
Integration Time (sec): 1.000000E-1
Scans to average: 1
Electric dark correction enabled: true
Nonlinearity correction enabled: false
Boxcar width: 0
XAxis mode: Wavelengths
Number of Pixels in Spectrum: 2048
>>>>>Begin Spectral Data<<<<<
188.938	-28.23
189.409	-28.23
189.879	-28.23
190.349	-105.47
190.819	-152.28
191.29	-121.85
191.76	-75.04
192.23	-168.66
192.7	-100.79
193.17	-82.07
193.64	-28.23
194.109	-37.59
194.579	9.22
195.049	-14.19
195.519	4.53
195.988	51.35
196.458	13.9
196.927	84.11
197.397	198.8
197.866	142.63
198.336	123.9
198.805	170.71
199.274	173.05
199.744	187.1
200.213	149.65
200.682	205.82
201.151	205.82
201.62	175.39
202.089	243.27
202.558	299.44
203.027	322.85
203.495	210.5
203.964	259.65
204.433	219.86
204.902	247.95
205.37	273.7
205.839	226.89
206.307	283.06
206.776	306.46
207.244	357.96
207.712	308.8
208.181	280.72
208.649	238.59
209.117	287.74
209.585	299.44
210.053	341.57
210.521	313.49
210.989	311.14
211.457	306.46
211.925	205.82
212.393	278.38
212.861	259.65
213.328	238.59
213.796	292.42
214.264	271.36
214.731	306.46
215.199	250.29
215.666	301.78
216.133	261.99
216.601	336.89
217.068	208.16
217.535	287.74
218.003	257.31
218.47	327.53
218.937	233.91
219.404	252.63
219.871	278.38
220.338	297.1
220.805	229.23
221.271	238.59
221.738	313.49
222.205	273.7
222.671	283.06
223.138	250.29
223.605	273.7
224.071	273.7
224.538	299.44
225.004	276.04
225.47	254.97
225.937	247.95
226.403	318.17
226.869	261.99
227.335	278.38
227.801	327.53
228.267	311.14
228.733	294.76
229.199	271.36
229.665	339.23
230.131	252.63
230.597	252.63
231.062	292.42
231.528	182.42
231.994	294.76
232.459	233.91
232.925	224.55
233.39	285.4
233.856	231.57
234.321	287.74
234.786	290.08
235.252	280.72
235.717	278.38
236.182	283.06
236.647	283.06
237.112	276.04
237.577	341.57
238.042	269.02
238.507	210.5
238.972	247.95
239.436	287.74
239.901	240.93
240.366	236.25
240.83	259.65
241.295	231.57
241.76	367.32
242.224	264.33
242.688	257.31
243.153	254.97
243.617	297.1
244.081	271.36
244.545	290.08
245.01	254.97
245.474	308.8
245.938	259.65
246.402	276.04
246.866	210.5
247.33	285.4
247.793	252.63
248.257	283.06
248.721	278.38
249.185	297.1
249.648	250.29
250.112	285.4
250.575	299.44
251.039	315.83
251.502	240.93
251.965	325.19
252.429	283.06
252.892	285.4
253.355	306.46
253.818	245.61
254.281	236.25
254.744	266.67
255.207	254.97
255.67	250.29
256.133	243.27
256.596	290.08
257.059	301.78
257.522	322.85
257.984	339.23
258.447	243.27
258.909	304.12
259.372	393.06
259.834	273.7
260.297	322.85
260.759	261.99
261.221	325.19
261.684	276.04
262.146	280.72
262.608	292.42
263.07	304.12
263.532	297.1
263.994	353.27
264.456	327.53
264.918	313.49
265.38	278.38
265.842	357.96
266.303	348.59
266.765	247.95
267.227	320.51
267.688	273.7
268.15	304.12
268.611	332.21
269.072	212.84
269.534	341.57
269.995	322.85
270.456	250.29
270.918	287.74
271.379	329.87
271.84	315.83
272.301	306.46
272.762	292.42
273.223	381.36
273.684	318.17
274.144	283.06
274.605	311.14
275.066	276.04
275.527	315.83
275.987	332.21
276.448	327.53
276.908	285.4
277.369	259.65
277.829	287.74
278.289	278.38
278.75	308.8
279.21	273.7
279.67	325.19
280.13	269.02
280.59	269.02
281.05	341.57
281.51	271.36
281.97	343.91
282.43	240.93
282.89	287.74
283.35	343.91
283.809	308.8
284.269	278.38
284.729	301.78
285.188	339.23
285.648	292.42
286.107	327.53
286.567	329.87
287.026	276.04
287.485	304.12
287.944	318.17
288.404	322.85
288.863	280.72
289.322	283.06
289.781	259.65
290.24	327.53
290.699	329.87
291.158	332.21
291.616	299.44
292.075	269.02
292.534	238.59
292.992	271.36
293.451	269.02
293.91	327.53
294.368	306.46
294.827	357.96
295.285	341.57
295.743	273.7
296.202	304.12
296.66	306.46
297.118	364.98
297.576	311.14
298.034	350.93
298.492	362.64
298.95	292.42
299.408	257.31
299.866	341.57
300.324	297.1
300.781	353.27
301.239	294.76
301.697	315.83
302.154	245.61
302.612	297.1
303.069	297.1
303.527	353.27
303.984	245.61
304.441	299.44
304.899	273.7
305.356	236.25
305.813	226.89
306.27	336.89
306.727	379.02
307.184	322.85
307.641	215.18
308.098	304.12
308.555	290.08
309.012	306.46
309.468	297.1
309.925	304.12
310.382	283.06
310.838	322.85
311.295	269.02
311.751	297.1
312.208	367.32
312.664	313.49
313.12	306.46
313.577	311.14
314.033	339.23
314.489	252.63
314.945	329.87
315.401	372
315.857	322.85
316.313	304.12
316.769	224.55
317.225	308.8
317.681	325.19
318.136	381.36
318.592	339.23
319.048	252.63
319.503	313.49
319.959	292.42
320.414	329.87
320.869	332.21
321.325	322.85
321.78	283.06
322.235	252.63
322.691	350.93
323.146	278.38
323.601	315.83
324.056	271.36
324.511	271.36
324.966	297.1
325.421	301.78
325.875	273.7
326.33	346.25
326.785	290.08
327.24	376.68
327.694	276.04
328.149	318.17
328.603	304.12
329.058	280.72
329.512	285.4
329.966	315.83
330.421	341.57
330.875	287.74
331.329	318.17
331.783	297.1
332.237	329.87
332.691	315.83
333.145	357.96
333.599	336.89
334.053	311.14
334.507	327.53
334.96	315.83
335.414	322.85
335.868	360.3
336.321	346.25
336.775	285.4
337.228	240.93
337.682	367.32
338.135	315.83
338.588	327.53
339.042	386.04
339.495	339.23
339.948	322.85
340.401	283.06
340.854	285.4
341.307	364.98
341.76	341.57
342.213	320.51
342.666	364.98
343.119	301.78
343.571	360.3
344.024	311.14
344.477	360.3
344.929	355.62
345.382	308.8
345.834	320.51
346.287	290.08
346.739	306.46
347.191	313.49
347.644	360.3
348.096	313.49
348.548	327.53
349	353.27
349.452	357.96
349.904	283.06
350.356	287.74
350.808	327.53
351.26	320.51
351.711	327.53
352.163	280.72
352.615	287.74
353.066	280.72
353.518	318.17
353.969	388.38
354.421	290.08
354.872	329.87
355.324	304.12
355.775	336.89
356.226	334.55
356.677	252.63
357.128	308.8
357.579	245.61
358.03	322.85
358.481	339.23
358.932	322.85
359.383	261.99
359.834	360.3
360.285	269.02
360.735	294.76
361.186	315.83
361.637	318.17
362.087	343.91
362.538	348.59
362.988	325.19
363.438	315.83
363.889	360.3
364.339	325.19
364.789	276.04
365.239	343.91
365.689	278.38
366.139	348.59
366.589	376.68
367.039	334.55
367.489	329.87
367.939	339.23
368.389	332.21
368.839	290.08
369.288	376.68
369.738	336.89
370.187	304.12
370.637	273.7
371.086	360.3
371.536	280.72
371.985	332.21
372.434	283.06
372.884	299.44
373.333	297.1
373.782	327.53
374.231	315.83
374.68	313.49
375.129	313.49
375.578	325.19
376.027	327.53
376.475	283.06
376.924	343.91
377.373	278.38
377.822	325.19
378.27	304.12
378.719	294.76
379.167	334.55
379.616	348.59
380.064	273.7
380.512	297.1
380.961	311.14
381.409	320.51
381.857	308.8
382.305	393.06
382.753	334.55
383.201	322.85
383.649	285.4
384.097	243.27
384.545	350.93
384.992	339.23
385.44	353.27
385.888	292.42
386.335	327.53
386.783	343.91
387.231	299.44
387.678	311.14
388.125	322.85
388.573	313.49
389.02	325.19
389.467	336.89
389.914	280.72
390.362	269.02
390.809	315.83
391.256	343.91
391.703	308.8
392.15	360.3
392.596	339.23
393.043	357.96
393.49	283.06
393.937	327.53
394.383	306.46
394.83	290.08
395.276	336.89
395.723	383.7
396.169	341.57
396.616	315.83
397.062	341.57
397.508	276.04
397.954	332.21
398.401	329.87
398.847	348.59
399.293	329.87
399.739	311.14
400.185	269.02
400.631	308.8
401.076	271.36
401.522	299.44
401.968	332.21
402.414	339.23
402.859	341.57
403.305	346.25
403.75	294.76
404.196	264.33
404.641	322.85
405.086	343.91
405.532	336.89
405.977	320.51
406.422	364.98
406.867	339.23
407.312	362.64
407.757	322.85
408.202	280.72
408.647	336.89
409.092	290.08
409.537	297.1
409.982	329.87
410.426	313.49
410.871	257.31
411.316	336.89
411.76	311.14
412.205	341.57
412.649	376.68
413.093	320.51
413.538	327.53
413.982	327.53
414.426	357.96
414.87	332.21
415.314	304.12
415.758	299.44
416.202	318.17
416.646	341.57
417.09	301.78
417.534	339.23
417.978	313.49
418.421	355.62
418.865	367.32
419.309	336.89
419.752	350.93
420.196	320.51
420.639	322.85
421.083	322.85
421.526	299.44
421.969	325.19
422.412	294.76
422.856	259.65
423.299	301.78
423.742	341.57
424.185	325.19
424.628	348.59
425.071	320.51
425.513	304.12
425.956	273.7
426.399	269.02
426.842	257.31
427.284	322.85
427.727	315.83
428.169	369.66
428.612	269.02
429.054	357.96
429.497	254.97
429.939	306.46
430.381	301.78
430.823	325.19
431.265	313.49
431.707	360.3
432.149	306.46
432.591	336.89
433.033	311.14
433.475	278.38
433.917	325.19
434.359	400.09
434.8	364.98
435.242	350.93
435.684	343.91
436.125	395.4
436.567	297.1
437.008	364.98
437.449	362.64
437.891	390.72
438.332	266.67
438.773	329.87
439.214	290.08
439.656	297.1
440.097	297.1
440.538	311.14
440.978	322.85
441.419	280.72
441.86	297.1
442.301	339.23
442.742	280.72
443.182	315.83
443.623	290.08
444.063	348.59
444.504	327.53
444.944	322.85
445.385	372
445.825	304.12
446.265	285.4
446.706	364.98
447.146	329.87
447.586	381.36
448.026	301.78
448.466	329.87
448.906	336.89
449.346	322.85
449.786	404.77
450.225	350.93
450.665	369.66
451.105	318.17
451.544	348.59
451.984	364.98
452.424	343.91
452.863	343.91
453.302	369.66
453.742	379.02
454.181	299.44
454.62	339.23
455.059	301.78
455.499	404.77
455.938	287.74
456.377	308.8
456.816	308.8
457.254	313.49
457.693	360.3
458.132	353.27
458.571	346.25
459.01	308.8
459.448	325.19
459.887	339.23
460.325	334.55
460.764	360.3
461.202	383.7
461.641	329.87
462.079	308.8
462.517	348.59
462.955	292.42
463.393	322.85
463.832	383.7
464.27	280.72
464.708	374.34
465.145	322.85
465.583	320.51
466.021	313.49
466.459	322.85
466.897	313.49
467.334	348.59
467.772	290.08
468.209	320.51
468.647	320.51
469.084	325.19
469.522	313.49
469.959	374.34
470.396	341.57
470.833	276.04
471.271	339.23
471.708	320.51
472.145	332.21
472.582	325.19
473.019	301.78
473.456	332.21
473.892	332.21
474.329	301.78
474.766	301.78
475.202	341.57
475.639	414.13
476.076	353.27
476.512	336.89
476.949	327.53
477.385	367.32
477.821	318.17
478.258	353.27
478.694	299.44
479.13	346.25
479.566	379.02
480.002	379.02
480.438	259.65
480.874	341.57
481.31	346.25
481.746	306.46
482.181	329.87
482.617	334.55
483.053	343.91
483.488	350.93
483.924	334.55
484.36	308.8
484.795	315.83
485.23	306.46
485.666	311.14
486.101	348.59
486.536	313.49
486.971	320.51
487.407	372
487.842	290.08
488.277	285.4
488.712	240.93
489.146	322.85
489.581	348.59
490.016	355.62
490.451	353.27
490.885	329.87
491.32	278.38
491.755	308.8
492.189	299.44
492.624	325.19
493.058	308.8
493.492	269.02
493.927	318.17
494.361	379.02
494.795	334.55
495.229	332.21
495.663	329.87
496.097	332.21
496.531	315.83
496.965	320.51
497.399	283.06
497.833	364.98
498.266	334.55
498.7	320.51
499.134	336.89
499.567	308.8
500.001	388.38
500.434	315.83
500.868	271.36
501.301	355.62
501.734	313.49
502.168	362.64
502.601	362.64
503.034	327.53
503.467	374.34
503.9	292.42
504.333	381.36
504.766	329.87
505.199	327.53
505.632	360.3
506.064	313.49
506.497	372
506.93	318.17
507.362	271.36
507.795	311.14
508.227	306.46
508.66	259.65
509.092	336.89
509.524	299.44
509.956	290.08
510.389	306.46
510.821	329.87
511.253	285.4
511.685	374.34
512.117	364.98
512.549	283.06
512.981	318.17
513.412	283.06
513.844	299.44
514.276	341.57
514.707	341.57
515.139	313.49
515.571	327.53
516.002	299.44
516.433	339.23
516.865	339.23
517.296	292.42
517.727	327.53
518.159	411.79
518.59	304.12
519.021	290.08
519.452	327.53
519.883	421.15
520.314	341.57
520.744	348.59
521.175	327.53
521.606	313.49
522.037	280.72
522.467	334.55
522.898	285.4
523.328	304.12
523.759	348.59
524.189	336.89
524.62	320.51
525.05	301.78
525.48	357.96
525.91	383.7
526.341	388.38
526.771	313.49
527.201	332.21
527.631	350.93
528.061	383.7
528.49	334.55
528.92	325.19
529.35	348.59
529.78	395.4
530.209	294.76
530.639	315.83
531.068	325.19
531.498	360.3
531.927	393.06
532.357	343.91
532.786	357.96
533.215	320.51
533.644	339.23
534.074	290.08
534.503	353.27
534.932	322.85
535.361	294.76
535.79	318.17
536.218	308.8
536.647	273.7
537.076	325.19
537.505	348.59
537.933	313.49
538.362	369.66
538.79	313.49
539.219	320.51
539.647	304.12
540.076	292.42
540.504	339.23
540.932	362.64
541.36	308.8
541.788	362.64
542.217	364.98
542.645	322.85
543.073	329.87
543.5	294.76
543.928	311.14
544.356	318.17
544.784	301.78
545.211	346.25
545.639	367.32
546.067	299.44
546.494	299.44
546.922	304.12
547.349	383.7
547.776	341.57
548.204	299.44
548.631	290.08
549.058	325.19
549.485	346.25
549.912	381.36
550.339	276.04
550.766	350.93
551.193	357.96
551.62	280.72
552.047	329.87
552.474	348.59
552.9	311.14
553.327	383.7
553.754	332.21
554.18	364.98
554.607	360.3
555.033	313.49
555.459	341.57
555.886	334.55
556.312	421.15
556.738	278.38
557.164	367.32
557.59	348.59
558.016	287.74
558.442	332.21
558.868	325.19
559.294	318.17
559.72	313.49
560.145	311.14
560.571	367.32
560.997	329.87
561.422	308.8
561.848	325.19
562.273	285.4
562.699	294.76
563.124	318.17
563.549	369.66
563.974	357.96
564.4	343.91
564.825	329.87
565.25	379.02
565.675	311.14
566.1	313.49
566.525	329.87
566.95	332.21
567.374	306.46
567.799	327.53
568.224	348.59
568.648	299.44
569.073	381.36
569.497	311.14
569.922	322.85
570.346	318.17
570.771	313.49
571.195	348.59
571.619	336.89
572.043	264.33
572.467	271.36
572.891	278.38
573.315	308.8
573.739	327.53
574.163	308.8
574.587	318.17
575.011	386.04
575.435	374.34
575.858	318.17
576.282	318.17
576.705	276.04
577.129	369.66
577.552	308.8
577.976	383.7
578.399	290.08
578.822	362.64
579.245	254.97
579.669	374.34
580.092	308.8
580.515	346.25
580.938	325.19
581.361	290.08
581.784	369.66
582.206	299.44
582.629	369.66
583.052	343.91
583.474	355.62
583.897	353.27
584.32	322.85
584.742	315.83
585.165	343.91
585.587	322.85
586.009	386.04
586.431	386.04
586.854	381.36
587.276	301.78
587.698	320.51
588.12	364.98
588.542	322.85
588.964	297.1
589.386	327.53
589.807	257.31
590.229	318.17
590.651	334.55
591.073	320.51
591.494	290.08
591.916	339.23
592.337	360.3
592.759	353.27
593.18	304.12
593.601	350.93
594.022	243.27
594.444	334.55
594.865	315.83
595.286	357.96
595.707	292.42
596.128	294.76
596.549	400.09
596.97	353.27
597.39	355.62
597.811	261.99
598.232	283.06
598.652	287.74
599.073	353.27
599.494	318.17
599.914	327.53
600.334	383.7
600.755	381.36
601.175	320.51
601.595	374.34
602.015	364.98
602.436	374.34
602.856	446.9
603.276	299.44
603.696	285.4
604.115	360.3
604.535	304.12
604.955	320.51
605.375	247.95
605.794	320.51
606.214	320.51
606.634	367.32
607.053	364.98
607.473	329.87
607.892	336.89
608.311	280.72
608.731	322.85
609.15	299.44
609.569	271.36
609.988	327.53
610.407	332.21
610.826	390.72
611.245	374.34
611.664	388.38
612.083	355.62
612.501	353.27
612.92	339.23
613.339	304.12
613.757	311.14
614.176	336.89
614.594	278.38
615.013	383.7
615.431	315.83
615.85	336.89
616.268	350.93
616.686	353.27
617.104	276.04
617.522	269.02
617.94	308.8
618.358	231.57
618.776	306.46
619.194	357.96
619.612	283.06
620.03	280.72
620.447	315.83
620.865	343.91
621.282	346.25
621.7	308.8
622.117	355.62
622.535	301.78
622.952	329.87
623.369	266.67
623.787	322.85
624.204	360.3
624.621	327.53
625.038	355.62
625.455	348.59
625.872	315.83
626.289	292.42
626.706	313.49
627.123	280.72
627.539	313.49
627.956	315.83
628.373	332.21
628.789	283.06
629.206	327.53
629.622	348.59
630.038	329.87
630.455	372
630.871	346.25
631.287	318.17
631.703	238.59
632.12	388.38
632.536	301.78
632.952	364.98
633.368	355.62
633.783	292.42
634.199	376.68
634.615	308.8
635.031	355.62
635.446	266.67
635.862	327.53
636.277	336.89
636.693	364.98
637.108	350.93
637.524	348.59
637.939	393.06
638.354	252.63
638.77	261.99
639.185	315.83
639.6	308.8
640.015	332.21
640.43	350.93
640.845	285.4
641.259	357.96
641.674	266.67
642.089	311.14
642.504	283.06
642.918	297.1
643.333	341.57
643.747	362.64
644.162	416.47
644.576	318.17
644.991	381.36
645.405	343.91
645.819	311.14
646.233	320.51
646.647	322.85
647.061	353.27
647.475	273.7
647.889	332.21
648.303	308.8
648.717	315.83
649.131	301.78
649.545	313.49
649.958	320.51
650.372	336.89
650.785	297.1
651.199	290.08
651.612	334.55
652.026	332.21
652.439	280.72
652.852	311.14
653.266	332.21
653.679	273.7
654.092	315.83
654.505	294.76
654.918	276.04
655.331	367.32
655.744	350.93
656.156	283.06
656.569	315.83
656.982	306.46
657.394	299.44
657.807	273.7
658.22	336.89
658.632	329.87
659.044	292.42
659.457	294.76
659.869	360.3
660.281	313.49
660.693	383.7
661.106	285.4
661.518	306.46
661.93	264.33
662.342	250.29
662.754	350.93
663.165	339.23
663.577	269.02
663.989	336.89
664.401	320.51
664.812	297.1
665.224	308.8
665.635	339.23
666.047	332.21
666.458	369.66
666.869	386.04
667.281	327.53
667.692	332.21
668.103	231.57
668.514	386.04
668.925	327.53
669.336	290.08
669.747	357.96
670.158	334.55
670.569	313.49
670.979	276.04
671.39	257.31
671.801	332.21
672.211	297.1
672.622	334.55
673.032	283.06
673.443	287.74
673.853	306.46
674.263	306.46
674.674	334.55
675.084	350.93
675.494	339.23
675.904	325.19
676.314	301.78
676.724	334.55
677.134	292.42
677.544	322.85
677.953	283.06
678.363	327.53
678.773	372
679.182	355.62
679.592	283.06
680.001	327.53
680.411	332.21
680.82	278.38
681.23	360.3
681.639	313.49
682.048	355.62
682.457	297.1
682.866	334.55
683.275	236.25
683.684	334.55
684.093	322.85
684.502	283.06
684.911	297.1
685.32	421.15
685.728	367.32
686.137	301.78
686.546	355.62
686.954	301.78
687.363	332.21
687.771	332.21
688.179	304.12
688.588	341.57
688.996	327.53
689.404	329.87
689.812	292.42
690.22	311.14
690.628	325.19
691.036	271.36
691.444	341.57
691.852	341.57
692.26	304.12
692.667	297.1
693.075	304.12
693.483	306.46
693.89	343.91
694.298	320.51
694.705	287.74
695.112	329.87
695.52	343.91
695.927	372
696.334	327.53
696.741	320.51
697.148	290.08
697.555	334.55
697.962	283.06
698.369	327.53
698.776	364.98
699.183	313.49
699.59	348.59
699.996	304.12
700.403	383.7
700.81	238.59
701.216	348.59
701.623	360.3
702.029	315.83
702.435	332.21
702.842	306.46
703.248	224.55
703.654	278.38
704.06	292.42
704.466	339.23
704.872	353.27
705.278	304.12
705.684	320.51
706.09	308.8
706.496	374.34
706.901	306.46
707.307	315.83
707.712	252.63
708.118	318.17
708.523	313.49
708.929	301.78
709.334	311.14
709.74	318.17
710.145	393.06
710.55	301.78
710.955	304.12
711.36	364.98
711.765	247.95
712.17	318.17
712.575	332.21
712.98	957.13
713.385	322.85
713.789	269.02
714.194	383.7
714.599	278.38
715.003	346.25
715.408	320.51
715.812	311.14
716.217	327.53
716.621	325.19
717.025	299.44
717.429	332.21
717.833	332.21
718.238	304.12
718.642	357.96
719.046	332.21
719.449	353.27
719.853	301.78
720.257	240.93
720.661	290.08
721.065	339.23
721.468	283.06
721.872	383.7
722.275	376.68
722.679	304.12
723.082	285.4
723.485	332.21
723.889	280.72
724.292	294.76
724.695	264.33
725.098	343.91
725.501	348.59
725.904	304.12
726.307	329.87
726.71	360.3
727.113	348.59
727.516	318.17
727.918	306.46
728.321	369.66
728.724	278.38
729.126	257.31
729.529	346.25
729.931	353.27
730.333	217.52
730.736	343.91
731.138	278.38
731.54	290.08
731.942	264.33
732.344	308.8
732.746	254.97
733.148	353.27
733.55	364.98
733.952	299.44
734.354	318.17
734.756	318.17
735.157	376.68
735.559	299.44
735.96	327.53
736.362	360.3
736.763	294.76
737.165	402.43
737.566	327.53
737.967	360.3
738.368	367.32
738.77	372
739.171	346.25
739.572	318.17
739.973	334.55
740.374	322.85
740.774	320.51
741.175	327.53
741.576	322.85
741.977	357.96
742.377	334.55
742.778	322.85
743.178	364.98
743.579	315.83
743.979	332.21
744.379	381.36
744.78	325.19
745.18	280.72
745.58	348.59
745.98	334.55
746.38	301.78
746.78	315.83
747.18	285.4
747.58	290.08
747.98	348.59
748.38	266.67
748.779	306.46
749.179	311.14
749.578	369.66
749.978	308.8
750.377	287.74
750.777	287.74
751.176	327.53
751.575	325.19
751.975	360.3
752.374	334.55
752.773	269.02
753.172	336.89
753.571	315.83
753.97	245.61
754.369	357.96
754.768	343.91
755.166	294.76
755.565	339.23
755.964	294.76
756.362	266.67
756.761	292.42
757.159	278.38
757.558	308.8
757.956	325.19
758.354	362.64
758.753	280.72
759.151	339.23
759.549	322.85
759.947	306.46
760.345	409.45
760.743	247.95
761.141	271.36
761.539	418.81
761.936	301.78
762.334	362.64
762.732	264.33
763.129	341.57
763.527	325.19
763.924	327.53
764.322	297.1
764.719	294.76
765.117	362.64
765.514	315.83
765.911	276.04
