Data from Al_FLMS009871__1018__16-22-55-717.txt Node

Date: Fri Mar 08 16:22:55 CST 2024
User: pe5414po
Spectrometer: FLMS00987
Trigger mode: 0
Integration Time (sec): 1.000000E-1
Scans to average: 1
Electric dark correction enabled: true
Nonlinearity correction enabled: false
Boxcar width: 0
XAxis mode: Wavelengths
Number of Pixels in Spectrum: 2048
>>>>>Begin Spectral Data<<<<<
188.938	-102.11
189.409	-102.11
189.879	-102.11
190.349	-74.02
190.819	-90.4
191.29	-109.13
191.76	-81.04
192.23	-8.48
192.7	-165.3
193.17	-45.93
193.64	-92.74
194.109	-41.25
194.579	-43.59
195.049	5.56
195.519	26.62
195.988	17.26
196.458	103.86
196.927	145.99
197.397	52.37
197.866	92.16
198.336	143.65
198.805	138.97
199.274	145.99
199.744	169.4
200.213	185.78
200.682	183.44
201.151	176.42
201.62	248.97
202.089	260.68
202.558	279.4
203.027	248.97
203.495	241.95
203.964	211.53
204.433	274.72
204.902	288.76
205.37	319.19
205.839	260.68
206.307	263.02
206.776	319.19
207.244	335.57
207.712	307.49
208.181	284.08
208.649	293.44
209.117	316.85
209.585	279.4
210.053	251.32
210.521	314.51
210.989	248.97
211.457	274.72
211.925	251.32
212.393	279.4
212.861	305.15
213.328	267.7
213.796	314.51
214.264	270.04
214.731	237.27
215.199	267.7
215.666	244.29
216.133	281.74
216.601	330.89
217.068	267.7
217.535	314.51
218.003	227.91
218.47	270.04
218.937	244.29
219.404	230.25
219.871	216.21
220.338	309.83
220.805	251.32
221.271	288.76
221.738	244.29
222.205	232.59
222.671	298.13
223.138	199.82
223.605	279.4
224.071	251.32
224.538	251.32
225.004	302.81
225.47	295.79
225.937	265.36
226.403	241.95
226.869	227.91
227.335	263.02
227.801	291.1
228.267	267.7
228.733	270.04
229.199	216.21
229.665	227.91
230.131	321.53
230.597	202.16
231.062	260.68
231.528	246.63
231.994	239.61
232.459	258.34
232.925	314.51
233.39	251.32
233.856	220.89
234.321	258.34
234.786	272.38
235.252	319.19
235.717	241.95
236.182	234.93
236.647	328.55
237.112	227.91
237.577	260.68
238.042	246.63
238.507	246.63
238.972	246.63
239.436	286.42
239.901	274.72
240.366	291.1
240.83	216.21
241.295	337.91
241.76	295.79
242.224	267.7
242.688	260.68
243.153	293.44
243.617	260.68
244.081	323.87
244.545	239.61
245.01	199.82
245.474	291.1
245.938	316.85
246.402	286.42
246.866	230.25
247.33	291.1
247.793	293.44
248.257	298.13
248.721	286.42
249.185	300.47
249.648	237.27
250.112	248.97
250.575	279.4
251.039	300.47
251.502	307.49
251.965	272.38
252.429	319.19
252.892	274.72
253.355	237.27
253.818	251.32
254.281	307.49
254.744	340.26
255.207	244.29
255.67	225.57
256.133	298.13
256.596	256
257.059	263.02
257.522	293.44
257.984	274.72
258.447	279.4
258.909	337.91
259.372	270.04
259.834	300.47
260.297	277.06
260.759	293.44
261.221	298.13
261.684	307.49
262.146	312.17
262.608	277.06
263.07	291.1
263.532	326.21
263.994	284.08
264.456	244.29
264.918	267.7
265.38	284.08
265.842	340.26
266.303	291.1
266.765	270.04
267.227	314.51
267.688	263.02
268.15	267.7
268.611	256
269.072	251.32
269.534	253.66
269.995	312.17
270.456	263.02
270.918	253.66
271.379	293.44
271.84	335.57
272.301	248.97
272.762	307.49
273.223	293.44
273.684	300.47
274.144	274.72
274.605	342.6
275.066	298.13
275.527	277.06
275.987	279.4
276.448	263.02
276.908	328.55
277.369	265.36
277.829	323.87
278.289	279.4
278.75	246.63
279.21	293.44
279.67	281.74
280.13	286.42
280.59	284.08
281.05	164.72
281.51	314.51
281.97	302.81
282.43	319.19
282.89	253.66
283.35	300.47
283.809	291.1
284.269	281.74
284.729	274.72
285.188	321.53
285.648	302.81
286.107	260.68
286.567	340.26
287.026	281.74
287.485	253.66
287.944	206.84
288.404	284.08
288.863	267.7
289.322	321.53
289.781	284.08
290.24	321.53
290.699	314.51
291.158	394.09
291.616	267.7
292.075	220.89
292.534	281.74
292.992	328.55
293.451	326.21
293.91	295.79
294.368	286.42
294.827	307.49
295.285	307.49
295.743	316.85
296.202	337.91
296.66	323.87
297.118	298.13
297.576	284.08
298.034	288.76
298.492	316.85
298.95	281.74
299.408	241.95
299.866	248.97
300.324	274.72
300.781	227.91
301.239	316.85
301.697	284.08
302.154	333.23
302.612	295.79
303.069	300.47
303.527	326.21
303.984	244.29
304.441	319.19
304.899	323.87
305.356	326.21
305.813	373.02
306.27	340.26
306.727	260.68
307.184	305.15
307.641	288.76
308.098	344.94
308.555	239.61
309.012	279.4
309.468	342.6
309.925	279.4
310.382	270.04
310.838	281.74
311.295	344.94
311.751	342.6
312.208	256
312.664	279.4
313.12	279.4
313.577	335.57
314.033	309.83
314.489	323.87
314.945	335.57
315.401	330.89
315.857	321.53
316.313	274.72
316.769	258.34
317.225	260.68
317.681	337.91
318.136	314.51
318.592	286.42
319.048	314.51
319.503	298.13
319.959	316.85
320.414	258.34
320.869	281.74
321.325	351.96
321.78	307.49
322.235	298.13
322.691	333.23
323.146	335.57
323.601	253.66
324.056	349.62
324.511	316.85
324.966	267.7
325.421	307.49
325.875	302.81
326.33	291.1
326.785	302.81
327.24	328.55
327.694	344.94
328.149	333.23
328.603	288.76
329.058	337.91
329.512	241.95
329.966	307.49
330.421	295.79
330.875	274.72
331.329	288.76
331.783	270.04
332.237	293.44
332.691	342.6
333.145	342.6
333.599	321.53
334.053	246.63
334.507	314.51
334.96	291.1
335.414	337.91
335.868	291.1
336.321	403.45
336.775	272.38
337.228	335.57
337.682	321.53
338.135	312.17
338.588	312.17
339.042	274.72
339.495	260.68
339.948	277.06
340.401	244.29
340.854	263.02
341.307	267.7
341.76	354.3
342.213	248.97
342.666	316.85
343.119	270.04
343.571	286.42
344.024	265.36
344.477	295.79
344.929	298.13
345.382	270.04
345.834	328.55
346.287	267.7
346.739	314.51
347.191	340.26
347.644	316.85
348.096	279.4
348.548	347.28
349	258.34
349.452	291.1
349.904	358.98
350.356	288.76
350.808	321.53
351.26	314.51
351.711	265.36
352.163	253.66
352.615	251.32
353.066	351.96
353.518	305.15
353.969	328.55
354.421	344.94
354.872	316.85
355.324	272.38
355.775	309.83
356.226	307.49
356.677	344.94
357.128	307.49
357.579	326.21
358.03	251.32
358.481	307.49
358.932	316.85
359.383	302.81
359.834	270.04
360.285	298.13
360.735	316.85
361.186	293.44
361.637	319.19
362.087	316.85
362.538	251.32
362.988	237.27
363.438	337.91
363.889	293.44
364.339	326.21
364.789	354.3
365.239	286.42
365.689	358.98
366.139	314.51
366.589	284.08
367.039	284.08
367.489	239.61
367.939	314.51
368.389	286.42
368.839	277.06
369.288	281.74
369.738	295.79
370.187	258.34
370.637	328.55
371.086	272.38
371.536	321.53
371.985	333.23
372.434	272.38
372.884	354.3
373.333	274.72
373.782	319.19
374.231	291.1
374.68	265.36
375.129	293.44
375.578	328.55
376.027	335.57
376.475	284.08
376.924	286.42
377.373	333.23
377.822	302.81
378.27	284.08
378.719	351.96
379.167	253.66
379.616	370.68
380.064	314.51
380.512	380.04
380.961	253.66
381.409	227.91
381.857	300.47
382.305	361.32
382.753	263.02
383.201	237.27
383.649	351.96
384.097	340.26
384.545	286.42
384.992	382.39
385.44	351.96
385.888	375.36
386.335	267.7
386.783	281.74
387.231	307.49
387.678	305.15
388.125	377.7
388.573	370.68
389.02	279.4
389.467	284.08
389.914	286.42
390.362	263.02
390.809	309.83
391.256	312.17
391.703	309.83
392.15	337.91
392.596	279.4
393.043	307.49
393.49	314.51
393.937	288.76
394.383	302.81
394.83	316.85
395.276	302.81
395.723	309.83
396.169	251.32
396.616	300.47
397.062	340.26
397.508	277.06
397.954	326.21
398.401	307.49
398.847	270.04
399.293	277.06
399.739	323.87
400.185	265.36
400.631	326.21
401.076	302.81
401.522	323.87
401.968	314.51
402.414	300.47
402.859	293.44
403.305	319.19
403.75	211.53
404.196	319.19
404.641	335.57
405.086	319.19
405.532	298.13
405.977	277.06
406.422	344.94
406.867	260.68
407.312	326.21
407.757	312.17
408.202	300.47
408.647	344.94
409.092	251.32
409.537	241.95
409.982	291.1
410.426	260.68
410.871	293.44
411.316	312.17
411.76	307.49
412.205	316.85
412.649	265.36
413.093	300.47
413.538	347.28
413.982	288.76
414.426	312.17
414.87	337.91
415.314	302.81
415.758	307.49
416.202	293.44
416.646	295.79
417.09	335.57
417.534	309.83
417.978	330.89
418.421	333.23
418.865	356.64
419.309	330.89
419.752	340.26
420.196	342.6
420.639	281.74
421.083	260.68
421.526	361.32
421.969	319.19
422.412	314.51
422.856	293.44
423.299	302.81
423.742	375.36
424.185	279.4
424.628	314.51
425.071	337.91
425.513	309.83
425.956	270.04
426.399	256
426.842	286.42
427.284	354.3
427.727	302.81
428.169	288.76
428.612	314.51
429.054	295.79
429.497	284.08
429.939	300.47
430.381	279.4
430.823	309.83
431.265	258.34
431.707	295.79
432.149	279.4
432.591	293.44
433.033	326.21
433.475	291.1
433.917	319.19
434.359	330.89
434.8	258.34
435.242	256
435.684	279.4
436.125	363.66
436.567	319.19
437.008	277.06
437.449	295.79
437.891	344.94
438.332	335.57
438.773	265.36
439.214	281.74
439.656	263.02
440.097	298.13
440.538	344.94
440.978	291.1
441.419	326.21
441.86	302.81
442.301	321.53
442.742	326.21
443.182	330.89
443.623	382.39
444.063	300.47
444.504	291.1
444.944	288.76
445.385	319.19
445.825	363.66
446.265	354.3
446.706	241.95
447.146	316.85
447.586	256
448.026	298.13
448.466	274.72
448.906	302.81
449.346	302.81
449.786	309.83
450.225	265.36
450.665	342.6
451.105	305.15
451.544	328.55
451.984	373.02
452.424	295.79
452.863	314.51
453.302	291.1
453.742	274.72
454.181	326.21
454.62	267.7
455.059	361.32
455.499	284.08
455.938	295.79
456.377	246.63
456.816	267.7
457.254	337.91
457.693	342.6
458.132	253.66
458.571	286.42
459.01	309.83
459.448	316.85
459.887	323.87
460.325	321.53
460.764	328.55
461.202	298.13
461.641	316.85
462.079	286.42
462.517	272.38
462.955	330.89
463.393	284.08
463.832	279.4
464.27	375.36
464.708	274.72
465.145	337.91
465.583	389.41
466.021	330.89
466.459	293.44
466.897	319.19
467.334	274.72
467.772	337.91
468.209	319.19
468.647	263.02
469.084	368.34
469.522	239.61
469.959	391.75
470.396	349.62
470.833	288.76
471.271	347.28
471.708	291.1
472.145	349.62
472.582	309.83
473.019	377.7
473.456	293.44
473.892	316.85
474.329	323.87
474.766	321.53
475.202	272.38
475.639	286.42
476.076	316.85
476.512	328.55
476.949	323.87
477.385	335.57
477.821	267.7
478.258	279.4
478.694	241.95
479.13	263.02
479.566	330.89
480.002	277.06
480.438	232.59
480.874	284.08
481.31	298.13
481.746	366
482.181	295.79
482.617	288.76
483.053	295.79
483.488	321.53
483.924	302.81
484.36	286.42
484.795	312.17
485.23	267.7
485.666	309.83
486.101	314.51
486.536	277.06
486.971	342.6
487.407	356.64
487.842	270.04
488.277	267.7
488.712	291.1
489.146	281.74
489.581	354.3
490.016	358.98
490.451	267.7
490.885	279.4
491.32	340.26
491.755	377.7
492.189	286.42
492.624	309.83
493.058	321.53
493.492	356.64
493.927	295.79
494.361	267.7
494.795	274.72
495.229	309.83
495.663	330.89
496.097	277.06
496.531	300.47
496.965	281.74
497.399	279.4
497.833	333.23
498.266	333.23
498.7	284.08
499.134	335.57
499.567	260.68
500.001	291.1
500.434	295.79
500.868	323.87
501.301	293.44
501.734	307.49
502.168	335.57
502.601	314.51
503.034	300.47
503.467	337.91
503.9	330.89
504.333	298.13
504.766	328.55
505.199	321.53
505.632	293.44
506.064	248.97
506.497	288.76
506.93	307.49
507.362	291.1
507.795	300.47
508.227	291.1
508.66	354.3
509.092	307.49
509.524	373.02
509.956	316.85
510.389	316.85
510.821	298.13
511.253	298.13
511.685	288.76
512.117	293.44
512.549	312.17
512.981	284.08
513.412	274.72
513.844	293.44
514.276	277.06
514.707	389.41
515.139	281.74
515.571	309.83
516.002	309.83
516.433	337.91
516.865	253.66
517.296	302.81
517.727	321.53
518.159	312.17
518.59	274.72
519.021	321.53
519.452	323.87
519.883	286.42
520.314	295.79
520.744	295.79
521.175	295.79
521.606	300.47
522.037	356.64
522.467	356.64
522.898	286.42
523.328	314.51
523.759	312.17
524.189	358.98
524.62	288.76
525.05	263.02
525.48	356.64
525.91	277.06
526.341	295.79
526.771	335.57
527.201	344.94
527.631	335.57
528.061	333.23
528.49	314.51
528.92	330.89
529.35	377.7
529.78	274.72
530.209	277.06
530.639	323.87
531.068	309.83
531.498	281.74
531.927	309.83
532.357	337.91
532.786	309.83
533.215	213.87
533.644	284.08
534.074	298.13
534.503	241.95
534.932	335.57
535.361	316.85
535.79	253.66
536.218	293.44
536.647	326.21
537.076	335.57
537.505	335.57
537.933	279.4
538.362	337.91
538.79	340.26
539.219	312.17
539.647	340.26
540.076	349.62
540.504	260.68
540.932	253.66
541.36	337.91
541.788	267.7
542.217	380.04
542.645	312.17
543.073	307.49
543.5	293.44
543.928	305.15
544.356	319.19
544.784	323.87
545.211	284.08
545.639	347.28
546.067	323.87
546.494	274.72
546.922	263.02
547.349	258.34
547.776	349.62
548.204	291.1
548.631	281.74
549.058	307.49
549.485	333.23
549.912	272.38
550.339	298.13
550.766	316.85
551.193	288.76
551.62	309.83
552.047	270.04
552.474	260.68
552.9	312.17
553.327	321.53
553.754	312.17
554.18	358.98
554.607	321.53
555.033	305.15
555.459	323.87
555.886	370.68
556.312	333.23
556.738	267.7
557.164	370.68
557.59	333.23
558.016	272.38
558.442	253.66
558.868	337.91
559.294	286.42
559.72	239.61
560.145	344.94
560.571	330.89
560.997	330.89
561.422	277.06
561.848	314.51
562.273	354.3
562.699	253.66
563.124	309.83
563.549	314.51
563.974	286.42
564.4	293.44
564.825	284.08
565.25	377.7
565.675	342.6
566.1	323.87
566.525	323.87
566.95	333.23
567.374	300.47
567.799	309.83
568.224	300.47
568.648	328.55
569.073	309.83
569.497	302.81
569.922	302.81
570.346	349.62
570.771	279.4
571.195	340.26
571.619	319.19
572.043	337.91
572.467	234.93
572.891	270.04
573.315	291.1
573.739	279.4
574.163	265.36
574.587	256
575.011	265.36
575.435	274.72
575.858	330.89
576.282	333.23
576.705	337.91
577.129	319.19
577.552	319.19
577.976	333.23
578.399	314.51
578.822	326.21
579.245	279.4
579.669	288.76
580.092	291.1
580.515	314.51
580.938	298.13
581.361	302.81
581.784	335.57
582.206	302.81
582.629	286.42
583.052	396.43
583.474	309.83
583.897	251.32
584.32	253.66
584.742	295.79
585.165	370.68
585.587	312.17
586.009	241.95
586.431	279.4
586.854	272.38
587.276	272.38
587.698	300.47
588.12	302.81
588.542	316.85
588.964	354.3
589.386	349.62
589.807	298.13
590.229	295.79
590.651	288.76
591.073	335.57
591.494	291.1
591.916	293.44
592.337	375.36
592.759	298.13
593.18	288.76
593.601	288.76
594.022	263.02
594.444	241.95
594.865	251.32
595.286	241.95
595.707	279.4
596.128	288.76
596.549	321.53
596.97	387.07
597.39	279.4
597.811	302.81
598.232	321.53
598.652	277.06
599.073	314.51
599.494	307.49
599.914	328.55
600.334	305.15
600.755	263.02
601.175	291.1
601.595	330.89
602.015	293.44
602.436	337.91
602.856	405.79
603.276	302.81
603.696	305.15
604.115	333.23
604.535	312.17
604.955	333.23
605.375	389.41
605.794	281.74
606.214	347.28
606.634	323.87
607.053	351.96
607.473	314.51
607.892	288.76
608.311	330.89
608.731	309.83
609.15	300.47
609.569	333.23
609.988	340.26
610.407	323.87
610.826	340.26
611.245	363.66
611.664	220.89
612.083	277.06
612.501	295.79
612.92	366
613.339	302.81
613.757	277.06
614.176	305.15
614.594	230.25
615.013	279.4
615.431	253.66
615.85	370.68
616.268	347.28
616.686	263.02
617.104	326.21
617.522	284.08
617.94	300.47
618.358	293.44
618.776	340.26
619.194	326.21
619.612	375.36
620.03	396.43
620.447	356.64
620.865	333.23
621.282	256
621.7	344.94
622.117	291.1
622.535	284.08
622.952	323.87
623.369	263.02
623.787	246.63
624.204	288.76
624.621	272.38
625.038	314.51
625.455	321.53
625.872	305.15
626.289	354.3
626.706	288.76
627.123	258.34
627.539	291.1
627.956	286.42
628.373	274.72
628.789	344.94
629.206	342.6
629.622	302.81
630.038	291.1
630.455	295.79
630.871	312.17
631.287	309.83
631.703	323.87
632.12	307.49
632.536	267.7
632.952	351.96
633.368	335.57
633.783	342.6
634.199	312.17
634.615	309.83
635.031	272.38
635.446	251.32
635.862	309.83
636.277	277.06
636.693	293.44
637.108	316.85
637.524	321.53
637.939	237.27
638.354	267.7
638.77	248.97
639.185	340.26
639.6	333.23
640.015	286.42
640.43	351.96
640.845	314.51
641.259	347.28
641.674	347.28
642.089	333.23
642.504	342.6
642.918	314.51
643.333	340.26
643.747	340.26
644.162	319.19
644.576	356.64
644.991	258.34
645.405	281.74
645.819	300.47
646.233	321.53
646.647	265.36
647.061	361.32
647.475	335.57
647.889	246.63
648.303	333.23
648.717	295.79
649.131	333.23
649.545	265.36
649.958	314.51
650.372	328.55
650.785	309.83
651.199	267.7
651.612	291.1
652.026	291.1
652.439	302.81
652.852	265.36
653.266	337.91
653.679	298.13
654.092	284.08
654.505	361.32
654.918	305.15
655.331	293.44
655.744	344.94
656.156	291.1
656.569	347.28
656.982	267.7
657.394	333.23
657.807	316.85
658.22	330.89
658.632	284.08
659.044	305.15
659.457	328.55
659.869	326.21
660.281	305.15
660.693	370.68
661.106	305.15
661.518	256
661.93	316.85
662.342	314.51
662.754	300.47
663.165	351.96
663.577	281.74
663.989	307.49
664.401	286.42
664.812	223.23
665.224	309.83
665.635	354.3
666.047	316.85
666.458	319.19
666.869	330.89
667.281	312.17
667.692	246.63
668.103	232.59
668.514	344.94
668.925	309.83
669.336	361.32
669.747	291.1
670.158	251.32
670.569	302.81
670.979	382.39
671.39	323.87
671.801	344.94
672.211	241.95
672.622	244.29
673.032	340.26
673.443	295.79
673.853	293.44
674.263	293.44
674.674	354.3
675.084	323.87
675.494	286.42
675.904	291.1
676.314	319.19
676.724	298.13
677.134	291.1
677.544	309.83
677.953	307.49
678.363	307.49
678.773	358.98
679.182	274.72
679.592	274.72
680.001	321.53
680.411	279.4
680.82	309.83
681.23	248.97
681.639	356.64
682.048	263.02
682.457	316.85
682.866	251.32
683.275	220.89
683.684	316.85
684.093	302.81
684.502	312.17
684.911	312.17
685.32	328.55
685.728	316.85
686.137	267.7
686.546	314.51
686.954	305.15
687.363	256
687.771	288.76
688.179	347.28
688.588	337.91
688.996	351.96
689.404	300.47
689.812	326.21
690.22	340.26
690.628	302.81
691.036	305.15
691.444	363.66
691.852	302.81
692.26	291.1
692.667	342.6
693.075	281.74
693.483	330.89
693.89	319.19
694.298	373.02
694.705	375.36
695.112	293.44
695.52	356.64
695.927	298.13
696.334	415.15
696.741	260.68
697.148	337.91
697.555	298.13
697.962	316.85
698.369	305.15
698.776	256
699.183	349.62
699.59	429.2
699.996	307.49
700.403	300.47
700.81	295.79
701.216	337.91
701.623	288.76
702.029	326.21
702.435	307.49
702.842	272.38
703.248	358.98
703.654	298.13
704.06	279.4
704.466	265.36
704.872	274.72
705.278	323.87
705.684	256
706.09	265.36
706.496	253.66
706.901	295.79
707.307	309.83
707.712	234.93
708.118	309.83
708.523	307.49
708.929	328.55
709.334	344.94
709.74	298.13
710.145	302.81
710.55	302.81
710.955	279.4
711.36	368.34
711.765	284.08
712.17	300.47
712.575	333.23
712.98	817.72
713.385	305.15
713.789	281.74
714.194	316.85
714.599	305.15
715.003	333.23
715.408	309.83
715.812	330.89
716.217	344.94
716.621	248.97
717.025	291.1
717.429	368.34
717.833	323.87
718.238	256
718.642	277.06
719.046	270.04
719.449	272.38
719.853	380.04
720.257	323.87
720.661	351.96
721.065	302.81
721.468	312.17
721.872	361.32
722.275	291.1
722.679	272.38
723.082	281.74
723.485	258.34
723.889	272.38
724.292	330.89
724.695	274.72
725.098	335.57
725.501	234.93
725.904	260.68
726.307	328.55
726.71	305.15
727.113	298.13
727.516	321.53
727.918	270.04
728.321	326.21
728.724	323.87
729.126	316.85
729.529	412.81
729.931	358.98
730.333	302.81
730.736	295.79
731.138	298.13
731.54	279.4
731.942	366
732.344	281.74
732.746	286.42
733.148	307.49
733.55	265.36
733.952	256
734.354	298.13
734.756	328.55
735.157	274.72
735.559	263.02
735.96	380.04
736.362	344.94
736.763	279.4
737.165	342.6
737.566	312.17
737.967	286.42
738.368	358.98
738.77	312.17
739.171	328.55
739.572	253.66
739.973	281.74
740.374	244.29
740.774	366
741.175	349.62
741.576	354.3
741.977	302.81
742.377	335.57
742.778	302.81
743.178	286.42
743.579	270.04
743.979	277.06
744.379	340.26
744.78	347.28
745.18	337.91
745.58	321.53
745.98	277.06
746.38	347.28
746.78	279.4
747.18	256
747.58	277.06
747.98	244.29
748.38	316.85
748.779	241.95
749.179	248.97
749.578	323.87
749.978	307.49
750.377	265.36
750.777	344.94
751.176	281.74
751.575	337.91
751.975	312.17
752.374	342.6
752.773	321.53
753.172	302.81
753.571	330.89
753.97	281.74
754.369	370.68
754.768	356.64
755.166	342.6
755.565	272.38
755.964	321.53
756.362	328.55
756.761	284.08
757.159	309.83
757.558	335.57
757.956	337.91
758.354	354.3
758.753	333.23
759.151	302.81
759.549	391.75
759.947	302.81
760.345	223.23
760.743	244.29
761.141	244.29
761.539	270.04
761.936	351.96
762.334	312.17
762.732	335.57
763.129	237.27
763.527	316.85
763.924	300.47
764.322	291.1
764.719	298.13
765.117	291.1
765.514	251.32
765.911	241.95
766.308	284.08
766.705	326.21
