Data from Al_FLMS009871__1008__16-22-54-717.txt Node

Date: Fri Mar 08 16:22:54 CST 2024
User: pe5414po
Spectrometer: FLMS00987
Trigger mode: 0
Integration Time (sec): 1.000000E-1
Scans to average: 1
Electric dark correction enabled: true
Nonlinearity correction enabled: false
Boxcar width: 0
XAxis mode: Wavelengths
Number of Pixels in Spectrum: 2048
>>>>>Begin Spectral Data<<<<<
188.938	-79.29
189.409	-79.29
189.879	-79.29
190.349	-100.35
190.819	-105.03
191.29	-133.12
191.76	-116.73
192.23	-53.54
192.7	-109.71
193.17	-23.11
193.64	-51.2
194.109	-67.58
194.579	-6.73
195.049	-25.45
195.519	49.44
195.988	86.89
196.458	0.29
196.927	77.53
197.397	133.7
197.866	133.7
198.336	105.62
198.805	173.49
199.274	175.83
199.744	189.88
200.213	166.47
200.682	203.92
201.151	157.11
201.62	267.11
202.089	194.56
202.558	173.49
203.027	276.48
203.495	243.71
203.964	241.37
204.433	257.75
204.902	278.82
205.37	306.9
205.839	220.3
206.307	290.52
206.776	320.95
207.244	309.24
207.712	318.61
208.181	283.5
208.649	299.88
209.117	278.82
209.585	332.65
210.053	346.69
210.521	274.14
210.989	281.16
211.457	285.84
211.925	320.95
212.393	243.71
212.861	283.5
213.328	281.16
213.796	306.9
214.264	330.31
214.731	309.24
215.199	222.64
215.666	224.98
216.133	309.24
216.601	297.54
217.068	276.48
217.535	295.2
218.003	262.43
218.47	299.88
218.937	290.52
219.404	288.18
219.871	297.54
220.338	271.79
220.805	267.11
221.271	239.03
221.738	267.11
222.205	243.71
222.671	206.26
223.138	269.45
223.605	246.05
224.071	250.73
224.538	253.07
225.004	253.07
225.47	290.52
225.937	292.86
226.403	281.16
226.869	215.62
227.335	257.75
227.801	295.2
228.267	288.18
228.733	201.58
229.199	257.75
229.665	278.82
230.131	203.92
230.597	253.07
231.062	264.77
231.528	292.86
231.994	313.92
232.459	276.48
232.925	229.67
233.39	236.69
233.856	283.5
234.321	269.45
234.786	250.73
235.252	255.41
235.717	232.01
236.182	283.5
236.647	253.07
237.112	271.79
237.577	222.64
238.042	276.48
238.507	250.73
238.972	271.79
239.436	346.69
239.901	309.24
240.366	255.41
240.83	220.3
241.295	229.67
241.76	229.67
242.224	276.48
242.688	316.26
243.153	278.82
243.617	278.82
244.081	269.45
244.545	274.14
245.01	248.39
245.474	243.71
245.938	281.16
246.402	257.75
246.866	283.5
247.33	278.82
247.793	332.65
248.257	332.65
248.721	297.54
249.185	278.82
249.648	285.84
250.112	250.73
250.575	274.14
251.039	295.2
251.502	295.2
251.965	278.82
252.429	327.97
252.892	274.14
253.355	320.95
253.818	246.05
254.281	262.43
254.744	323.29
255.207	274.14
255.67	288.18
256.133	302.22
256.596	318.61
257.059	292.86
257.522	250.73
257.984	271.79
258.447	325.63
258.909	346.69
259.372	339.67
259.834	281.16
260.297	290.52
260.759	295.2
261.221	234.35
261.684	255.41
262.146	276.48
262.608	257.75
263.07	278.82
263.532	304.56
263.994	255.41
264.456	274.14
264.918	260.09
265.38	262.43
265.842	353.71
266.303	241.37
266.765	255.41
267.227	276.48
267.688	332.65
268.15	290.52
268.611	313.92
269.072	222.64
269.534	330.31
269.995	241.37
270.456	253.07
270.918	241.37
271.379	281.16
271.84	330.31
272.301	290.52
272.762	248.39
273.223	304.56
273.684	281.16
274.144	297.54
274.605	313.92
275.066	255.41
275.527	246.05
275.987	304.56
276.448	290.52
276.908	274.14
277.369	358.39
277.829	292.86
278.289	264.77
278.75	327.97
279.21	255.41
279.67	330.31
280.13	283.5
280.59	297.54
281.05	323.29
281.51	297.54
281.97	349.03
282.43	260.09
282.89	285.84
283.35	269.45
283.809	253.07
284.269	320.95
284.729	281.16
285.188	255.41
285.648	276.48
286.107	318.61
286.567	236.69
287.026	262.43
287.485	260.09
287.944	283.5
288.404	318.61
288.863	274.14
289.322	290.52
289.781	327.97
290.24	330.31
290.699	267.11
291.158	306.9
291.616	276.48
292.075	304.56
292.534	311.58
292.992	264.77
293.451	220.3
293.91	381.8
294.368	344.35
294.827	260.09
295.285	283.5
295.743	334.99
296.202	299.88
296.66	290.52
297.118	276.48
297.576	334.99
298.034	281.16
298.492	262.43
298.95	267.11
299.408	349.03
299.866	318.61
300.324	327.97
300.781	332.65
301.239	250.73
301.697	297.54
302.154	337.33
302.612	342.01
303.069	288.18
303.527	337.33
303.984	313.92
304.441	332.65
304.899	320.95
305.356	304.56
305.813	337.33
306.27	297.54
306.727	320.95
307.184	349.03
307.641	372.44
308.098	271.79
308.555	370.1
309.012	274.14
309.468	283.5
309.925	327.97
310.382	332.65
310.838	297.54
311.295	316.26
311.751	334.99
312.208	323.29
312.664	302.22
313.12	290.52
313.577	299.88
314.033	281.16
314.489	292.86
314.945	339.67
315.401	299.88
315.857	323.29
316.313	313.92
316.769	269.45
317.225	311.58
317.681	281.16
318.136	283.5
318.592	344.35
319.048	276.48
319.503	264.77
319.959	313.92
320.414	232.01
320.869	313.92
321.325	316.26
321.78	302.22
322.235	264.77
322.691	323.29
323.146	353.71
323.601	313.92
324.056	349.03
324.511	349.03
324.966	283.5
325.421	299.88
325.875	269.45
326.33	325.63
326.785	306.9
327.24	306.9
327.694	304.56
328.149	276.48
328.603	285.84
329.058	332.65
329.512	365.42
329.966	292.86
330.421	302.22
330.875	269.45
331.329	349.03
331.783	276.48
332.237	297.54
332.691	320.95
333.145	220.3
333.599	316.26
334.053	278.82
334.507	332.65
334.96	316.26
335.414	320.95
335.868	313.92
336.321	276.48
336.775	288.18
337.228	309.24
337.682	274.14
338.135	320.95
338.588	339.67
339.042	290.52
339.495	276.48
339.948	288.18
340.401	288.18
340.854	250.73
341.307	309.24
341.76	306.9
342.213	346.69
342.666	299.88
343.119	393.5
343.571	271.79
344.024	313.92
344.477	337.33
344.929	234.35
345.382	295.2
345.834	318.61
346.287	358.39
346.739	295.2
347.191	285.84
347.644	297.54
348.096	285.84
348.548	274.14
349	358.39
349.452	306.9
349.904	285.84
350.356	325.63
350.808	292.86
351.26	241.37
351.711	327.97
352.163	297.54
352.615	327.97
353.066	260.09
353.518	374.78
353.969	323.29
354.421	262.43
354.872	327.97
355.324	299.88
355.775	290.52
356.226	264.77
356.677	309.24
357.128	379.46
357.579	267.11
358.03	290.52
358.481	222.64
358.932	285.84
359.383	339.67
359.834	241.37
360.285	342.01
360.735	323.29
361.186	358.39
361.637	306.9
362.087	342.01
362.538	260.09
362.988	297.54
363.438	250.73
363.889	285.84
364.339	325.63
364.789	271.79
365.239	295.2
365.689	327.97
366.139	274.14
366.589	299.88
367.039	295.2
367.489	363.08
367.939	327.97
368.389	311.58
368.839	318.61
369.288	255.41
369.738	337.33
370.187	346.69
370.637	344.35
371.086	276.48
371.536	283.5
371.985	290.52
372.434	285.84
372.884	262.43
373.333	302.22
373.782	292.86
374.231	309.24
374.68	288.18
375.129	337.33
375.578	297.54
376.027	330.31
376.475	313.92
376.924	304.56
377.373	342.01
377.822	365.42
378.27	232.01
378.719	260.09
379.167	283.5
379.616	320.95
380.064	337.33
380.512	332.65
380.961	295.2
381.409	274.14
381.857	325.63
382.305	356.05
382.753	292.86
383.201	292.86
383.649	306.9
384.097	356.05
384.545	379.46
384.992	320.95
385.44	334.99
385.888	351.37
386.335	276.48
386.783	339.67
387.231	306.9
387.678	351.37
388.125	377.12
388.573	311.58
389.02	292.86
389.467	248.39
389.914	260.09
390.362	278.82
390.809	325.63
391.256	302.22
391.703	283.5
392.15	313.92
392.596	337.33
393.043	332.65
393.49	260.09
393.937	349.03
394.383	381.8
394.83	313.92
395.276	306.9
395.723	318.61
396.169	278.82
396.616	276.48
397.062	292.86
397.508	356.05
397.954	290.52
398.401	267.11
398.847	316.26
399.293	334.99
399.739	304.56
400.185	332.65
400.631	320.95
401.076	220.3
401.522	388.82
401.968	292.86
402.414	246.05
402.859	325.63
403.305	330.31
403.75	339.67
404.196	339.67
404.641	283.5
405.086	342.01
405.532	344.35
405.977	358.39
406.422	292.86
406.867	367.76
407.312	334.99
407.757	360.74
408.202	334.99
408.647	344.35
409.092	353.71
409.537	356.05
409.982	330.31
410.426	229.67
410.871	281.16
411.316	327.97
411.76	337.33
412.205	306.9
412.649	330.31
413.093	299.88
413.538	318.61
413.982	257.75
414.426	253.07
414.87	325.63
415.314	323.29
415.758	281.16
416.202	222.64
416.646	295.2
417.09	267.11
417.534	316.26
417.978	351.37
418.421	290.52
418.865	330.31
419.309	297.54
419.752	332.65
420.196	302.22
420.639	309.24
421.083	302.22
421.526	285.84
421.969	316.26
422.412	367.76
422.856	281.16
423.299	297.54
423.742	269.45
424.185	271.79
424.628	260.09
425.071	290.52
425.513	337.33
425.956	327.97
426.399	299.88
426.842	342.01
427.284	299.88
427.727	299.88
428.169	267.11
428.612	313.92
429.054	339.67
429.497	313.92
429.939	299.88
430.381	278.82
430.823	306.9
431.265	232.01
431.707	334.99
432.149	243.71
432.591	276.48
433.033	309.24
433.475	342.01
433.917	309.24
434.359	384.14
434.8	278.82
435.242	374.78
435.684	316.26
436.125	346.69
436.567	323.29
437.008	309.24
437.449	299.88
437.891	365.42
438.332	332.65
438.773	302.22
439.214	365.42
439.656	342.01
440.097	295.2
440.538	311.58
440.978	325.63
441.419	290.52
441.86	344.35
442.301	330.31
442.742	297.54
443.182	313.92
443.623	220.3
444.063	290.52
444.504	330.31
444.944	281.16
445.385	288.18
445.825	278.82
446.265	304.56
446.706	353.71
447.146	309.24
447.586	257.75
448.026	304.56
448.466	358.39
448.906	299.88
449.346	281.16
449.786	316.26
450.225	358.39
450.665	274.14
451.105	360.74
451.544	285.84
451.984	342.01
452.424	325.63
452.863	349.03
453.302	334.99
453.742	334.99
454.181	269.45
454.62	332.65
455.059	288.18
455.499	285.84
455.938	313.92
456.377	309.24
456.816	297.54
457.254	318.61
457.693	274.14
458.132	302.22
458.571	313.92
459.01	323.29
459.448	323.29
459.887	246.05
460.325	386.48
460.764	320.95
461.202	316.26
461.641	344.35
462.079	302.22
462.517	306.9
462.955	283.5
463.393	309.24
463.832	304.56
464.27	330.31
464.708	318.61
465.145	339.67
465.583	327.97
466.021	269.45
466.459	236.69
466.897	304.56
467.334	246.05
467.772	295.2
468.209	285.84
468.647	269.45
469.084	250.73
469.522	297.54
469.959	306.9
470.396	344.35
470.833	313.92
471.271	257.75
471.708	309.24
472.145	346.69
472.582	313.92
473.019	367.76
473.456	292.86
473.892	299.88
474.329	309.24
474.766	334.99
475.202	246.05
475.639	288.18
476.076	299.88
476.512	276.48
476.949	276.48
477.385	297.54
477.821	309.24
478.258	351.37
478.694	302.22
479.13	283.5
479.566	384.14
480.002	327.97
480.438	330.31
480.874	283.5
481.31	297.54
481.746	323.29
482.181	309.24
482.617	302.22
483.053	386.48
483.488	295.2
483.924	320.95
484.36	351.37
484.795	330.31
485.23	306.9
485.666	344.35
486.101	334.99
486.536	367.76
486.971	297.54
487.407	342.01
487.842	262.43
488.277	351.37
488.712	330.31
489.146	276.48
489.581	349.03
490.016	337.33
490.451	320.95
490.885	269.45
491.32	306.9
491.755	292.86
492.189	313.92
492.624	222.64
493.058	332.65
493.492	234.35
493.927	260.09
494.361	334.99
494.795	295.2
495.229	311.58
495.663	332.65
496.097	304.56
496.531	309.24
496.965	311.58
497.399	292.86
497.833	283.5
498.266	306.9
498.7	304.56
499.134	363.08
499.567	274.14
500.001	325.63
500.434	323.29
500.868	297.54
501.301	318.61
501.734	255.41
502.168	281.16
502.601	288.18
503.034	313.92
503.467	318.61
503.9	302.22
504.333	342.01
504.766	295.2
505.199	330.31
505.632	327.97
506.064	320.95
506.497	297.54
506.93	306.9
507.362	311.58
507.795	276.48
508.227	316.26
508.66	267.11
509.092	342.01
509.524	311.58
509.956	311.58
510.389	276.48
510.821	297.54
511.253	363.08
511.685	278.82
512.117	306.9
512.549	316.26
512.981	365.42
513.412	323.29
513.844	281.16
514.276	295.2
514.707	346.69
515.139	323.29
515.571	325.63
516.002	313.92
516.433	344.35
516.865	281.16
517.296	330.31
517.727	356.05
518.159	409.89
518.59	271.79
519.021	285.84
519.452	250.73
519.883	318.61
520.314	285.84
520.744	360.74
521.175	302.22
521.606	290.52
522.037	262.43
522.467	297.54
522.898	367.76
523.328	306.9
523.759	304.56
524.189	295.2
524.62	342.01
525.05	311.58
525.48	295.2
525.91	264.77
526.341	316.26
526.771	316.26
527.201	344.35
527.631	260.09
528.061	330.31
528.49	323.29
528.92	318.61
529.35	271.79
529.78	356.05
530.209	358.39
530.639	264.77
531.068	304.56
531.498	313.92
531.927	342.01
532.357	311.58
532.786	250.73
533.215	283.5
533.644	325.63
534.074	311.58
534.503	269.45
534.932	327.97
535.361	269.45
535.79	267.11
536.218	339.67
536.647	276.48
537.076	309.24
537.505	285.84
537.933	349.03
538.362	278.82
538.79	292.86
539.219	276.48
539.647	302.22
540.076	320.95
540.504	416.91
540.932	269.45
541.36	316.26
541.788	363.08
542.217	330.31
542.645	260.09
543.073	351.37
543.5	276.48
543.928	304.56
544.356	288.18
544.784	360.74
545.211	330.31
545.639	283.5
546.067	292.86
546.494	304.56
546.922	363.08
547.349	363.08
547.776	353.71
548.204	288.18
548.631	316.26
549.058	304.56
549.485	234.35
549.912	281.16
550.339	323.29
550.766	379.46
551.193	320.95
551.62	295.2
552.047	374.78
552.474	283.5
552.9	288.18
553.327	264.77
553.754	320.95
554.18	309.24
554.607	344.35
555.033	313.92
555.459	269.45
555.886	316.26
556.312	351.37
556.738	313.92
557.164	330.31
557.59	281.16
558.016	318.61
558.442	264.77
558.868	363.08
559.294	250.73
559.72	271.79
560.145	323.29
560.571	311.58
560.997	271.79
561.422	295.2
561.848	309.24
562.273	320.95
562.699	302.22
563.124	309.24
563.549	325.63
563.974	360.74
564.4	316.26
564.825	306.9
565.25	309.24
565.675	309.24
566.1	320.95
566.525	313.92
566.95	323.29
567.374	323.29
567.799	309.24
568.224	306.9
568.648	363.08
569.073	311.58
569.497	358.39
569.922	351.37
570.346	337.33
570.771	318.61
571.195	274.14
571.619	255.41
572.043	316.26
572.467	299.88
572.891	285.84
573.315	306.9
573.739	316.26
574.163	271.79
574.587	360.74
575.011	297.54
575.435	351.37
575.858	313.92
576.282	313.92
576.705	306.9
577.129	267.11
577.552	330.31
577.976	349.03
578.399	339.67
578.822	304.56
579.245	292.86
579.669	292.86
580.092	311.58
580.515	269.45
580.938	302.22
581.361	381.8
581.784	358.39
582.206	297.54
582.629	309.24
583.052	325.63
583.474	304.56
583.897	246.05
584.32	290.52
584.742	257.75
585.165	299.88
585.587	292.86
586.009	358.39
586.431	299.88
586.854	363.08
587.276	295.2
587.698	260.09
588.12	278.82
588.542	356.05
588.964	327.97
589.386	297.54
589.807	332.65
590.229	309.24
590.651	332.65
591.073	313.92
591.494	285.84
591.916	391.16
592.337	313.92
592.759	339.67
593.18	302.22
593.601	316.26
594.022	346.69
594.444	311.58
594.865	320.95
595.286	306.9
595.707	271.79
596.128	295.2
596.549	241.37
596.97	278.82
597.39	281.16
597.811	304.56
598.232	288.18
598.652	309.24
599.073	351.37
599.494	318.61
599.914	339.67
600.334	299.88
600.755	304.56
601.175	311.58
601.595	356.05
602.015	316.26
602.436	295.2
602.856	461.38
603.276	320.95
603.696	290.52
604.115	332.65
604.535	306.9
604.955	302.22
605.375	316.26
605.794	327.97
606.214	334.99
606.634	323.29
607.053	367.76
607.473	309.24
607.892	262.43
608.311	281.16
608.731	306.9
609.15	330.31
609.569	351.37
609.988	323.29
610.407	290.52
610.826	299.88
611.245	330.31
611.664	316.26
612.083	302.22
612.501	304.56
612.92	285.84
613.339	297.54
613.757	267.11
614.176	292.86
614.594	283.5
615.013	334.99
615.431	332.65
615.85	283.5
616.268	255.41
616.686	297.54
617.104	257.75
617.522	320.95
617.94	269.45
618.358	349.03
618.776	285.84
619.194	311.58
619.612	339.67
620.03	313.92
620.447	344.35
620.865	316.26
621.282	311.58
621.7	344.35
622.117	302.22
622.535	276.48
622.952	337.33
623.369	363.08
623.787	323.29
624.204	339.67
624.621	288.18
625.038	281.16
625.455	295.2
625.872	311.58
626.289	363.08
626.706	327.97
627.123	346.69
627.539	334.99
627.956	297.54
628.373	285.84
628.789	299.88
629.206	346.69
629.622	332.65
630.038	276.48
630.455	325.63
630.871	318.61
631.287	323.29
631.703	306.9
632.12	353.71
632.536	332.65
632.952	309.24
633.368	274.14
633.783	318.61
634.199	332.65
634.615	353.71
635.031	351.37
635.446	316.26
635.862	295.2
636.277	405.21
636.693	299.88
637.108	325.63
637.524	285.84
637.939	269.45
638.354	325.63
638.77	253.07
639.185	351.37
639.6	297.54
640.015	370.1
640.43	337.33
640.845	290.52
641.259	306.9
641.674	327.97
642.089	306.9
642.504	285.84
642.918	351.37
643.333	276.48
643.747	323.29
644.162	257.75
644.576	349.03
644.991	330.31
645.405	334.99
645.819	288.18
646.233	339.67
646.647	306.9
647.061	288.18
647.475	356.05
647.889	295.2
648.303	320.95
648.717	309.24
649.131	295.2
649.545	323.29
649.958	325.63
650.372	311.58
650.785	290.52
651.199	344.35
651.612	367.76
652.026	304.56
652.439	367.76
652.852	346.69
653.266	309.24
653.679	278.82
654.092	288.18
654.505	292.86
654.918	323.29
655.331	290.52
655.744	327.97
656.156	309.24
656.569	311.58
656.982	339.67
657.394	313.92
657.807	318.61
658.22	290.52
658.632	325.63
659.044	269.45
659.457	269.45
659.869	323.29
660.281	309.24
660.693	290.52
661.106	313.92
661.518	370.1
661.93	339.67
662.342	295.2
662.754	276.48
663.165	325.63
663.577	339.67
663.989	367.76
664.401	288.18
664.812	236.69
665.224	304.56
665.635	330.31
666.047	339.67
666.458	398.18
666.869	292.86
667.281	264.77
667.692	330.31
668.103	316.26
668.514	297.54
668.925	255.41
669.336	316.26
669.747	232.01
670.158	318.61
670.569	304.56
670.979	274.14
671.39	337.33
671.801	309.24
672.211	332.65
672.622	297.54
673.032	288.18
673.443	243.71
673.853	318.61
674.263	297.54
674.674	332.65
675.084	365.42
675.494	356.05
675.904	271.79
676.314	318.61
676.724	269.45
677.134	295.2
677.544	304.56
677.953	346.69
678.363	327.97
678.773	346.69
679.182	311.58
679.592	255.41
680.001	257.75
680.411	281.16
680.82	332.65
681.23	297.54
681.639	297.54
682.048	241.37
682.457	313.92
682.866	278.82
683.275	327.97
683.684	351.37
684.093	309.24
684.502	260.09
684.911	248.39
685.32	281.16
685.728	306.9
686.137	332.65
686.546	276.48
686.954	288.18
687.363	313.92
687.771	323.29
688.179	320.95
688.588	349.03
688.996	332.65
689.404	320.95
689.812	353.71
690.22	311.58
690.628	344.35
691.036	302.22
691.444	339.67
691.852	309.24
692.26	316.26
692.667	271.79
693.075	325.63
693.483	288.18
693.89	281.16
694.298	281.16
694.705	309.24
695.112	318.61
695.52	313.92
695.927	309.24
696.334	327.97
696.741	337.33
697.148	313.92
697.555	297.54
697.962	337.33
698.369	309.24
698.776	332.65
699.183	241.37
699.59	342.01
699.996	323.29
700.403	318.61
700.81	260.09
701.216	295.2
701.623	292.86
702.029	297.54
702.435	290.52
702.842	365.42
703.248	316.26
703.654	297.54
704.06	253.07
704.466	323.29
704.872	309.24
705.278	346.69
705.684	295.2
706.09	342.01
706.496	334.99
706.901	309.24
707.307	295.2
707.712	264.77
708.118	269.45
708.523	351.37
708.929	262.43
709.334	297.54
709.74	292.86
710.145	374.78
710.55	349.03
710.955	262.43
711.36	379.46
711.765	302.22
712.17	327.97
712.575	269.45
712.98	870.97
713.385	292.86
713.789	306.9
714.194	262.43
714.599	299.88
715.003	342.01
715.408	297.54
715.812	295.2
716.217	271.79
716.621	342.01
717.025	316.26
717.429	271.79
717.833	330.31
718.238	309.24
718.642	306.9
719.046	290.52
719.449	323.29
719.853	320.95
720.257	332.65
720.661	356.05
721.065	281.16
721.468	302.22
721.872	339.67
722.275	311.58
722.679	271.79
723.082	365.42
723.485	330.31
723.889	311.58
724.292	363.08
724.695	360.74
725.098	313.92
725.501	330.31
725.904	274.14
726.307	337.33
726.71	344.35
727.113	353.71
727.516	297.54
727.918	292.86
728.321	360.74
728.724	239.03
729.126	285.84
729.529	295.2
729.931	292.86
730.333	260.09
730.736	227.32
731.138	302.22
731.54	311.58
731.942	311.58
732.344	290.52
732.746	302.22
733.148	297.54
733.55	334.99
733.952	306.9
734.354	332.65
734.756	278.82
735.157	351.37
735.559	342.01
735.96	351.37
736.362	334.99
736.763	313.92
737.165	283.5
737.566	320.95
737.967	363.08
738.368	346.69
738.77	288.18
739.171	311.58
739.572	278.82
739.973	281.16
740.374	370.1
740.774	290.52
741.175	274.14
741.576	281.16
741.977	276.48
742.377	269.45
742.778	267.11
743.178	264.77
743.579	290.52
743.979	292.86
744.379	318.61
744.78	246.05
745.18	330.31
745.58	299.88
745.98	325.63
746.38	285.84
746.78	292.86
747.18	367.76
747.58	285.84
747.98	313.92
748.38	316.26
748.779	334.99
749.179	316.26
749.578	325.63
749.978	274.14
750.377	248.39
750.777	295.2
751.176	332.65
751.575	304.56
751.975	334.99
752.374	306.9
752.773	316.26
753.172	320.95
753.571	367.76
753.97	346.69
754.369	384.14
754.768	332.65
755.166	353.71
755.565	292.86
755.964	342.01
756.362	327.97
756.761	269.45
757.159	304.56
757.558	264.77
757.956	283.5
758.354	327.97
758.753	276.48
759.151	292.86
759.549	236.69
759.947	288.18
760.345	299.88
760.743	302.22
761.141	311.58
761.539	283.5
761.936	332.65
762.334	248.39
762.732	306.9
763.129	395.84
763.527	250.73
763.924	250.73
764.322	367.76
764.719	309.24
