Data from Al_FLMS009871__1005__16-22-54-417.txt Node

Date: Fri Mar 08 16:22:54 CST 2024
User: pe5414po
Spectrometer: FLMS00987
Trigger mode: 0
Integration Time (sec): 1.000000E-1
Scans to average: 1
Electric dark correction enabled: true
Nonlinearity correction enabled: false
Boxcar width: 0
XAxis mode: Wavelengths
Number of Pixels in Spectrum: 2048
>>>>>Begin Spectral Data<<<<<
188.938	-73.73
189.409	-73.73
189.879	-73.73
190.349	-111.18
190.819	-106.49
191.29	-143.94
191.76	-73.73
192.23	-71.39
192.7	-129.9
193.17	-33.94
193.64	-52.66
194.109	-8.19
194.579	-15.21
195.049	-31.6
195.519	22.24
195.988	50.32
196.458	29.26
196.927	83.09
197.397	125.22
197.866	148.62
198.336	101.81
198.805	108.83
199.274	132.24
199.744	167.35
200.213	165.01
200.682	197.78
201.151	237.56
201.62	207.14
202.089	225.86
202.558	176.71
203.027	296.08
203.495	256.29
203.964	291.4
204.433	338.21
204.902	282.03
205.37	317.14
205.839	265.65
206.307	282.03
206.776	305.44
207.244	342.89
207.712	235.22
208.181	307.78
208.649	282.03
209.117	335.87
209.585	317.14
210.053	310.12
210.521	253.95
210.989	244.59
211.457	230.54
211.925	361.61
212.393	282.03
212.861	324.16
213.328	267.99
213.796	246.93
214.264	260.97
214.731	249.27
215.199	256.29
215.666	232.88
216.133	331.19
216.601	225.86
217.068	303.1
217.535	260.97
218.003	282.03
218.47	246.93
218.937	202.46
219.404	270.33
219.871	253.95
220.338	244.59
220.805	298.42
221.271	242.25
221.738	277.35
222.205	230.54
222.671	253.95
223.138	207.14
223.605	235.22
224.071	228.2
224.538	275.01
225.004	272.67
225.47	235.22
225.937	188.41
226.403	186.07
226.869	218.84
227.335	277.35
227.801	314.8
228.267	253.95
228.733	291.4
229.199	265.65
229.665	317.14
230.131	321.82
230.597	333.53
231.062	282.03
231.528	289.06
231.994	286.72
232.459	293.74
232.925	195.43
233.39	267.99
233.856	267.99
234.321	265.65
234.786	331.19
235.252	207.14
235.717	284.38
236.182	275.01
236.647	270.33
237.112	228.2
237.577	221.18
238.042	293.74
238.507	256.29
238.972	305.44
239.436	279.69
239.901	260.97
240.366	284.38
240.83	270.33
241.295	260.97
241.76	352.25
242.224	272.67
242.688	321.82
243.153	263.31
243.617	244.59
244.081	260.97
244.545	267.99
245.01	260.97
245.474	230.54
245.938	291.4
246.402	244.59
246.866	251.61
247.33	272.67
247.793	317.14
248.257	221.18
248.721	291.4
249.185	263.31
249.648	277.35
250.112	324.16
250.575	279.69
251.039	319.48
251.502	282.03
251.965	289.06
252.429	335.87
252.892	286.72
253.355	277.35
253.818	235.22
254.281	249.27
254.744	277.35
255.207	289.06
255.67	312.46
256.133	258.63
256.596	242.25
257.059	275.01
257.522	319.48
257.984	317.14
258.447	284.38
258.909	263.31
259.372	345.23
259.834	403.74
260.297	239.9
260.759	307.78
261.221	258.63
261.684	249.27
262.146	282.03
262.608	317.14
263.07	305.44
263.532	256.29
263.994	270.33
264.456	263.31
264.918	272.67
265.38	214.16
265.842	270.33
266.303	310.12
266.765	319.48
267.227	328.85
267.688	258.63
268.15	300.76
268.611	244.59
269.072	272.67
269.534	291.4
269.995	275.01
270.456	230.54
270.918	319.48
271.379	286.72
271.84	310.12
272.301	251.61
272.762	303.1
273.223	253.95
273.684	265.65
274.144	282.03
274.605	267.99
275.066	312.46
275.527	300.76
275.987	260.97
276.448	310.12
276.908	317.14
277.369	232.88
277.829	249.27
278.289	253.95
278.75	282.03
279.21	305.44
279.67	310.12
280.13	284.38
280.59	267.99
281.05	300.76
281.51	270.33
281.97	342.89
282.43	242.25
282.89	289.06
283.35	272.67
283.809	286.72
284.269	303.1
284.729	352.25
285.188	310.12
285.648	225.86
286.107	303.1
286.567	265.65
287.026	307.78
287.485	300.76
287.944	305.44
288.404	326.5
288.863	326.5
289.322	319.48
289.781	328.85
290.24	275.01
290.699	263.31
291.158	282.03
291.616	333.53
292.075	272.67
292.534	260.97
292.992	291.4
293.451	314.8
293.91	303.1
294.368	296.08
294.827	314.8
295.285	305.44
295.743	275.01
296.202	363.95
296.66	303.1
297.118	279.69
297.576	284.38
298.034	317.14
298.492	291.4
298.95	298.42
299.408	314.8
299.866	242.25
300.324	333.53
300.781	375.66
301.239	282.03
301.697	260.97
302.154	282.03
302.612	335.87
303.069	296.08
303.527	277.35
303.984	314.8
304.441	286.72
304.899	300.76
305.356	251.61
305.813	335.87
306.27	321.82
306.727	289.06
307.184	324.16
307.641	305.44
308.098	314.8
308.555	307.78
309.012	286.72
309.468	359.27
309.925	279.69
310.382	275.01
310.838	249.27
311.295	307.78
311.751	321.82
312.208	319.48
312.664	270.33
313.12	312.46
313.577	286.72
314.033	275.01
314.489	338.21
314.945	352.25
315.401	321.82
315.857	359.27
316.313	349.91
316.769	338.21
317.225	387.36
317.681	335.87
318.136	349.91
318.592	284.38
319.048	253.95
319.503	335.87
319.959	319.48
320.414	307.78
320.869	279.69
321.325	356.93
321.78	291.4
322.235	314.8
322.691	319.48
323.146	282.03
323.601	286.72
324.056	296.08
324.511	256.29
324.966	356.93
325.421	291.4
325.875	237.56
326.33	232.88
326.785	312.46
327.24	300.76
327.694	249.27
328.149	331.19
328.603	291.4
329.058	401.4
329.512	258.63
329.966	340.55
330.421	289.06
330.875	300.76
331.329	338.21
331.783	307.78
332.237	293.74
332.691	319.48
333.145	347.57
333.599	310.12
334.053	267.99
334.507	340.55
334.96	333.53
335.414	314.8
335.868	310.12
336.321	289.06
336.775	321.82
337.228	349.91
337.682	312.46
338.135	253.95
338.588	291.4
339.042	256.29
339.495	307.78
339.948	312.46
340.401	300.76
340.854	314.8
341.307	312.46
341.76	263.31
342.213	321.82
342.666	310.12
343.119	279.69
343.571	340.55
344.024	324.16
344.477	275.01
344.929	305.44
345.382	272.67
345.834	284.38
346.287	331.19
346.739	307.78
347.191	303.1
347.644	277.35
348.096	312.46
348.548	246.93
349	338.21
349.452	270.33
349.904	340.55
350.356	321.82
350.808	284.38
351.26	216.5
351.711	310.12
352.163	317.14
352.615	312.46
353.066	298.42
353.518	356.93
353.969	352.25
354.421	305.44
354.872	289.06
355.324	239.9
355.775	282.03
356.226	279.69
356.677	307.78
357.128	253.95
357.579	298.42
358.03	324.16
358.481	319.48
358.932	305.44
359.383	258.63
359.834	291.4
360.285	256.29
360.735	296.08
361.186	312.46
361.637	293.74
362.087	333.53
362.538	265.65
362.988	373.32
363.438	270.33
363.889	289.06
364.339	387.36
364.789	317.14
365.239	356.93
365.689	305.44
366.139	328.85
366.589	293.74
367.039	319.48
367.489	263.31
367.939	303.1
368.389	347.57
368.839	265.65
369.288	272.67
369.738	319.48
370.187	307.78
370.637	338.21
371.086	321.82
371.536	356.93
371.985	385.02
372.434	282.03
372.884	286.72
373.333	331.19
373.782	305.44
374.231	230.54
374.68	272.67
375.129	279.69
375.578	270.33
376.027	298.42
376.475	256.29
376.924	333.53
377.373	310.12
377.822	319.48
378.27	328.85
378.719	312.46
379.167	303.1
379.616	394.38
380.064	277.35
380.512	291.4
380.961	303.1
381.409	232.88
381.857	319.48
382.305	368.63
382.753	239.9
383.201	340.55
383.649	286.72
384.097	338.21
384.545	349.91
384.992	303.1
385.44	331.19
385.888	335.87
386.335	314.8
386.783	303.1
387.231	251.61
387.678	321.82
388.125	239.9
388.573	340.55
389.02	256.29
389.467	347.57
389.914	298.42
390.362	331.19
390.809	237.56
391.256	303.1
391.703	300.76
392.15	310.12
392.596	275.01
393.043	303.1
393.49	289.06
393.937	305.44
394.383	263.31
394.83	279.69
395.276	349.91
395.723	249.27
396.169	363.95
396.616	338.21
397.062	291.4
397.508	279.69
397.954	289.06
398.401	286.72
398.847	291.4
399.293	296.08
399.739	296.08
400.185	366.29
400.631	340.55
401.076	296.08
401.522	284.38
401.968	321.82
402.414	347.57
402.859	275.01
403.305	326.5
403.75	307.78
404.196	312.46
404.641	300.76
405.086	335.87
405.532	296.08
405.977	328.85
406.422	312.46
406.867	361.61
407.312	291.4
407.757	326.5
408.202	324.16
408.647	279.69
409.092	293.74
409.537	291.4
409.982	310.12
410.426	298.42
410.871	319.48
411.316	303.1
411.76	272.67
412.205	286.72
412.649	263.31
413.093	342.89
413.538	345.23
413.982	328.85
414.426	307.78
414.87	356.93
415.314	270.33
415.758	310.12
416.202	352.25
416.646	319.48
417.09	338.21
417.534	370.97
417.978	319.48
418.421	317.14
418.865	342.89
419.309	286.72
419.752	307.78
420.196	305.44
420.639	291.4
421.083	340.55
421.526	373.32
421.969	305.44
422.412	275.01
422.856	342.89
423.299	349.91
423.742	347.57
424.185	246.93
424.628	335.87
425.071	298.42
425.513	298.42
425.956	305.44
426.399	335.87
426.842	319.48
427.284	328.85
427.727	310.12
428.169	279.69
428.612	300.76
429.054	314.8
429.497	300.76
429.939	347.57
430.381	249.27
430.823	267.99
431.265	349.91
431.707	267.99
432.149	282.03
432.591	293.74
433.033	298.42
433.475	331.19
433.917	317.14
434.359	314.8
434.8	279.69
435.242	267.99
435.684	340.55
436.125	282.03
436.567	345.23
437.008	389.7
437.449	354.59
437.891	363.95
438.332	300.76
438.773	333.53
439.214	307.78
439.656	310.12
440.097	310.12
440.538	277.35
440.978	284.38
441.419	310.12
441.86	296.08
442.301	356.93
442.742	293.74
443.182	293.74
443.623	239.9
444.063	349.91
444.504	324.16
444.944	321.82
445.385	260.97
445.825	279.69
446.265	331.19
446.706	260.97
447.146	382.68
447.586	319.48
448.026	361.61
448.466	265.65
448.906	272.67
449.346	328.85
449.786	314.8
450.225	359.27
450.665	284.38
451.105	300.76
451.544	310.12
451.984	284.38
452.424	331.19
452.863	317.14
453.302	333.53
453.742	356.93
454.181	335.87
454.62	317.14
455.059	277.35
455.499	312.46
455.938	338.21
456.377	310.12
456.816	310.12
457.254	190.75
457.693	284.38
458.132	361.61
458.571	272.67
459.01	314.8
459.448	270.33
459.887	321.82
460.325	321.82
460.764	277.35
461.202	256.29
461.641	347.57
462.079	284.38
462.517	307.78
462.955	354.59
463.393	387.36
463.832	263.31
464.27	293.74
464.708	249.27
465.145	305.44
465.583	317.14
466.021	314.8
466.459	303.1
466.897	340.55
467.334	246.93
467.772	324.16
468.209	321.82
468.647	317.14
469.084	275.01
469.522	321.82
469.959	279.69
470.396	331.19
470.833	328.85
471.271	331.19
471.708	317.14
472.145	352.25
472.582	326.5
473.019	328.85
473.456	373.32
473.892	314.8
474.329	279.69
474.766	277.35
475.202	342.89
475.639	272.67
476.076	345.23
476.512	296.08
476.949	326.5
477.385	335.87
477.821	319.48
478.258	324.16
478.694	354.59
479.13	272.67
479.566	338.21
480.002	366.29
480.438	331.19
480.874	324.16
481.31	286.72
481.746	296.08
482.181	296.08
482.617	317.14
483.053	340.55
483.488	303.1
483.924	335.87
484.36	303.1
484.795	347.57
485.23	382.68
485.666	275.01
486.101	272.67
486.536	289.06
486.971	300.76
487.407	296.08
487.842	303.1
488.277	291.4
488.712	356.93
489.146	333.53
489.581	298.42
490.016	321.82
490.451	305.44
490.885	277.35
491.32	260.97
491.755	366.29
492.189	349.91
492.624	317.14
493.058	335.87
493.492	291.4
493.927	310.12
494.361	275.01
494.795	319.48
495.229	347.57
495.663	291.4
496.097	375.66
496.531	340.55
496.965	277.35
497.399	296.08
497.833	347.57
498.266	239.9
498.7	382.68
499.134	392.04
499.567	340.55
500.001	328.85
500.434	256.29
500.868	324.16
501.301	221.18
501.734	298.42
502.168	319.48
502.601	326.5
503.034	284.38
503.467	289.06
503.9	286.72
504.333	282.03
504.766	328.85
505.199	265.65
505.632	310.12
506.064	331.19
506.497	352.25
506.93	333.53
507.362	321.82
507.795	338.21
508.227	293.74
508.66	279.69
509.092	326.5
509.524	317.14
509.956	286.72
510.389	335.87
510.821	305.44
511.253	277.35
511.685	324.16
512.117	331.19
512.549	333.53
512.981	335.87
513.412	265.65
513.844	293.74
514.276	289.06
514.707	279.69
515.139	300.76
515.571	275.01
516.002	251.61
516.433	324.16
516.865	338.21
517.296	361.61
517.727	298.42
518.159	305.44
518.59	363.95
519.021	333.53
519.452	321.82
519.883	328.85
520.314	321.82
520.744	338.21
521.175	218.84
521.606	289.06
522.037	338.21
522.467	303.1
522.898	244.59
523.328	335.87
523.759	347.57
524.189	314.8
524.62	331.19
525.05	267.99
525.48	347.57
525.91	333.53
526.341	284.38
526.771	368.63
527.201	284.38
527.631	296.08
528.061	265.65
528.49	349.91
528.92	317.14
529.35	270.33
529.78	289.06
530.209	275.01
530.639	368.63
531.068	296.08
531.498	272.67
531.927	310.12
532.357	326.5
532.786	317.14
533.215	312.46
533.644	352.25
534.074	277.35
534.503	352.25
534.932	361.61
535.361	251.61
535.79	289.06
536.218	321.82
536.647	317.14
537.076	345.23
537.505	328.85
537.933	291.4
538.362	303.1
538.79	361.61
539.219	314.8
539.647	286.72
540.076	333.53
540.504	331.19
540.932	293.74
541.36	340.55
541.788	359.27
542.217	260.97
542.645	303.1
543.073	368.63
543.5	340.55
543.928	373.32
544.356	366.29
544.784	321.82
545.211	303.1
545.639	289.06
546.067	366.29
546.494	291.4
546.922	293.74
547.349	373.32
547.776	333.53
548.204	286.72
548.631	324.16
549.058	260.97
549.485	282.03
549.912	317.14
550.339	317.14
550.766	354.59
551.193	300.76
551.62	361.61
552.047	319.48
552.474	225.86
552.9	314.8
553.327	286.72
553.754	312.46
554.18	328.85
554.607	296.08
555.033	373.32
555.459	246.93
555.886	340.55
556.312	314.8
556.738	335.87
557.164	352.25
557.59	260.97
558.016	303.1
558.442	303.1
558.868	333.53
559.294	331.19
559.72	310.12
560.145	373.32
560.571	335.87
560.997	275.01
561.422	335.87
561.848	300.76
562.273	319.48
562.699	305.44
563.124	284.38
563.549	249.27
563.974	300.76
564.4	352.25
564.825	312.46
565.25	298.42
565.675	265.65
566.1	370.97
566.525	270.33
566.95	312.46
567.374	314.8
567.799	345.23
568.224	284.38
568.648	338.21
569.073	293.74
569.497	349.91
569.922	342.89
570.346	246.93
570.771	291.4
571.195	326.5
571.619	340.55
572.043	349.91
572.467	349.91
572.891	324.16
573.315	380.34
573.739	317.14
574.163	298.42
574.587	392.04
575.011	373.32
575.435	279.69
575.858	272.67
576.282	300.76
576.705	300.76
577.129	244.59
577.552	338.21
577.976	370.97
578.399	277.35
578.822	338.21
579.245	277.35
579.669	319.48
580.092	312.46
580.515	321.82
580.938	328.85
581.361	321.82
581.784	370.97
582.206	373.32
582.629	335.87
583.052	352.25
583.474	331.19
583.897	378
584.32	347.57
584.742	282.03
585.165	335.87
585.587	326.5
586.009	317.14
586.431	272.67
586.854	263.31
587.276	267.99
587.698	314.8
588.12	338.21
588.542	328.85
588.964	342.89
589.386	359.27
589.807	298.42
590.229	310.12
590.651	366.29
591.073	298.42
591.494	382.68
591.916	333.53
592.337	300.76
592.759	314.8
593.18	277.35
593.601	277.35
594.022	340.55
594.444	230.54
594.865	307.78
595.286	363.95
595.707	345.23
596.128	317.14
596.549	303.1
596.97	333.53
597.39	291.4
597.811	361.61
598.232	328.85
598.652	340.55
599.073	289.06
599.494	342.89
599.914	340.55
600.334	319.48
600.755	335.87
601.175	239.9
601.595	354.59
602.015	312.46
602.436	300.76
602.856	445.87
603.276	298.42
603.696	300.76
604.115	293.74
604.535	286.72
604.955	303.1
605.375	310.12
605.794	342.89
606.214	321.82
606.634	354.59
607.053	298.42
607.473	352.25
607.892	396.72
608.311	293.74
608.731	296.08
609.15	300.76
609.569	307.78
609.988	293.74
610.407	335.87
610.826	298.42
611.245	286.72
611.664	296.08
612.083	275.01
612.501	314.8
612.92	338.21
613.339	289.06
613.757	359.27
614.176	340.55
614.594	312.46
615.013	328.85
615.431	291.4
615.85	289.06
616.268	284.38
616.686	298.42
617.104	305.44
617.522	352.25
617.94	310.12
618.358	284.38
618.776	296.08
619.194	307.78
619.612	317.14
620.03	338.21
620.447	298.42
620.865	321.82
621.282	324.16
621.7	291.4
622.117	305.44
622.535	305.44
622.952	317.14
623.369	331.19
623.787	277.35
624.204	303.1
624.621	312.46
625.038	314.8
625.455	284.38
625.872	354.59
626.289	359.27
626.706	335.87
627.123	289.06
627.539	270.33
627.956	263.31
628.373	382.68
628.789	249.27
629.206	342.89
629.622	328.85
630.038	277.35
630.455	277.35
630.871	298.42
631.287	279.69
631.703	300.76
632.12	335.87
632.536	307.78
632.952	385.02
633.368	370.97
633.783	253.95
634.199	319.48
634.615	310.12
635.031	314.8
635.446	345.23
635.862	314.8
636.277	282.03
636.693	277.35
637.108	298.42
637.524	356.93
637.939	321.82
638.354	286.72
638.77	307.78
639.185	300.76
639.6	282.03
640.015	307.78
640.43	321.82
640.845	267.99
641.259	328.85
641.674	338.21
642.089	263.31
642.504	321.82
642.918	289.06
643.333	385.02
643.747	296.08
644.162	286.72
644.576	345.23
644.991	296.08
645.405	305.44
645.819	293.74
646.233	293.74
646.647	356.93
647.061	345.23
647.475	303.1
647.889	279.69
648.303	359.27
648.717	267.99
649.131	253.95
649.545	340.55
649.958	361.61
650.372	354.59
650.785	303.1
651.199	296.08
651.612	293.74
652.026	289.06
652.439	366.29
652.852	270.33
653.266	284.38
653.679	270.33
654.092	403.74
654.505	338.21
654.918	305.44
655.331	279.69
655.744	286.72
656.156	286.72
656.569	338.21
656.982	279.69
657.394	314.8
657.807	326.5
658.22	335.87
658.632	328.85
659.044	263.31
659.457	317.14
659.869	338.21
660.281	310.12
660.693	277.35
661.106	324.16
661.518	352.25
661.93	296.08
662.342	305.44
662.754	373.32
663.165	335.87
663.577	293.74
663.989	359.27
664.401	279.69
664.812	305.44
665.224	385.02
665.635	307.78
666.047	340.55
666.458	300.76
666.869	279.69
667.281	356.93
667.692	314.8
668.103	289.06
668.514	291.4
668.925	310.12
669.336	347.57
669.747	312.46
670.158	324.16
670.569	286.72
670.979	300.76
671.39	366.29
671.801	246.93
672.211	237.56
672.622	242.25
673.032	314.8
673.443	328.85
673.853	317.14
674.263	349.91
674.674	319.48
675.084	307.78
675.494	375.66
675.904	300.76
676.314	331.19
676.724	296.08
677.134	328.85
677.544	375.66
677.953	296.08
678.363	326.5
678.773	275.01
679.182	333.53
679.592	324.16
680.001	331.19
680.411	333.53
680.82	345.23
681.23	331.19
681.639	298.42
682.048	289.06
682.457	293.74
682.866	300.76
683.275	345.23
683.684	291.4
684.093	366.29
684.502	312.46
684.911	347.57
685.32	277.35
685.728	296.08
686.137	272.67
686.546	312.46
686.954	319.48
687.363	298.42
687.771	359.27
688.179	375.66
688.588	265.65
688.996	328.85
689.404	319.48
689.812	340.55
690.22	356.93
690.628	312.46
691.036	291.4
691.444	356.93
691.852	326.5
692.26	319.48
692.667	303.1
693.075	310.12
693.483	305.44
693.89	328.85
694.298	296.08
694.705	335.87
695.112	272.67
695.52	270.33
695.927	324.16
696.334	326.5
696.741	282.03
697.148	244.59
697.555	305.44
697.962	321.82
698.369	310.12
698.776	282.03
699.183	338.21
699.59	293.74
699.996	256.29
700.403	319.48
700.81	277.35
701.216	338.21
701.623	284.38
702.029	307.78
702.435	286.72
702.842	303.1
703.248	296.08
703.654	293.74
704.06	338.21
704.466	293.74
704.872	312.46
705.278	317.14
705.684	326.5
706.09	352.25
706.496	275.01
706.901	303.1
707.307	347.57
707.712	258.63
708.118	303.1
708.523	359.27
708.929	349.91
709.334	310.12
709.74	307.78
710.145	312.46
710.55	321.82
710.955	349.91
711.36	286.72
711.765	291.4
712.17	349.91
712.575	289.06
712.98	846.1
713.385	298.42
713.789	366.29
714.194	363.95
714.599	296.08
715.003	345.23
715.408	277.35
715.812	267.99
716.217	296.08
716.621	335.87
717.025	282.03
717.429	312.46
717.833	363.95
718.238	303.1
718.642	342.89
719.046	310.12
719.449	275.01
719.853	333.53
720.257	270.33
720.661	265.65
721.065	272.67
721.468	303.1
721.872	340.55
722.275	286.72
722.679	289.06
723.082	342.89
723.485	321.82
723.889	335.87
724.292	303.1
724.695	300.76
725.098	349.91
725.501	321.82
725.904	342.89
726.307	345.23
726.71	282.03
727.113	293.74
727.516	289.06
727.918	363.95
728.321	328.85
728.724	338.21
729.126	345.23
729.529	366.29
729.931	277.35
730.333	370.97
730.736	253.95
731.138	296.08
731.54	342.89
731.942	307.78
732.344	345.23
732.746	300.76
733.148	279.69
733.55	246.93
733.952	333.53
734.354	282.03
734.756	286.72
735.157	305.44
735.559	284.38
735.96	317.14
736.362	291.4
736.763	289.06
737.165	331.19
737.566	345.23
737.967	356.93
738.368	291.4
738.77	296.08
739.171	312.46
739.572	310.12
739.973	385.02
740.374	310.12
740.774	289.06
741.175	303.1
741.576	342.89
741.977	310.12
742.377	370.97
742.778	342.89
743.178	345.23
743.579	270.33
743.979	310.12
744.379	275.01
744.78	331.19
745.18	342.89
745.58	296.08
745.98	305.44
746.38	345.23
746.78	289.06
747.18	303.1
747.58	331.19
747.98	293.74
748.38	310.12
748.779	314.8
749.179	265.65
749.578	307.78
749.978	312.46
750.377	249.27
750.777	251.61
751.176	354.59
751.575	310.12
751.975	317.14
752.374	340.55
752.773	286.72
753.172	305.44
753.571	324.16
753.97	333.53
754.369	289.06
754.768	298.42
755.166	321.82
755.565	293.74
755.964	279.69
756.362	305.44
756.761	380.34
757.159	321.82
757.558	401.4
757.956	319.48
758.354	251.61
758.753	289.06
759.151	260.97
759.549	356.93
759.947	258.63
760.345	277.35
760.743	253.95
761.141	277.35
761.539	305.44
761.936	331.19
762.334	345.23
762.732	291.4
763.129	237.56
763.527	359.27
763.924	317.14
764.322	286.72
764.719	291.4
765.117	317.14
