Data from Al_FLMS009871__1015__16-22-55-417.txt Node

Date: Fri Mar 08 16:22:55 CST 2024
User: pe5414po
Spectrometer: FLMS00987
Trigger mode: 0
Integration Time (sec): 1.000000E-1
Scans to average: 1
Electric dark correction enabled: true
Nonlinearity correction enabled: false
Boxcar width: 0
XAxis mode: Wavelengths
Number of Pixels in Spectrum: 2048
>>>>>Begin Spectral Data<<<<<
188.938	-50.18
189.409	-50.18
189.879	-50.18
190.349	-52.52
190.819	-141.46
191.29	-101.67
191.76	-125.07
192.23	-111.03
192.7	-99.33
193.17	-68.9
193.64	27.06
194.109	-8.05
194.579	-29.11
195.049	-5.71
195.519	-3.36
195.988	38.77
196.458	41.11
196.927	85.58
197.397	106.64
197.866	141.75
198.336	111.32
198.805	153.45
199.274	116
199.744	167.49
200.213	223.67
200.682	240.05
201.151	237.71
201.62	242.39
202.089	296.22
202.558	240.05
203.027	291.54
203.495	275.16
203.964	343.03
204.433	300.91
204.902	254.09
205.37	307.93
205.839	326.65
206.307	352.4
206.776	275.16
207.244	242.39
207.712	347.72
208.181	394.53
208.649	277.5
209.117	200.26
209.585	254.09
210.053	331.33
210.521	307.93
210.989	249.41
211.457	233.03
211.925	265.8
212.393	312.61
212.861	296.22
213.328	286.86
213.796	305.59
214.264	359.42
214.731	303.25
215.199	319.63
215.666	338.35
216.133	305.59
216.601	270.48
217.068	261.12
217.535	228.35
218.003	270.48
218.47	291.54
218.937	244.73
219.404	272.82
219.871	331.33
220.338	268.14
220.805	270.48
221.271	279.84
221.738	242.39
222.205	289.2
222.671	305.59
223.138	226.01
223.605	286.86
224.071	202.6
224.538	305.59
225.004	258.78
225.47	307.93
225.937	226.01
226.403	268.14
226.869	230.69
227.335	286.86
227.801	314.95
228.267	181.54
228.733	258.78
229.199	254.09
229.665	277.5
230.131	244.73
230.597	233.03
231.062	249.41
231.528	289.2
231.994	254.09
232.459	284.52
232.925	300.91
233.39	296.22
233.856	207.28
234.321	303.25
234.786	326.65
235.252	256.43
235.717	291.54
236.182	261.12
236.647	293.88
237.112	272.82
237.577	336.01
238.042	331.33
238.507	305.59
238.972	275.16
239.436	317.29
239.901	333.67
240.366	270.48
240.83	286.86
241.295	340.69
241.76	268.14
242.224	305.59
242.688	268.14
243.153	305.59
243.617	279.84
244.081	338.35
244.545	338.35
245.01	328.99
245.474	272.82
245.938	263.46
246.402	350.06
246.866	265.8
247.33	340.69
247.793	265.8
248.257	321.97
248.721	326.65
249.185	261.12
249.648	298.56
250.112	303.25
250.575	270.48
251.039	226.01
251.502	296.22
251.965	291.54
252.429	293.88
252.892	258.78
253.355	312.61
253.818	254.09
254.281	298.56
254.744	223.67
255.207	324.31
255.67	312.61
256.133	321.97
256.596	263.46
257.059	291.54
257.522	272.82
257.984	265.8
258.447	312.61
258.909	298.56
259.372	279.84
259.834	289.2
260.297	336.01
260.759	331.33
261.221	296.22
261.684	333.67
262.146	305.59
262.608	319.63
263.07	275.16
263.532	235.37
263.994	235.37
264.456	328.99
264.918	242.39
265.38	251.75
265.842	279.84
266.303	354.74
266.765	307.93
267.227	300.91
267.688	310.27
268.15	300.91
268.611	310.27
269.072	296.22
269.534	298.56
269.995	289.2
270.456	303.25
270.918	307.93
271.379	300.91
271.84	328.99
272.301	314.95
272.762	289.2
273.223	286.86
273.684	336.01
274.144	340.69
274.605	291.54
275.066	286.86
275.527	314.95
275.987	314.95
276.448	256.43
276.908	303.25
277.369	268.14
277.829	324.31
278.289	371.12
278.75	293.88
279.21	270.48
279.67	268.14
280.13	286.86
280.59	314.95
281.05	275.16
281.51	286.86
281.97	338.35
282.43	310.27
282.89	343.03
283.35	326.65
283.809	226.01
284.269	345.38
284.729	345.38
285.188	319.63
285.648	314.95
286.107	326.65
286.567	314.95
287.026	230.69
287.485	293.88
287.944	352.4
288.404	324.31
288.863	268.14
289.322	226.01
289.781	275.16
290.24	324.31
290.699	282.18
291.158	296.22
291.616	237.71
292.075	279.84
292.534	328.99
292.992	321.97
293.451	305.59
293.91	265.8
294.368	366.44
294.827	321.97
295.285	359.42
295.743	328.99
296.202	265.8
296.66	261.12
297.118	284.52
297.576	251.75
298.034	293.88
298.492	247.07
298.95	240.05
299.408	307.93
299.866	352.4
300.324	265.8
300.781	303.25
301.239	305.59
301.697	333.67
302.154	314.95
302.612	307.93
303.069	321.97
303.527	272.82
303.984	310.27
304.441	291.54
304.899	230.69
305.356	340.69
305.813	256.43
306.27	275.16
306.727	317.29
307.184	300.91
307.641	317.29
308.098	307.93
308.555	321.97
309.012	263.46
309.468	251.75
309.925	324.31
310.382	258.78
310.838	317.29
311.295	312.61
311.751	314.95
312.208	361.76
312.664	263.46
313.12	277.5
313.577	251.75
314.033	352.4
314.489	272.82
314.945	233.03
315.401	272.82
315.857	357.08
316.313	343.03
316.769	373.46
317.225	338.35
317.681	298.56
318.136	312.61
318.592	291.54
319.048	268.14
319.503	350.06
319.959	305.59
320.414	326.65
320.869	247.07
321.325	296.22
321.78	284.52
322.235	282.18
322.691	310.27
323.146	265.8
323.601	357.08
324.056	307.93
324.511	307.93
324.966	331.33
325.421	298.56
325.875	303.25
326.33	310.27
326.785	296.22
327.24	303.25
327.694	291.54
328.149	364.1
328.603	321.97
329.058	291.54
329.512	359.42
329.966	279.84
330.421	338.35
330.875	303.25
331.329	340.69
331.783	345.38
332.237	263.46
332.691	298.56
333.145	228.35
333.599	293.88
334.053	314.95
334.507	307.93
334.96	357.08
335.414	303.25
335.868	336.01
336.321	338.35
336.775	319.63
337.228	303.25
337.682	321.97
338.135	328.99
338.588	312.61
339.042	275.16
339.495	345.38
339.948	298.56
340.401	321.97
340.854	331.33
341.307	289.2
341.76	277.5
342.213	394.53
342.666	326.65
343.119	289.2
343.571	338.35
344.024	272.82
344.477	317.29
344.929	291.54
345.382	399.21
345.834	340.69
346.287	340.69
346.739	272.82
347.191	298.56
347.644	310.27
348.096	284.52
348.548	359.42
349	284.52
349.452	296.22
349.904	279.84
350.356	275.16
350.808	345.38
351.26	350.06
351.711	324.31
352.163	300.91
352.615	293.88
353.066	347.72
353.518	340.69
353.969	333.67
354.421	293.88
354.872	303.25
355.324	242.39
355.775	354.74
356.226	300.91
356.677	261.12
357.128	279.84
357.579	310.27
358.03	375.8
358.481	345.38
358.932	310.27
359.383	277.5
359.834	317.29
360.285	303.25
360.735	291.54
361.186	336.01
361.637	296.22
362.087	277.5
362.538	303.25
362.988	336.01
363.438	319.63
363.889	314.95
364.339	254.09
364.789	303.25
365.239	375.8
365.689	336.01
366.139	319.63
366.589	275.16
367.039	293.88
367.489	350.06
367.939	333.67
368.389	275.16
368.839	350.06
369.288	317.29
369.738	284.52
370.187	300.91
370.637	307.93
371.086	312.61
371.536	258.78
371.985	326.65
372.434	289.2
372.884	357.08
373.333	261.12
373.782	333.67
374.231	314.95
374.68	394.53
375.129	307.93
375.578	324.31
376.027	328.99
376.475	300.91
376.924	298.56
377.373	291.54
377.822	343.03
378.27	331.33
378.719	331.33
379.167	328.99
379.616	359.42
380.064	310.27
380.512	284.52
380.961	359.42
381.409	326.65
381.857	321.97
382.305	345.38
382.753	392.19
383.201	396.87
383.649	366.44
384.097	364.1
384.545	371.12
384.992	319.63
385.44	350.06
385.888	312.61
386.335	249.41
386.783	319.63
387.231	284.52
387.678	364.1
388.125	336.01
388.573	310.27
389.02	289.2
389.467	303.25
389.914	338.35
390.362	319.63
390.809	350.06
391.256	352.4
391.703	303.25
392.15	279.84
392.596	256.43
393.043	331.33
393.49	314.95
393.937	321.97
394.383	314.95
394.83	312.61
395.276	298.56
395.723	305.59
396.169	364.1
396.616	347.72
397.062	256.43
397.508	347.72
397.954	268.14
398.401	319.63
398.847	340.69
399.293	336.01
399.739	321.97
400.185	305.59
400.631	256.43
401.076	326.65
401.522	366.44
401.968	279.84
402.414	343.03
402.859	312.61
403.305	338.35
403.75	359.42
404.196	371.12
404.641	268.14
405.086	279.84
405.532	331.33
405.977	336.01
406.422	324.31
406.867	380.48
407.312	380.48
407.757	326.65
408.202	310.27
408.647	347.72
409.092	328.99
409.537	347.72
409.982	389.85
410.426	336.01
410.871	336.01
411.316	326.65
411.76	307.93
412.205	347.72
412.649	263.46
413.093	371.12
413.538	343.03
413.982	352.4
414.426	307.93
414.87	298.56
415.314	305.59
415.758	385.16
416.202	338.35
416.646	314.95
417.09	310.27
417.534	357.08
417.978	345.38
418.421	261.12
418.865	343.03
419.309	312.61
419.752	345.38
420.196	314.95
420.639	314.95
421.083	310.27
421.526	331.33
421.969	371.12
422.412	314.95
422.856	300.91
423.299	345.38
423.742	326.65
424.185	310.27
424.628	291.54
425.071	396.87
425.513	296.22
425.956	305.59
426.399	359.42
426.842	331.33
427.284	303.25
427.727	282.18
428.169	343.03
428.612	289.2
429.054	373.46
429.497	331.33
429.939	303.25
430.381	324.31
430.823	249.41
431.265	333.67
431.707	284.52
432.149	364.1
432.591	347.72
433.033	310.27
433.475	385.16
433.917	247.07
434.359	343.03
434.8	317.29
435.242	279.84
435.684	336.01
436.125	303.25
436.567	296.22
437.008	333.67
437.449	291.54
437.891	296.22
438.332	326.65
438.773	361.76
439.214	305.59
439.656	279.84
440.097	291.54
440.538	277.5
440.978	380.48
441.419	324.31
441.86	328.99
442.301	317.29
442.742	357.08
443.182	314.95
443.623	310.27
444.063	345.38
444.504	324.31
444.944	364.1
445.385	216.65
445.825	317.29
446.265	319.63
446.706	357.08
447.146	291.54
447.586	293.88
448.026	394.53
448.466	345.38
448.906	359.42
449.346	368.78
449.786	279.84
450.225	303.25
450.665	272.82
451.105	354.74
451.544	317.29
451.984	347.72
452.424	307.93
452.863	307.93
453.302	371.12
453.742	361.76
454.181	350.06
454.62	314.95
455.059	324.31
455.499	319.63
455.938	286.86
456.377	303.25
456.816	324.31
457.254	347.72
457.693	350.06
458.132	389.85
458.571	321.97
459.01	291.54
459.448	265.8
459.887	312.61
460.325	347.72
460.764	265.8
461.202	354.74
461.641	303.25
462.079	340.69
462.517	303.25
462.955	364.1
463.393	319.63
463.832	307.93
464.27	359.42
464.708	340.69
465.145	375.8
465.583	321.97
466.021	296.22
466.459	307.93
466.897	354.74
467.334	275.16
467.772	293.88
468.209	272.82
468.647	357.08
469.084	352.4
469.522	293.88
469.959	350.06
470.396	378.14
470.833	364.1
471.271	300.91
471.708	256.43
472.145	298.56
472.582	326.65
473.019	347.72
473.456	326.65
473.892	326.65
474.329	328.99
474.766	352.4
475.202	265.8
475.639	296.22
476.076	314.95
476.512	279.84
476.949	314.95
477.385	298.56
477.821	305.59
478.258	357.08
478.694	277.5
479.13	300.91
479.566	328.99
480.002	296.22
480.438	298.56
480.874	282.18
481.31	331.33
481.746	359.42
482.181	352.4
482.617	291.54
483.053	350.06
483.488	387.5
483.924	303.25
484.36	310.27
484.795	326.65
485.23	317.29
485.666	368.78
486.101	307.93
486.536	359.42
486.971	310.27
487.407	328.99
487.842	326.65
488.277	338.35
488.712	317.29
489.146	340.69
489.581	359.42
490.016	305.59
490.451	378.14
490.885	268.14
491.32	298.56
491.755	382.82
492.189	366.44
492.624	359.42
493.058	305.59
493.492	338.35
493.927	319.63
494.361	298.56
494.795	354.74
495.229	347.72
495.663	350.06
496.097	289.2
496.531	357.08
496.965	333.67
497.399	326.65
497.833	368.78
498.266	268.14
498.7	317.29
499.134	328.99
499.567	338.35
500.001	312.61
500.434	230.69
500.868	357.08
501.301	298.56
501.734	354.74
502.168	307.93
502.601	310.27
503.034	340.69
503.467	291.54
503.9	347.72
504.333	343.03
504.766	331.33
505.199	354.74
505.632	331.33
506.064	340.69
506.497	436.66
506.93	284.52
507.362	338.35
507.795	312.61
508.227	321.97
508.66	328.99
509.092	354.74
509.524	307.93
509.956	317.29
510.389	293.88
510.821	345.38
511.253	403.89
511.685	371.12
512.117	296.22
512.549	336.01
512.981	333.67
513.412	359.42
513.844	314.95
514.276	291.54
514.707	352.4
515.139	324.31
515.571	331.33
516.002	319.63
516.433	340.69
516.865	263.46
517.296	268.14
517.727	350.06
518.159	359.42
518.59	317.29
519.021	354.74
519.452	343.03
519.883	298.56
520.314	312.61
520.744	324.31
521.175	361.76
521.606	347.72
522.037	343.03
522.467	321.97
522.898	343.03
523.328	319.63
523.759	401.55
524.189	361.76
524.62	321.97
525.05	300.91
525.48	326.65
525.91	305.59
526.341	300.91
526.771	336.01
527.201	247.07
527.631	310.27
528.061	310.27
528.49	373.46
528.92	286.86
529.35	331.33
529.78	298.56
530.209	293.88
530.639	310.27
531.068	244.73
531.498	284.52
531.927	314.95
532.357	354.74
532.786	298.56
533.215	336.01
533.644	331.33
534.074	328.99
534.503	314.95
534.932	357.08
535.361	314.95
535.79	368.78
536.218	368.78
536.647	352.4
537.076	350.06
537.505	305.59
537.933	298.56
538.362	307.93
538.79	366.44
539.219	321.97
539.647	324.31
540.076	310.27
540.504	258.78
540.932	312.61
541.36	307.93
541.788	352.4
542.217	298.56
542.645	291.54
543.073	382.82
543.5	277.5
543.928	254.09
544.356	366.44
544.784	289.2
545.211	305.59
545.639	310.27
546.067	284.52
546.494	350.06
546.922	314.95
547.349	300.91
547.776	336.01
548.204	420.27
548.631	364.1
549.058	338.35
549.485	350.06
549.912	305.59
550.339	230.69
550.766	333.67
551.193	321.97
551.62	307.93
552.047	324.31
552.474	272.82
552.9	310.27
553.327	368.78
553.754	333.67
554.18	338.35
554.607	336.01
555.033	265.8
555.459	298.56
555.886	343.03
556.312	326.65
556.738	291.54
557.164	307.93
557.59	319.63
558.016	305.59
558.442	305.59
558.868	345.38
559.294	357.08
559.72	307.93
560.145	352.4
560.571	352.4
560.997	328.99
561.422	350.06
561.848	319.63
562.273	268.14
562.699	286.86
563.124	326.65
563.549	368.78
563.974	307.93
564.4	352.4
564.825	296.22
565.25	347.72
565.675	345.38
566.1	352.4
566.525	319.63
566.95	324.31
567.374	317.29
567.799	366.44
568.224	352.4
568.648	261.12
569.073	347.72
569.497	282.18
569.922	336.01
570.346	296.22
570.771	352.4
571.195	307.93
571.619	298.56
572.043	380.48
572.467	333.67
572.891	286.86
573.315	310.27
573.739	319.63
574.163	277.5
574.587	324.31
575.011	300.91
575.435	321.97
575.858	406.23
576.282	385.16
576.705	319.63
577.129	303.25
577.552	321.97
577.976	312.61
578.399	331.33
578.822	298.56
579.245	340.69
579.669	354.74
580.092	298.56
580.515	331.33
580.938	357.08
581.361	265.8
581.784	254.09
582.206	272.82
582.629	345.38
583.052	307.93
583.474	321.97
583.897	326.65
584.32	275.16
584.742	324.31
585.165	305.59
585.587	312.61
586.009	357.08
586.431	331.33
586.854	263.46
587.276	366.44
587.698	303.25
588.12	307.93
588.542	368.78
588.964	317.29
589.386	340.69
589.807	293.88
590.229	343.03
590.651	326.65
591.073	357.08
591.494	396.87
591.916	326.65
592.337	305.59
592.759	319.63
593.18	331.33
593.601	317.29
594.022	296.22
594.444	282.18
594.865	321.97
595.286	382.82
595.707	296.22
596.128	310.27
596.549	256.43
596.97	312.61
597.39	408.57
597.811	338.35
598.232	392.19
598.652	336.01
599.073	321.97
599.494	319.63
599.914	373.46
600.334	338.35
600.755	296.22
601.175	312.61
601.595	345.38
602.015	347.72
602.436	326.65
602.856	478.79
603.276	336.01
603.696	300.91
604.115	298.56
604.535	347.72
604.955	345.38
605.375	282.18
605.794	364.1
606.214	361.76
606.634	382.82
607.053	282.18
607.473	382.82
607.892	310.27
608.311	403.89
608.731	314.95
609.15	275.16
609.569	328.99
609.988	298.56
610.407	364.1
610.826	352.4
611.245	317.29
611.664	289.2
612.083	343.03
612.501	286.86
612.92	361.76
613.339	333.67
613.757	314.95
614.176	286.86
614.594	343.03
615.013	324.31
615.431	310.27
615.85	296.22
616.268	324.31
616.686	291.54
617.104	296.22
617.522	368.78
617.94	375.8
618.358	338.35
618.776	275.16
619.194	319.63
619.612	326.65
620.03	270.48
620.447	321.97
620.865	378.14
621.282	321.97
621.7	319.63
622.117	338.35
622.535	321.97
622.952	303.25
623.369	359.42
623.787	340.69
624.204	321.97
624.621	326.65
625.038	331.33
625.455	321.97
625.872	350.06
626.289	340.69
626.706	296.22
627.123	340.69
627.539	298.56
627.956	350.06
628.373	350.06
628.789	314.95
629.206	336.01
629.622	366.44
630.038	373.46
630.455	364.1
630.871	272.82
631.287	357.08
631.703	284.52
632.12	291.54
632.536	338.35
632.952	321.97
633.368	275.16
633.783	279.84
634.199	340.69
634.615	359.42
635.031	270.48
635.446	284.52
635.862	305.59
636.277	396.87
636.693	364.1
637.108	324.31
637.524	368.78
637.939	338.35
638.354	307.93
638.77	347.72
639.185	431.98
639.6	331.33
640.015	293.88
640.43	324.31
640.845	382.82
641.259	378.14
641.674	275.16
642.089	359.42
642.504	338.35
642.918	333.67
643.333	340.69
643.747	303.25
644.162	293.88
644.576	406.23
644.991	286.86
645.405	345.38
645.819	298.56
646.233	303.25
646.647	247.07
647.061	361.76
647.475	375.8
647.889	254.09
648.303	284.52
648.717	392.19
649.131	328.99
649.545	326.65
649.958	307.93
650.372	321.97
650.785	296.22
651.199	317.29
651.612	226.01
652.026	333.67
652.439	284.52
652.852	357.08
653.266	249.41
653.679	303.25
654.092	277.5
654.505	364.1
654.918	345.38
655.331	343.03
655.744	410.91
656.156	300.91
656.569	319.63
656.982	300.91
657.394	314.95
657.807	380.48
658.22	368.78
658.632	270.48
659.044	378.14
659.457	328.99
659.869	310.27
660.281	321.97
660.693	319.63
661.106	331.33
661.518	307.93
661.93	331.33
662.342	359.42
662.754	256.43
663.165	326.65
663.577	347.72
663.989	354.74
664.401	359.42
664.812	350.06
665.224	361.76
665.635	373.46
666.047	324.31
666.458	307.93
666.869	420.27
667.281	338.35
667.692	310.27
668.103	389.85
668.514	319.63
668.925	371.12
669.336	331.33
669.747	331.33
670.158	357.08
670.569	326.65
670.979	366.44
671.39	340.69
671.801	354.74
672.211	326.65
672.622	328.99
673.032	354.74
673.443	279.84
673.853	357.08
674.263	338.35
674.674	336.01
675.084	371.12
675.494	282.18
675.904	293.88
676.314	364.1
676.724	296.22
677.134	328.99
677.544	321.97
677.953	279.84
678.363	296.22
678.773	375.8
679.182	261.12
679.592	326.65
680.001	328.99
680.411	328.99
680.82	340.69
681.23	324.31
681.639	328.99
682.048	321.97
682.457	293.88
682.866	293.88
683.275	296.22
683.684	331.33
684.093	251.75
684.502	312.61
684.911	345.38
685.32	357.08
685.728	307.93
686.137	328.99
686.546	307.93
686.954	282.18
687.363	307.93
687.771	272.82
688.179	247.07
688.588	310.27
688.996	303.25
689.404	296.22
689.812	289.2
690.22	336.01
690.628	265.8
691.036	321.97
691.444	324.31
691.852	347.72
692.26	371.12
692.667	321.97
693.075	317.29
693.483	286.86
693.89	261.12
694.298	249.41
694.705	317.29
695.112	296.22
695.52	333.67
695.927	417.93
696.334	371.12
696.741	361.76
697.148	282.18
697.555	324.31
697.962	328.99
698.369	286.86
698.776	286.86
699.183	289.2
699.59	277.5
699.996	298.56
700.403	328.99
700.81	254.09
701.216	296.22
701.623	333.67
702.029	324.31
702.435	303.25
702.842	326.65
703.248	310.27
703.654	254.09
704.06	319.63
704.466	350.06
704.872	347.72
705.278	312.61
705.684	350.06
706.09	373.46
706.496	293.88
706.901	345.38
707.307	317.29
707.712	275.16
708.118	324.31
708.523	284.52
708.929	338.35
709.334	380.48
709.74	326.65
710.145	263.46
710.55	317.29
710.955	336.01
711.36	277.5
711.765	282.18
712.17	336.01
712.575	366.44
712.98	820.5
713.385	272.82
713.789	321.97
714.194	347.72
714.599	247.07
715.003	286.86
715.408	312.61
715.812	336.01
716.217	378.14
716.621	331.33
717.025	328.99
717.429	307.93
717.833	310.27
718.238	321.97
718.642	298.56
719.046	359.42
719.449	347.72
719.853	359.42
720.257	223.67
720.661	305.59
721.065	303.25
721.468	364.1
721.872	298.56
722.275	296.22
722.679	347.72
723.082	345.38
723.485	319.63
723.889	286.86
724.292	291.54
724.695	261.12
725.098	352.4
725.501	331.33
725.904	305.59
726.307	336.01
726.71	319.63
727.113	300.91
727.516	340.69
727.918	310.27
728.321	319.63
728.724	317.29
729.126	345.38
729.529	289.2
729.931	350.06
730.333	312.61
730.736	272.82
731.138	352.4
731.54	352.4
731.942	265.8
732.344	336.01
732.746	336.01
733.148	314.95
733.55	286.86
733.952	350.06
734.354	319.63
734.756	328.99
735.157	338.35
735.559	347.72
735.96	336.01
736.362	279.84
736.763	284.52
737.165	378.14
737.566	373.46
737.967	371.12
738.368	352.4
738.77	326.65
739.171	317.29
739.572	305.59
739.973	324.31
740.374	333.67
740.774	394.53
741.175	357.08
741.576	338.35
741.977	296.22
742.377	300.91
742.778	298.56
743.178	289.2
743.579	261.12
743.979	366.44
744.379	368.78
744.78	324.31
745.18	343.03
745.58	328.99
745.98	392.19
746.38	284.52
746.78	333.67
747.18	296.22
747.58	406.23
747.98	347.72
748.38	256.43
748.779	347.72
749.179	300.91
749.578	326.65
749.978	317.29
750.377	354.74
750.777	317.29
751.176	331.33
751.575	277.5
751.975	375.8
752.374	296.22
752.773	314.95
753.172	336.01
753.571	366.44
753.97	307.93
754.369	319.63
754.768	347.72
755.166	361.76
755.565	298.56
755.964	300.91
756.362	340.69
756.761	336.01
757.159	324.31
757.558	338.35
757.956	350.06
758.354	345.38
758.753	314.95
759.151	277.5
759.549	321.97
759.947	354.74
760.345	347.72
760.743	352.4
761.141	314.95
761.539	331.33
761.936	314.95
762.334	326.65
762.732	263.46
763.129	361.76
763.527	331.33
763.924	328.99
764.322	277.5
