Data from Al_FLMS009871__1010__16-22-54-919.txt Node

Date: Fri Mar 08 16:22:54 CST 2024
User: pe5414po
Spectrometer: FLMS00987
Trigger mode: 0
Integration Time (sec): 1.000000E-1
Scans to average: 1
Electric dark correction enabled: true
Nonlinearity correction enabled: false
Boxcar width: 0
XAxis mode: Wavelengths
Number of Pixels in Spectrum: 2048
>>>>>Begin Spectral Data<<<<<
188.938	-100.2
189.409	-100.2
189.879	-100.2
190.349	-114.25
190.819	-130.63
191.29	-72.12
191.76	-165.74
192.23	-118.93
192.7	-97.86
193.17	-41.69
193.64	30.87
194.109	-25.31
194.579	-6.58
195.049	26.18
195.519	35.55
195.988	-29.99
196.458	49.59
196.927	68.31
197.397	131.51
197.866	103.42
198.336	112.78
198.805	204.07
199.274	119.81
199.744	168.96
200.213	183
200.682	229.81
201.151	211.09
201.62	253.22
202.089	267.26
202.558	199.38
203.027	278.96
203.495	232.15
203.964	271.94
204.433	232.15
204.902	307.05
205.37	285.98
205.839	248.54
206.307	314.07
206.776	276.62
207.244	257.9
207.712	232.15
208.181	264.92
208.649	227.47
209.117	335.14
209.585	307.05
210.053	309.39
210.521	236.83
210.989	293.01
211.457	295.35
211.925	276.62
212.393	309.39
212.861	269.6
213.328	288.32
213.796	302.37
214.264	208.75
214.731	281.3
215.199	234.49
215.666	304.71
216.133	293.01
216.601	236.83
217.068	318.75
217.535	225.13
218.003	227.47
218.47	260.24
218.937	232.15
219.404	281.3
219.871	267.26
220.338	264.92
220.805	192.36
221.271	276.62
221.738	276.62
222.205	213.43
222.671	321.09
223.138	264.92
223.605	208.75
224.071	264.92
224.538	248.54
225.004	269.6
225.47	264.92
225.937	241.51
226.403	190.02
226.869	255.56
227.335	229.81
227.801	255.56
228.267	271.94
228.733	278.96
229.199	269.6
229.665	274.28
230.131	264.92
230.597	257.9
231.062	285.98
231.528	318.75
231.994	269.6
232.459	264.92
232.925	241.51
233.39	222.79
233.856	229.81
234.321	309.39
234.786	288.32
235.252	323.43
235.717	253.22
236.182	321.09
236.647	229.81
237.112	328.11
237.577	227.47
238.042	309.39
238.507	227.47
238.972	283.64
239.436	276.62
239.901	255.56
240.366	267.26
240.83	339.82
241.295	222.79
241.76	264.92
242.224	264.92
242.688	241.51
243.153	213.43
243.617	243.85
244.081	241.51
244.545	278.96
245.01	290.67
245.474	271.94
245.938	300.03
246.402	276.62
246.866	159.6
247.33	243.85
247.793	206.41
248.257	295.35
248.721	293.01
249.185	234.49
249.648	248.54
250.112	281.3
250.575	260.24
251.039	316.41
251.502	229.81
251.965	260.24
252.429	271.94
252.892	281.3
253.355	314.07
253.818	283.64
254.281	309.39
254.744	234.49
255.207	253.22
255.67	250.88
256.133	278.96
256.596	323.43
257.059	225.13
257.522	309.39
257.984	295.35
258.447	229.81
258.909	302.37
259.372	290.67
259.834	271.94
260.297	321.09
260.759	297.69
261.221	264.92
261.684	248.54
262.146	290.67
262.608	232.15
263.07	267.26
263.532	311.73
263.994	274.28
264.456	309.39
264.918	248.54
265.38	264.92
265.842	250.88
266.303	307.05
266.765	351.52
267.227	269.6
267.688	269.6
268.15	262.58
268.611	295.35
269.072	302.37
269.534	267.26
269.995	276.62
270.456	300.03
270.918	307.05
271.379	311.73
271.84	288.32
272.301	204.07
272.762	351.52
273.223	281.3
273.684	339.82
274.144	267.26
274.605	285.98
275.066	269.6
275.527	253.22
275.987	307.05
276.448	274.28
276.908	260.24
277.369	281.3
277.829	365.56
278.289	276.62
278.75	349.18
279.21	267.26
279.67	332.79
280.13	271.94
280.59	274.28
281.05	283.64
281.51	307.05
281.97	307.05
282.43	318.75
282.89	269.6
283.35	288.32
283.809	295.35
284.269	243.85
284.729	285.98
285.188	285.98
285.648	257.9
286.107	246.2
286.567	314.07
287.026	241.51
287.485	316.41
287.944	255.56
288.404	321.09
288.863	274.28
289.322	248.54
289.781	290.67
290.24	218.11
290.699	297.69
291.158	344.5
291.616	353.86
292.075	285.98
292.534	311.73
292.992	328.11
293.451	271.94
293.91	267.26
294.368	307.05
294.827	274.28
295.285	290.67
295.743	314.07
296.202	297.69
296.66	225.13
297.118	293.01
297.576	323.43
298.034	278.96
298.492	332.79
298.95	276.62
299.408	250.88
299.866	274.28
300.324	309.39
300.781	264.92
301.239	325.77
301.697	276.62
302.154	227.47
302.612	323.43
303.069	269.6
303.527	267.26
303.984	269.6
304.441	316.41
304.899	311.73
305.356	248.54
305.813	274.28
306.27	295.35
306.727	271.94
307.184	335.14
307.641	321.09
308.098	353.86
308.555	278.96
309.012	253.22
309.468	225.13
309.925	316.41
310.382	285.98
310.838	248.54
311.295	276.62
311.751	314.07
312.208	346.84
312.664	321.09
313.12	274.28
313.577	344.5
314.033	274.28
314.489	318.75
314.945	297.69
315.401	264.92
315.857	304.71
316.313	335.14
316.769	342.16
317.225	342.16
317.681	260.24
318.136	260.24
318.592	318.75
319.048	311.73
319.503	307.05
319.959	281.3
320.414	257.9
320.869	323.43
321.325	293.01
321.78	281.3
322.235	360.88
322.691	297.69
323.146	325.77
323.601	250.88
324.056	262.58
324.511	349.18
324.966	346.84
325.421	290.67
325.875	314.07
326.33	271.94
326.785	381.95
327.24	318.75
327.694	318.75
328.149	330.45
328.603	267.26
329.058	257.9
329.512	281.3
329.966	234.49
330.421	260.24
330.875	321.09
331.329	302.37
331.783	229.81
332.237	281.3
332.691	304.71
333.145	297.69
333.599	311.73
334.053	335.14
334.507	220.45
334.96	316.41
335.414	356.2
335.868	213.43
336.321	243.85
336.775	222.79
337.228	351.52
337.682	356.2
338.135	285.98
338.588	370.24
339.042	314.07
339.495	274.28
339.948	276.62
340.401	311.73
340.854	302.37
341.307	255.56
341.76	302.37
342.213	246.2
342.666	260.24
343.119	321.09
343.571	255.56
344.024	339.82
344.477	311.73
344.929	379.61
345.382	316.41
345.834	302.37
346.287	307.05
346.739	307.05
347.191	283.64
347.644	356.2
348.096	386.63
348.548	253.22
349	295.35
349.452	260.24
349.904	328.11
350.356	325.77
350.808	300.03
351.26	325.77
351.711	328.11
352.163	253.22
352.615	323.43
353.066	290.67
353.518	309.39
353.969	314.07
354.421	290.67
354.872	297.69
355.324	332.79
355.775	309.39
356.226	293.01
356.677	346.84
357.128	281.3
357.579	316.41
358.03	304.71
358.481	367.9
358.932	323.43
359.383	276.62
359.834	262.58
360.285	264.92
360.735	363.22
361.186	353.86
361.637	297.69
362.087	309.39
362.538	339.82
362.988	328.11
363.438	337.48
363.889	356.2
364.339	253.22
364.789	353.86
365.239	337.48
365.689	309.39
366.139	295.35
366.589	304.71
367.039	300.03
367.489	314.07
367.939	314.07
368.389	255.56
368.839	293.01
369.288	346.84
369.738	293.01
370.187	325.77
370.637	386.63
371.086	278.96
371.536	295.35
371.985	307.05
372.434	351.52
372.884	325.77
373.333	290.67
373.782	302.37
374.231	281.3
374.68	288.32
375.129	253.22
375.578	290.67
376.027	311.73
376.475	351.52
376.924	281.3
377.373	281.3
377.822	262.58
378.27	302.37
378.719	335.14
379.167	295.35
379.616	318.75
380.064	342.16
380.512	311.73
380.961	323.43
381.409	293.01
381.857	323.43
382.305	311.73
382.753	321.09
383.201	260.24
383.649	307.05
384.097	307.05
384.545	316.41
384.992	293.01
385.44	328.11
385.888	285.98
386.335	314.07
386.783	281.3
387.231	339.82
387.678	304.71
388.125	274.28
388.573	288.32
389.02	295.35
389.467	218.11
389.914	255.56
390.362	344.5
390.809	285.98
391.256	288.32
391.703	297.69
392.15	307.05
392.596	290.67
393.043	274.28
393.49	314.07
393.937	285.98
394.383	234.49
394.83	323.43
395.276	325.77
395.723	283.64
396.169	297.69
396.616	290.67
397.062	307.05
397.508	309.39
397.954	358.54
398.401	398.33
398.847	290.67
399.293	346.84
399.739	248.54
400.185	293.01
400.631	297.69
401.076	342.16
401.522	300.03
401.968	255.56
402.414	353.86
402.859	323.43
403.305	330.45
403.75	332.79
404.196	349.18
404.641	309.39
405.086	293.01
405.532	302.37
405.977	358.54
406.422	344.5
406.867	379.61
407.312	250.88
407.757	274.28
408.202	293.01
408.647	356.2
409.092	302.37
409.537	271.94
409.982	349.18
410.426	325.77
410.871	384.29
411.316	311.73
411.76	323.43
412.205	349.18
412.649	342.16
413.093	281.3
413.538	349.18
413.982	288.32
414.426	321.09
414.87	204.07
415.314	243.85
415.758	311.73
416.202	351.52
416.646	372.58
417.09	304.71
417.534	276.62
417.978	325.77
418.421	363.22
418.865	318.75
419.309	349.18
419.752	321.09
420.196	314.07
420.639	328.11
421.083	243.85
421.526	283.64
421.969	311.73
422.412	344.5
422.856	276.62
423.299	356.2
423.742	283.64
424.185	330.45
424.628	323.43
425.071	297.69
425.513	346.84
425.956	283.64
426.399	260.24
426.842	288.32
427.284	290.67
427.727	328.11
428.169	321.09
428.612	351.52
429.054	314.07
429.497	267.26
429.939	285.98
430.381	311.73
430.823	302.37
431.265	353.86
431.707	330.45
432.149	325.77
432.591	288.32
433.033	283.64
433.475	276.62
433.917	344.5
434.359	314.07
434.8	314.07
435.242	321.09
435.684	325.77
436.125	337.48
436.567	307.05
437.008	293.01
437.449	213.43
437.891	285.98
438.332	276.62
438.773	342.16
439.214	278.96
439.656	290.67
440.097	344.5
440.538	307.05
440.978	293.01
441.419	262.58
441.86	314.07
442.301	318.75
442.742	318.75
443.182	330.45
443.623	328.11
444.063	381.95
444.504	300.03
444.944	285.98
445.385	321.09
445.825	323.43
446.265	342.16
446.706	332.79
447.146	288.32
447.586	311.73
448.026	297.69
448.466	283.64
448.906	311.73
449.346	285.98
449.786	349.18
450.225	318.75
450.665	302.37
451.105	307.05
451.544	330.45
451.984	311.73
452.424	374.92
452.863	316.41
453.302	309.39
453.742	325.77
454.181	321.09
454.62	332.79
455.059	314.07
455.499	276.62
455.938	384.29
456.377	335.14
456.816	302.37
457.254	260.24
457.693	255.56
458.132	379.61
458.571	290.67
459.01	349.18
459.448	243.85
459.887	227.47
460.325	297.69
460.764	314.07
461.202	302.37
461.641	328.11
462.079	325.77
462.517	285.98
462.955	358.54
463.393	269.6
463.832	351.52
464.27	332.79
464.708	311.73
465.145	344.5
465.583	360.88
466.021	321.09
466.459	269.6
466.897	297.69
467.334	342.16
467.772	278.96
468.209	297.69
468.647	309.39
469.084	323.43
469.522	311.73
469.959	332.79
470.396	285.98
470.833	328.11
471.271	400.67
471.708	274.28
472.145	288.32
472.582	302.37
473.019	281.3
473.456	290.67
473.892	335.14
474.329	304.71
474.766	321.09
475.202	300.03
475.639	365.56
476.076	309.39
476.512	377.27
476.949	307.05
477.385	365.56
477.821	346.84
478.258	239.17
478.694	339.82
479.13	295.35
479.566	285.98
480.002	337.48
480.438	274.28
480.874	302.37
481.31	250.88
481.746	316.41
482.181	332.79
482.617	321.09
483.053	316.41
483.488	295.35
483.924	257.9
484.36	283.64
484.795	278.96
485.23	295.35
485.666	321.09
486.101	339.82
486.536	325.77
486.971	309.39
487.407	339.82
487.842	283.64
488.277	349.18
488.712	257.9
489.146	262.58
489.581	264.92
490.016	363.22
490.451	288.32
490.885	353.86
491.32	304.71
491.755	316.41
492.189	379.61
492.624	318.75
493.058	309.39
493.492	316.41
493.927	276.62
494.361	349.18
494.795	337.48
495.229	309.39
495.663	332.79
496.097	358.54
496.531	377.27
496.965	318.75
497.399	295.35
497.833	283.64
498.266	325.77
498.7	302.37
499.134	300.03
499.567	302.37
500.001	363.22
500.434	276.62
500.868	339.82
501.301	309.39
501.734	274.28
502.168	314.07
502.601	288.32
503.034	283.64
503.467	314.07
503.9	349.18
504.333	307.05
504.766	295.35
505.199	363.22
505.632	330.45
506.064	264.92
506.497	285.98
506.93	363.22
507.362	290.67
507.795	381.95
508.227	307.05
508.66	246.2
509.092	257.9
509.524	285.98
509.956	360.88
510.389	281.3
510.821	297.69
511.253	297.69
511.685	335.14
512.117	297.69
512.549	290.67
512.981	309.39
513.412	323.43
513.844	267.26
514.276	346.84
514.707	332.79
515.139	314.07
515.571	297.69
516.002	264.92
516.433	360.88
516.865	283.64
517.296	302.37
517.727	337.48
518.159	302.37
518.59	349.18
519.021	302.37
519.452	307.05
519.883	239.17
520.314	330.45
520.744	274.28
521.175	316.41
521.606	337.48
522.037	241.51
522.467	260.24
522.898	339.82
523.328	332.79
523.759	328.11
524.189	346.84
524.62	318.75
525.05	278.96
525.48	363.22
525.91	290.67
526.341	323.43
526.771	337.48
527.201	295.35
527.631	225.13
528.061	262.58
528.49	339.82
528.92	323.43
529.35	316.41
529.78	328.11
530.209	220.45
530.639	330.45
531.068	293.01
531.498	323.43
531.927	300.03
532.357	321.09
532.786	311.73
533.215	269.6
533.644	358.54
534.074	276.62
534.503	344.5
534.932	391.31
535.361	271.94
535.79	330.45
536.218	288.32
536.647	304.71
537.076	304.71
537.505	290.67
537.933	297.69
538.362	276.62
538.79	269.6
539.219	367.9
539.647	337.48
540.076	285.98
540.504	367.9
540.932	337.48
541.36	358.54
541.788	300.03
542.217	307.05
542.645	269.6
543.073	318.75
543.5	335.14
543.928	290.67
544.356	295.35
544.784	351.52
545.211	304.71
545.639	300.03
546.067	314.07
546.494	353.86
546.922	297.69
547.349	311.73
547.776	300.03
548.204	335.14
548.631	276.62
549.058	323.43
549.485	293.01
549.912	300.03
550.339	318.75
550.766	269.6
551.193	367.9
551.62	344.5
552.047	304.71
552.474	318.75
552.9	300.03
553.327	307.05
553.754	295.35
554.18	321.09
554.607	323.43
555.033	314.07
555.459	300.03
555.886	264.92
556.312	335.14
556.738	269.6
557.164	269.6
557.59	318.75
558.016	363.22
558.442	314.07
558.868	314.07
559.294	314.07
559.72	304.71
560.145	304.71
560.571	311.73
560.997	278.96
561.422	283.64
561.848	330.45
562.273	325.77
562.699	330.45
563.124	295.35
563.549	358.54
563.974	227.47
564.4	290.67
564.825	349.18
565.25	372.58
565.675	302.37
566.1	278.96
566.525	314.07
566.95	381.95
567.374	300.03
567.799	349.18
568.224	295.35
568.648	367.9
569.073	328.11
569.497	253.22
569.922	344.5
570.346	311.73
570.771	335.14
571.195	337.48
571.619	309.39
572.043	243.85
572.467	344.5
572.891	323.43
573.315	281.3
573.739	285.98
574.163	337.48
574.587	257.9
575.011	293.01
575.435	323.43
575.858	293.01
576.282	314.07
576.705	335.14
577.129	335.14
577.552	293.01
577.976	236.83
578.399	321.09
578.822	332.79
579.245	351.52
579.669	302.37
580.092	325.77
580.515	278.96
580.938	349.18
581.361	344.5
581.784	344.5
582.206	342.16
582.629	328.11
583.052	311.73
583.474	295.35
583.897	295.35
584.32	288.32
584.742	332.79
585.165	353.86
585.587	410.03
586.009	339.82
586.431	285.98
586.854	260.24
587.276	295.35
587.698	276.62
588.12	316.41
588.542	372.58
588.964	281.3
589.386	321.09
589.807	293.01
590.229	262.58
590.651	337.48
591.073	318.75
591.494	325.77
591.916	278.96
592.337	295.35
592.759	337.48
593.18	295.35
593.601	360.88
594.022	337.48
594.444	311.73
594.865	328.11
595.286	363.22
595.707	311.73
596.128	271.94
596.549	316.41
596.97	346.84
597.39	374.92
597.811	302.37
598.232	323.43
598.652	342.16
599.073	342.16
599.494	337.48
599.914	330.45
600.334	293.01
600.755	316.41
601.175	288.32
601.595	314.07
602.015	325.77
602.436	293.01
602.856	459.18
603.276	309.39
603.696	307.05
604.115	285.98
604.535	316.41
604.955	309.39
605.375	318.75
605.794	328.11
606.214	283.64
606.634	281.3
607.053	314.07
607.473	351.52
607.892	342.16
608.311	353.86
608.731	276.62
609.15	325.77
609.569	213.43
609.988	269.6
610.407	239.17
610.826	363.22
611.245	337.48
611.664	276.62
612.083	285.98
612.501	297.69
612.92	285.98
613.339	388.97
613.757	325.77
614.176	344.5
614.594	295.35
615.013	307.05
615.431	311.73
615.85	337.48
616.268	351.52
616.686	288.32
617.104	314.07
617.522	367.9
617.94	290.67
618.358	293.01
618.776	262.58
619.194	274.28
619.612	321.09
620.03	346.84
620.447	269.6
620.865	356.2
621.282	349.18
621.7	363.22
622.117	318.75
622.535	300.03
622.952	253.22
623.369	302.37
623.787	300.03
624.204	356.2
624.621	360.88
625.038	314.07
625.455	339.82
625.872	267.26
626.289	285.98
626.706	307.05
627.123	250.88
627.539	344.5
627.956	321.09
628.373	330.45
628.789	262.58
629.206	365.56
629.622	257.9
630.038	311.73
630.455	330.45
630.871	318.75
631.287	356.2
631.703	386.63
632.12	316.41
632.536	321.09
632.952	253.22
633.368	271.94
633.783	363.22
634.199	323.43
634.615	321.09
635.031	262.58
635.446	290.67
635.862	332.79
636.277	367.9
636.693	302.37
637.108	304.71
637.524	360.88
637.939	297.69
638.354	274.28
638.77	335.14
639.185	339.82
639.6	367.9
640.015	360.88
640.43	311.73
640.845	328.11
641.259	260.24
641.674	302.37
642.089	367.9
642.504	297.69
642.918	276.62
643.333	304.71
643.747	283.64
644.162	363.22
644.576	295.35
644.991	278.96
645.405	293.01
645.819	302.37
646.233	300.03
646.647	307.05
647.061	314.07
647.475	335.14
647.889	302.37
648.303	314.07
648.717	290.67
649.131	302.37
649.545	346.84
649.958	302.37
650.372	311.73
650.785	262.58
651.199	283.64
651.612	300.03
652.026	288.32
652.439	278.96
652.852	285.98
653.266	349.18
653.679	328.11
654.092	304.71
654.505	314.07
654.918	260.24
655.331	288.32
655.744	285.98
656.156	325.77
656.569	269.6
656.982	342.16
657.394	328.11
657.807	278.96
658.22	318.75
658.632	248.54
659.044	321.09
659.457	346.84
659.869	318.75
660.281	328.11
660.693	377.27
661.106	344.5
661.518	314.07
661.93	342.16
662.342	285.98
662.754	325.77
663.165	300.03
663.577	307.05
663.989	325.77
664.401	246.2
664.812	253.22
665.224	309.39
665.635	243.85
666.047	318.75
666.458	325.77
666.869	225.13
667.281	342.16
667.692	267.26
668.103	304.71
668.514	300.03
668.925	257.9
669.336	283.64
669.747	264.92
670.158	278.96
670.569	295.35
670.979	353.86
671.39	321.09
671.801	330.45
672.211	351.52
672.622	293.01
673.032	271.94
673.443	302.37
673.853	316.41
674.263	307.05
674.674	330.45
675.084	300.03
675.494	325.77
675.904	300.03
676.314	360.88
676.724	293.01
677.134	276.62
677.544	332.79
677.953	374.92
678.363	372.58
678.773	405.35
679.182	349.18
679.592	269.6
680.001	342.16
680.411	314.07
680.82	363.22
681.23	274.28
681.639	309.39
682.048	311.73
682.457	325.77
682.866	323.43
683.275	363.22
683.684	281.3
684.093	297.69
684.502	309.39
684.911	330.45
685.32	304.71
685.728	370.24
686.137	267.26
686.546	337.48
686.954	339.82
687.363	302.37
687.771	344.5
688.179	339.82
688.588	300.03
688.996	260.24
689.404	325.77
689.812	300.03
690.22	278.96
690.628	211.09
691.036	295.35
691.444	276.62
691.852	342.16
692.26	332.79
692.667	297.69
693.075	264.92
693.483	278.96
693.89	246.2
694.298	321.09
694.705	314.07
695.112	344.5
695.52	295.35
695.927	288.32
696.334	335.14
696.741	307.05
697.148	365.56
697.555	302.37
697.962	243.85
698.369	295.35
698.776	300.03
699.183	253.22
699.59	274.28
699.996	276.62
700.403	339.82
700.81	262.58
701.216	309.39
701.623	321.09
702.029	344.5
702.435	358.54
702.842	295.35
703.248	300.03
703.654	302.37
704.06	295.35
704.466	307.05
704.872	321.09
705.278	337.48
705.684	339.82
706.09	288.32
706.496	332.79
706.901	344.5
707.307	295.35
707.712	293.01
708.118	318.75
708.523	353.86
708.929	323.43
709.334	349.18
709.74	367.9
710.145	295.35
710.55	337.48
710.955	241.51
711.36	255.56
711.765	250.88
712.17	363.22
712.575	318.75
712.98	814.95
713.385	344.5
713.789	271.94
714.194	314.07
714.599	314.07
715.003	351.52
715.408	332.79
715.812	370.24
716.217	283.64
716.621	307.05
717.025	307.05
717.429	349.18
717.833	269.6
718.238	311.73
718.642	314.07
719.046	243.85
719.449	283.64
719.853	229.81
720.257	325.77
720.661	316.41
721.065	328.11
721.468	321.09
721.872	232.15
722.275	337.48
722.679	318.75
723.082	314.07
723.485	330.45
723.889	314.07
724.292	290.67
724.695	281.3
725.098	288.32
725.501	339.82
725.904	330.45
726.307	281.3
726.71	281.3
727.113	332.79
727.516	278.96
727.918	288.32
728.321	290.67
728.724	290.67
729.126	260.24
729.529	295.35
729.931	304.71
730.333	314.07
730.736	290.67
731.138	281.3
731.54	358.54
731.942	283.64
732.344	311.73
732.746	370.24
733.148	285.98
733.55	293.01
733.952	264.92
734.354	330.45
734.756	386.63
735.157	288.32
735.559	311.73
735.96	344.5
736.362	316.41
736.763	325.77
737.165	314.07
737.566	269.6
737.967	337.48
738.368	295.35
738.77	285.98
739.171	255.56
739.572	239.17
739.973	323.43
740.374	363.22
740.774	377.27
741.175	293.01
741.576	297.69
741.977	325.77
742.377	309.39
742.778	307.05
743.178	278.96
743.579	271.94
743.979	314.07
744.379	365.56
744.78	295.35
745.18	281.3
745.58	332.79
745.98	293.01
746.38	309.39
746.78	316.41
747.18	328.11
747.58	330.45
747.98	293.01
748.38	328.11
748.779	328.11
749.179	257.9
749.578	353.86
749.978	325.77
750.377	328.11
750.777	342.16
751.176	264.92
751.575	300.03
751.975	318.75
752.374	290.67
752.773	349.18
753.172	307.05
753.571	379.61
753.97	276.62
754.369	295.35
754.768	278.96
755.166	281.3
755.565	367.9
755.964	321.09
756.362	339.82
756.761	323.43
757.159	290.67
757.558	349.18
757.956	288.32
758.354	260.24
758.753	297.69
759.151	295.35
759.549	255.56
759.947	267.26
760.345	318.75
760.743	257.9
761.141	414.71
761.539	283.64
761.936	250.88
762.334	257.9
762.732	297.69
763.129	311.73
763.527	283.64
763.924	351.52
764.322	325.77
764.719	314.07
