Data from Al_FLMS009871__1012__16-22-55-119.txt Node

Date: Fri Mar 08 16:22:55 CST 2024
User: pe5414po
Spectrometer: FLMS00987
Trigger mode: 0
Integration Time (sec): 1.000000E-1
Scans to average: 1
Electric dark correction enabled: true
Nonlinearity correction enabled: false
Boxcar width: 0
XAxis mode: Wavelengths
Number of Pixels in Spectrum: 2048
>>>>>Begin Spectral Data<<<<<
188.938	-106.93
189.409	-106.93
189.879	-106.93
190.349	-92.89
190.819	-113.95
191.29	-123.32
191.76	-62.46
192.23	-116.3
192.7	-144.38
193.17	-78.85
193.64	-64.8
194.109	-39.06
194.579	-29.7
195.049	-39.06
195.519	7.75
195.988	89.67
196.458	103.71
196.927	84.99
197.397	117.76
197.866	145.84
198.336	148.19
198.805	206.7
199.274	169.25
199.744	143.5
200.213	171.59
200.682	145.84
201.151	173.93
201.62	262.87
202.089	237.13
202.558	321.38
203.027	246.49
203.495	269.89
203.964	305
204.433	218.4
204.902	302.66
205.37	223.08
205.839	319.04
206.307	302.66
206.776	269.89
207.244	279.26
207.712	272.23
208.181	305
208.649	316.7
209.117	239.47
209.585	333.09
210.053	333.09
210.521	302.66
210.989	286.28
211.457	307.34
211.925	312.02
212.393	269.89
212.861	354.15
213.328	274.57
213.796	276.91
214.264	288.62
214.731	300.32
215.199	342.45
215.666	283.94
216.133	293.3
216.601	290.96
217.068	272.23
217.535	269.89
218.003	293.3
218.47	340.11
218.937	309.68
219.404	286.28
219.871	309.68
220.338	227.76
220.805	232.44
221.271	272.23
221.738	209.04
222.205	262.87
222.671	218.4
223.138	319.04
223.605	300.32
224.071	255.85
224.538	300.32
225.004	237.13
225.47	290.96
225.937	276.91
226.403	283.94
226.869	267.55
227.335	283.94
227.801	286.28
228.267	265.21
228.733	302.66
229.199	223.08
229.665	344.79
230.131	302.66
230.597	302.66
231.062	237.13
231.528	234.78
231.994	178.61
232.459	316.7
232.925	274.57
233.39	218.4
233.856	319.04
234.321	319.04
234.786	253.51
235.252	255.85
235.717	255.85
236.182	230.1
236.647	281.6
237.112	276.91
237.577	279.26
238.042	316.7
238.507	204.36
238.972	328.41
239.436	321.38
239.901	202.02
240.366	281.6
240.83	323.73
241.295	267.55
241.76	330.75
242.224	302.66
242.688	333.09
243.153	237.13
243.617	293.3
244.081	269.89
244.545	255.85
245.01	283.94
245.474	274.57
245.938	255.85
246.402	305
246.866	321.38
247.33	232.44
247.793	274.57
248.257	316.7
248.721	330.75
249.185	316.7
249.648	258.19
250.112	274.57
250.575	272.23
251.039	269.89
251.502	309.68
251.965	283.94
252.429	223.08
252.892	253.51
253.355	234.78
253.818	309.68
254.281	312.02
254.744	319.04
255.207	272.23
255.67	286.28
256.133	309.68
256.596	297.98
257.059	244.15
257.522	314.36
257.984	269.89
258.447	258.19
258.909	286.28
259.372	305
259.834	246.49
260.297	328.41
260.759	288.62
261.221	255.85
261.684	302.66
262.146	293.3
262.608	244.15
263.07	290.96
263.532	321.38
263.994	288.62
264.456	293.3
264.918	300.32
265.38	244.15
265.842	297.98
266.303	272.23
266.765	297.98
267.227	305
267.688	323.73
268.15	290.96
268.611	295.64
269.072	244.15
269.534	283.94
269.995	297.98
270.456	351.81
270.918	283.94
271.379	309.68
271.84	312.02
272.301	333.09
272.762	368.2
273.223	293.3
273.684	281.6
274.144	260.53
274.605	246.49
275.066	246.49
275.527	307.34
275.987	342.45
276.448	337.77
276.908	241.81
277.369	330.75
277.829	230.1
278.289	288.62
278.75	356.49
279.21	267.55
279.67	293.3
280.13	274.57
280.59	267.55
281.05	253.51
281.51	344.79
281.97	288.62
282.43	335.43
282.89	330.75
283.35	262.87
283.809	333.09
284.269	258.19
284.729	281.6
285.188	312.02
285.648	272.23
286.107	279.26
286.567	283.94
287.026	319.04
287.485	279.26
287.944	305
288.404	281.6
288.863	255.85
289.322	262.87
289.781	333.09
290.24	302.66
290.699	328.41
291.158	293.3
291.616	267.55
292.075	218.4
292.534	288.62
292.992	342.45
293.451	316.7
293.91	312.02
294.368	382.24
294.827	384.58
295.285	288.62
295.743	295.64
296.202	288.62
296.66	272.23
297.118	272.23
297.576	319.04
298.034	297.98
298.492	290.96
298.95	276.91
299.408	342.45
299.866	295.64
300.324	337.77
300.781	309.68
301.239	307.34
301.697	288.62
302.154	265.21
302.612	333.09
303.069	309.68
303.527	342.45
303.984	314.36
304.441	312.02
304.899	363.51
305.356	267.55
305.813	330.75
306.27	288.62
306.727	344.79
307.184	314.36
307.641	316.7
308.098	288.62
308.555	290.96
309.012	276.91
309.468	349.47
309.925	267.55
310.382	230.1
310.838	305
311.295	349.47
311.751	251.17
312.208	312.02
312.664	274.57
313.12	307.34
313.577	307.34
314.033	262.87
314.489	293.3
314.945	302.66
315.401	281.6
315.857	290.96
316.313	300.32
316.769	293.3
317.225	260.53
317.681	281.6
318.136	319.04
318.592	239.47
319.048	368.2
319.503	314.36
319.959	333.09
320.414	309.68
320.869	297.98
321.325	260.53
321.78	321.38
322.235	354.15
322.691	347.13
323.146	328.41
323.601	295.64
324.056	283.94
324.511	323.73
324.966	370.54
325.421	300.32
325.875	274.57
326.33	302.66
326.785	358.83
327.24	316.7
327.694	281.6
328.149	302.66
328.603	349.47
329.058	312.02
329.512	286.28
329.966	347.13
330.421	312.02
330.875	312.02
331.329	255.85
331.783	312.02
332.237	328.41
332.691	307.34
333.145	330.75
333.599	321.38
334.053	302.66
334.507	333.09
334.96	375.22
335.414	330.75
335.868	288.62
336.321	335.43
336.775	283.94
337.228	342.45
337.682	330.75
338.135	309.68
338.588	351.81
339.042	283.94
339.495	354.15
339.948	340.11
340.401	300.32
340.854	344.79
341.307	368.2
341.76	328.41
342.213	358.83
342.666	286.28
343.119	337.77
343.571	330.75
344.024	295.64
344.477	326.07
344.929	349.47
345.382	365.85
345.834	293.3
346.287	288.62
346.739	281.6
347.191	321.38
347.644	323.73
348.096	312.02
348.548	309.68
349	290.96
349.452	307.34
349.904	297.98
350.356	283.94
350.808	309.68
351.26	384.58
351.711	281.6
352.163	379.9
352.615	344.79
353.066	337.77
353.518	281.6
353.969	328.41
354.421	335.43
354.872	300.32
355.324	314.36
355.775	295.64
356.226	295.64
356.677	328.41
357.128	281.6
357.579	377.56
358.03	302.66
358.481	349.47
358.932	286.28
359.383	295.64
359.834	316.7
360.285	340.11
360.735	354.15
361.186	307.34
361.637	349.47
362.087	295.64
362.538	344.79
362.988	253.51
363.438	314.36
363.889	307.34
364.339	326.07
364.789	337.77
365.239	286.28
365.689	340.11
366.139	398.62
366.589	333.09
367.039	286.28
367.489	316.7
367.939	218.4
368.389	321.38
368.839	307.34
369.288	297.98
369.738	267.55
370.187	288.62
370.637	302.66
371.086	347.13
371.536	347.13
371.985	330.75
372.434	300.32
372.884	349.47
373.333	290.96
373.782	262.87
374.231	316.7
374.68	323.73
375.129	340.11
375.578	276.91
376.027	267.55
376.475	309.68
376.924	326.07
377.373	302.66
377.822	260.53
378.27	269.89
378.719	272.23
379.167	323.73
379.616	297.98
380.064	319.04
380.512	305
380.961	295.64
381.409	363.51
381.857	309.68
382.305	347.13
382.753	312.02
383.201	330.75
383.649	347.13
384.097	361.17
384.545	323.73
384.992	358.83
385.44	321.38
385.888	328.41
386.335	293.3
386.783	330.75
387.231	410.33
387.678	382.24
388.125	337.77
388.573	302.66
389.02	321.38
389.467	328.41
389.914	309.68
390.362	300.32
390.809	293.3
391.256	288.62
391.703	314.36
392.15	295.64
392.596	342.45
393.043	312.02
393.49	356.49
393.937	307.34
394.383	326.07
394.83	368.2
395.276	288.62
395.723	305
396.169	262.87
396.616	281.6
397.062	297.98
397.508	323.73
397.954	330.75
398.401	305
398.847	351.81
399.293	272.23
399.739	302.66
400.185	377.56
400.631	293.3
401.076	260.53
401.522	351.81
401.968	307.34
402.414	349.47
402.859	316.7
403.305	314.36
403.75	358.83
404.196	295.64
404.641	340.11
405.086	281.6
405.532	340.11
405.977	358.83
406.422	279.26
406.867	293.3
407.312	361.17
407.757	358.83
408.202	340.11
408.647	290.96
409.092	340.11
409.537	326.07
409.982	326.07
410.426	246.49
410.871	361.17
411.316	288.62
411.76	370.54
412.205	323.73
412.649	302.66
413.093	293.3
413.538	347.13
413.982	312.02
414.426	316.7
414.87	330.75
415.314	326.07
415.758	375.22
416.202	307.34
416.646	347.13
417.09	288.62
417.534	342.45
417.978	309.68
418.421	333.09
418.865	384.58
419.309	286.28
419.752	307.34
420.196	290.96
420.639	368.2
421.083	337.77
421.526	316.7
421.969	272.23
422.412	295.64
422.856	354.15
423.299	314.36
423.742	328.41
424.185	370.54
424.628	358.83
425.071	314.36
425.513	326.07
425.956	295.64
426.399	372.88
426.842	307.34
427.284	349.47
427.727	337.77
428.169	340.11
428.612	351.81
429.054	314.36
429.497	293.3
429.939	347.13
430.381	279.26
430.823	241.81
431.265	316.7
431.707	302.66
432.149	295.64
432.591	319.04
433.033	351.81
433.475	333.09
433.917	349.47
434.359	269.89
434.8	295.64
435.242	302.66
435.684	363.51
436.125	340.11
436.567	328.41
437.008	316.7
437.449	279.26
437.891	323.73
438.332	335.43
438.773	323.73
439.214	337.77
439.656	351.81
440.097	349.47
440.538	314.36
440.978	269.89
441.419	314.36
441.86	302.66
442.301	335.43
442.742	372.88
443.182	356.49
443.623	246.49
444.063	293.3
444.504	309.68
444.944	290.96
445.385	309.68
445.825	335.43
446.265	312.02
446.706	319.04
447.146	361.17
447.586	295.64
448.026	272.23
448.466	330.75
448.906	314.36
449.346	349.47
449.786	354.15
450.225	351.81
450.665	302.66
451.105	297.98
451.544	307.34
451.984	272.23
452.424	330.75
452.863	321.38
453.302	323.73
453.742	351.81
454.181	328.41
454.62	340.11
455.059	293.3
455.499	363.51
455.938	340.11
456.377	272.23
456.816	293.3
457.254	354.15
457.693	328.41
458.132	326.07
458.571	328.41
459.01	312.02
459.448	370.54
459.887	319.04
460.325	337.77
460.764	347.13
461.202	349.47
461.641	312.02
462.079	333.09
462.517	305
462.955	286.28
463.393	326.07
463.832	293.3
464.27	391.6
464.708	269.89
465.145	316.7
465.583	309.68
466.021	377.56
466.459	286.28
466.897	342.45
467.334	337.77
467.772	333.09
468.209	344.79
468.647	302.66
469.084	349.47
469.522	356.49
469.959	358.83
470.396	333.09
470.833	255.85
471.271	321.38
471.708	295.64
472.145	372.88
472.582	372.88
473.019	321.38
473.456	344.79
473.892	340.11
474.329	290.96
474.766	398.62
475.202	297.98
475.639	361.17
476.076	340.11
476.512	314.36
476.949	340.11
477.385	300.32
477.821	302.66
478.258	340.11
478.694	279.26
479.13	316.7
479.566	328.41
480.002	344.79
480.438	330.75
480.874	319.04
481.31	319.04
481.746	314.36
482.181	342.45
482.617	326.07
483.053	272.23
483.488	333.09
483.924	330.75
484.36	312.02
484.795	276.91
485.23	258.19
485.666	307.34
486.101	358.83
486.536	372.88
486.971	283.94
487.407	316.7
487.842	337.77
488.277	335.43
488.712	323.73
489.146	405.64
489.581	328.41
490.016	305
490.451	309.68
490.885	335.43
491.32	307.34
491.755	314.36
492.189	344.79
492.624	389.26
493.058	384.58
493.492	314.36
493.927	340.11
494.361	309.68
494.795	307.34
495.229	361.17
495.663	344.79
496.097	330.75
496.531	258.19
496.965	314.36
497.399	316.7
497.833	361.17
498.266	358.83
498.7	330.75
499.134	354.15
499.567	309.68
500.001	349.47
500.434	288.62
500.868	312.02
501.301	295.64
501.734	281.6
502.168	293.3
502.601	239.47
503.034	283.94
503.467	279.26
503.9	337.77
504.333	227.76
504.766	307.34
505.199	316.7
505.632	305
506.064	281.6
506.497	293.3
506.93	351.81
507.362	309.68
507.795	297.98
508.227	314.36
508.66	349.47
509.092	358.83
509.524	347.13
509.956	309.68
510.389	377.56
510.821	363.51
511.253	354.15
511.685	244.15
512.117	309.68
512.549	265.21
512.981	342.45
513.412	305
513.844	328.41
514.276	309.68
514.707	316.7
515.139	363.51
515.571	391.6
516.002	361.17
516.433	309.68
516.865	375.22
517.296	276.91
517.727	356.49
518.159	321.38
518.59	370.54
519.021	342.45
519.452	358.83
519.883	347.13
520.314	269.89
520.744	316.7
521.175	340.11
521.606	326.07
522.037	351.81
522.467	333.09
522.898	342.45
523.328	321.38
523.759	267.55
524.189	349.47
524.62	316.7
525.05	382.24
525.48	330.75
525.91	354.15
526.341	316.7
526.771	319.04
527.201	356.49
527.631	396.28
528.061	328.41
528.49	333.09
528.92	337.77
529.35	323.73
529.78	340.11
530.209	379.9
530.639	368.2
531.068	347.13
531.498	349.47
531.927	363.51
532.357	340.11
532.786	307.34
533.215	300.32
533.644	279.26
534.074	286.28
534.503	330.75
534.932	300.32
535.361	337.77
535.79	300.32
536.218	368.2
536.647	354.15
537.076	314.36
537.505	337.77
537.933	361.17
538.362	312.02
538.79	305
539.219	344.79
539.647	361.17
540.076	297.98
540.504	321.38
540.932	326.07
541.36	342.45
541.788	293.3
542.217	295.64
542.645	316.7
543.073	295.64
543.5	358.83
543.928	340.11
544.356	326.07
544.784	305
545.211	386.92
545.639	330.75
546.067	251.17
546.494	314.36
546.922	283.94
547.349	349.47
547.776	326.07
548.204	333.09
548.631	312.02
549.058	363.51
549.485	340.11
549.912	333.09
550.339	302.66
550.766	358.83
551.193	337.77
551.62	330.75
552.047	302.66
552.474	326.07
552.9	297.98
553.327	342.45
553.754	293.3
554.18	335.43
554.607	290.96
555.033	286.28
555.459	283.94
555.886	363.51
556.312	365.85
556.738	323.73
557.164	321.38
557.59	335.43
558.016	375.22
558.442	319.04
558.868	297.98
559.294	344.79
559.72	295.64
560.145	384.58
560.571	286.28
560.997	281.6
561.422	253.51
561.848	316.7
562.273	286.28
562.699	297.98
563.124	370.54
563.549	319.04
563.974	295.64
564.4	307.34
564.825	342.45
565.25	335.43
565.675	323.73
566.1	335.43
566.525	323.73
566.95	335.43
567.374	351.81
567.799	312.02
568.224	365.85
568.648	344.79
569.073	323.73
569.497	363.51
569.922	293.3
570.346	295.64
570.771	337.77
571.195	283.94
571.619	333.09
572.043	307.34
572.467	293.3
572.891	314.36
573.315	340.11
573.739	321.38
574.163	314.36
574.587	283.94
575.011	349.47
575.435	349.47
575.858	330.75
576.282	340.11
576.705	377.56
577.129	316.7
577.552	288.62
577.976	283.94
578.399	316.7
578.822	344.79
579.245	286.28
579.669	356.49
580.092	316.7
580.515	347.13
580.938	328.41
581.361	288.62
581.784	328.41
582.206	328.41
582.629	305
583.052	328.41
583.474	347.13
583.897	300.32
584.32	300.32
584.742	335.43
585.165	347.13
585.587	309.68
586.009	337.77
586.431	323.73
586.854	295.64
587.276	281.6
587.698	356.49
588.12	365.85
588.542	297.98
588.964	279.26
589.386	356.49
589.807	314.36
590.229	281.6
590.651	328.41
591.073	300.32
591.494	347.13
591.916	274.57
592.337	319.04
592.759	319.04
593.18	295.64
593.601	328.41
594.022	288.62
594.444	337.77
594.865	300.32
595.286	297.98
595.707	361.17
596.128	342.45
596.549	309.68
596.97	276.91
597.39	295.64
597.811	326.07
598.232	297.98
598.652	290.96
599.073	274.57
599.494	326.07
599.914	281.6
600.334	323.73
600.755	375.22
601.175	321.38
601.595	365.85
602.015	337.77
602.436	316.7
602.856	431.39
603.276	335.43
603.696	389.26
604.115	253.51
604.535	281.6
604.955	295.64
605.375	305
605.794	307.34
606.214	337.77
606.634	300.32
607.053	260.53
607.473	358.83
607.892	361.17
608.311	286.28
608.731	319.04
609.15	375.22
609.569	326.07
609.988	307.34
610.407	321.38
610.826	398.62
611.245	375.22
611.664	333.09
612.083	375.22
612.501	288.62
612.92	330.75
613.339	356.49
613.757	269.89
614.176	319.04
614.594	305
615.013	297.98
615.431	342.45
615.85	295.64
616.268	337.77
616.686	321.38
617.104	286.28
617.522	283.94
617.94	321.38
618.358	314.36
618.776	330.75
619.194	307.34
619.612	283.94
620.03	321.38
620.447	316.7
620.865	288.62
621.282	305
621.7	410.33
622.117	279.26
622.535	272.23
622.952	365.85
623.369	330.75
623.787	351.81
624.204	375.22
624.621	333.09
625.038	384.58
625.455	326.07
625.872	354.15
626.289	262.87
626.706	377.56
627.123	319.04
627.539	375.22
627.956	347.13
628.373	286.28
628.789	288.62
629.206	328.41
629.622	328.41
630.038	305
630.455	344.79
630.871	375.22
631.287	375.22
631.703	314.36
632.12	354.15
632.536	342.45
632.952	305
633.368	309.68
633.783	288.62
634.199	323.73
634.615	344.79
635.031	321.38
635.446	272.23
635.862	258.19
636.277	344.79
636.693	309.68
637.108	368.2
637.524	333.09
637.939	335.43
638.354	300.32
638.77	323.73
639.185	312.02
639.6	363.51
640.015	290.96
640.43	361.17
640.845	274.57
641.259	297.98
641.674	276.91
642.089	375.22
642.504	307.34
642.918	283.94
643.333	309.68
643.747	316.7
644.162	295.64
644.576	351.81
644.991	358.83
645.405	286.28
645.819	281.6
646.233	288.62
646.647	340.11
647.061	354.15
647.475	302.66
647.889	384.58
648.303	314.36
648.717	297.98
649.131	305
649.545	326.07
649.958	276.91
650.372	363.51
650.785	328.41
651.199	293.3
651.612	309.68
652.026	316.7
652.439	319.04
652.852	319.04
653.266	335.43
653.679	314.36
654.092	342.45
654.505	319.04
654.918	248.83
655.331	258.19
655.744	382.24
656.156	307.34
656.569	323.73
656.982	312.02
657.394	312.02
657.807	295.64
658.22	342.45
658.632	330.75
659.044	302.66
659.457	312.02
659.869	288.62
660.281	307.34
660.693	288.62
661.106	269.89
661.518	349.47
661.93	309.68
662.342	375.22
662.754	323.73
663.165	305
663.577	269.89
663.989	328.41
664.401	300.32
664.812	316.7
665.224	312.02
665.635	309.68
666.047	295.64
666.458	295.64
666.869	300.32
667.281	269.89
667.692	375.22
668.103	279.26
668.514	354.15
668.925	305
669.336	267.55
669.747	323.73
670.158	300.32
670.569	248.83
670.979	251.17
671.39	335.43
671.801	288.62
672.211	370.54
672.622	326.07
673.032	276.91
673.443	276.91
673.853	328.41
674.263	312.02
674.674	319.04
675.084	340.11
675.494	326.07
675.904	337.77
676.314	283.94
676.724	351.81
677.134	316.7
677.544	356.49
677.953	314.36
678.363	283.94
678.773	386.92
679.182	370.54
679.592	328.41
680.001	358.83
680.411	269.89
680.82	237.13
681.23	358.83
681.639	319.04
682.048	330.75
682.457	309.68
682.866	344.79
683.275	344.79
683.684	314.36
684.093	349.47
684.502	351.81
684.911	375.22
685.32	272.23
685.728	302.66
686.137	372.88
686.546	349.47
686.954	253.51
687.363	361.17
687.771	293.3
688.179	328.41
688.588	405.64
688.996	337.77
689.404	312.02
689.812	358.83
690.22	356.49
690.628	279.26
691.036	281.6
691.444	321.38
691.852	363.51
692.26	333.09
692.667	351.81
693.075	276.91
693.483	349.47
693.89	323.73
694.298	330.75
694.705	251.17
695.112	307.34
695.52	312.02
695.927	283.94
696.334	293.3
696.741	290.96
697.148	347.13
697.555	279.26
697.962	283.94
698.369	368.2
698.776	234.78
699.183	290.96
699.59	351.81
699.996	302.66
700.403	321.38
700.81	337.77
701.216	351.81
701.623	288.62
702.029	274.57
702.435	326.07
702.842	356.49
703.248	279.26
703.654	342.45
704.06	312.02
704.466	319.04
704.872	276.91
705.278	333.09
705.684	302.66
706.09	321.38
706.496	305
706.901	368.2
707.307	312.02
707.712	260.53
708.118	293.3
708.523	326.07
708.929	274.57
709.334	386.92
709.74	267.55
710.145	344.79
710.55	286.28
710.955	274.57
711.36	283.94
711.765	279.26
712.17	342.45
712.575	255.85
712.98	826.94
713.385	307.34
713.789	375.22
714.194	307.34
714.599	349.47
715.003	372.88
715.408	328.41
715.812	290.96
716.217	337.77
716.621	330.75
717.025	244.15
717.429	314.36
717.833	314.36
718.238	319.04
718.642	340.11
719.046	305
719.449	335.43
719.853	344.79
720.257	333.09
720.661	312.02
721.065	307.34
721.468	300.32
721.872	305
722.275	340.11
722.679	283.94
723.082	361.17
723.485	323.73
723.889	391.6
724.292	241.81
724.695	246.49
725.098	372.88
725.501	265.21
725.904	319.04
726.307	286.28
726.71	297.98
727.113	272.23
727.516	316.7
727.918	328.41
728.321	335.43
728.724	323.73
729.126	300.32
729.529	333.09
729.931	375.22
730.333	333.09
730.736	316.7
731.138	351.81
731.54	312.02
731.942	300.32
732.344	307.34
732.746	258.19
733.148	302.66
733.55	363.51
733.952	253.51
734.354	295.64
734.756	312.02
735.157	255.85
735.559	295.64
735.96	272.23
736.362	302.66
736.763	316.7
737.165	382.24
737.566	302.66
737.967	403.3
738.368	358.83
738.77	323.73
739.171	323.73
739.572	330.75
739.973	361.17
740.374	335.43
740.774	335.43
741.175	358.83
741.576	307.34
741.977	265.21
742.377	328.41
742.778	361.17
743.178	316.7
743.579	323.73
743.979	330.75
744.379	319.04
744.78	302.66
745.18	319.04
745.58	321.38
745.98	279.26
746.38	356.49
746.78	344.79
747.18	314.36
747.58	269.89
747.98	361.17
748.38	262.87
748.779	309.68
749.179	312.02
749.578	286.28
749.978	316.7
750.377	337.77
750.777	286.28
751.176	349.47
751.575	368.2
751.975	333.09
752.374	342.45
752.773	288.62
753.172	335.43
753.571	269.89
753.97	340.11
754.369	330.75
754.768	323.73
755.166	328.41
755.565	305
755.964	358.83
756.362	335.43
756.761	358.83
757.159	305
757.558	316.7
757.956	344.79
758.354	379.9
758.753	326.07
759.151	302.66
759.549	300.32
759.947	305
760.345	246.49
760.743	272.23
761.141	335.43
761.539	323.73
761.936	349.47
762.334	274.57
762.732	305
763.129	305
763.527	283.94
763.924	405.64
764.322	241.81
764.719	297.98
765.117	307.34
765.514	307.34
765.911	335.43
766.308	337.77
766.705	276.91
767.102	309.68
767.499	253.51
