Data from Al_FLMS009871__1011__16-22-55-023.txt Node

Date: Fri Mar 08 16:22:55 CST 2024
User: pe5414po
Spectrometer: FLMS00987
Trigger mode: 0
Integration Time (sec): 1.000000E-1
Scans to average: 1
Electric dark correction enabled: true
Nonlinearity correction enabled: false
Boxcar width: 0
XAxis mode: Wavelengths
Number of Pixels in Spectrum: 2048
>>>>>Begin Spectral Data<<<<<
188.938	-44.76
189.409	-44.76
189.879	-44.76
190.349	-63.49
190.819	-107.96
191.29	-96.25
191.76	-65.83
192.23	-129.02
192.7	-82.21
193.17	-70.51
193.64	-4.97
194.109	-44.76
194.579	-2.63
195.049	16.09
195.519	-0.29
195.988	13.75
196.458	-2.63
196.927	112.05
197.397	93.33
197.866	123.76
198.336	140.14
198.805	140.14
199.274	147.16
199.744	222.06
200.213	175.25
200.682	245.46
201.151	170.57
201.62	200.99
202.089	252.49
202.558	200.99
203.027	268.87
203.495	240.78
203.964	303.98
204.433	292.27
204.902	299.3
205.37	271.21
205.839	271.21
206.307	280.57
206.776	273.55
207.244	292.27
207.712	268.87
208.181	259.51
208.649	348.45
209.117	367.17
209.585	287.59
210.053	341.43
210.521	266.53
210.989	268.87
211.457	296.96
211.925	280.57
212.393	205.67
212.861	210.36
213.328	252.49
213.796	275.89
214.264	254.83
214.731	278.23
215.199	257.17
215.666	287.59
216.133	261.85
216.601	320.36
217.068	289.93
217.535	261.85
218.003	257.17
218.47	240.78
218.937	273.55
219.404	259.51
219.871	301.64
220.338	285.25
220.805	322.7
221.271	301.64
221.738	233.76
222.205	278.23
222.671	275.89
223.138	186.95
223.605	320.36
224.071	259.51
224.538	266.53
225.004	275.89
225.47	282.91
225.937	268.87
226.403	257.17
226.869	275.89
227.335	266.53
227.801	301.64
228.267	303.98
228.733	285.25
229.199	289.93
229.665	177.59
230.131	296.96
230.597	210.36
231.062	271.21
231.528	245.46
231.994	259.51
232.459	215.04
232.925	257.17
233.39	282.91
233.856	315.68
234.321	233.76
234.786	296.96
235.252	229.08
235.717	250.14
236.182	243.12
236.647	282.91
237.112	275.89
237.577	252.49
238.042	294.61
238.507	245.46
238.972	245.46
239.436	224.4
239.901	287.59
240.366	252.49
240.83	268.87
241.295	245.46
241.76	222.06
242.224	243.12
242.688	226.74
243.153	275.89
243.617	306.32
244.081	294.61
244.545	268.87
245.01	278.23
245.474	289.93
245.938	257.17
246.402	275.89
246.866	247.8
247.33	327.38
247.793	236.1
248.257	275.89
248.721	294.61
249.185	271.21
249.648	306.32
250.112	306.32
250.575	271.21
251.039	294.61
251.502	362.49
251.965	294.61
252.429	322.7
252.892	292.27
253.355	271.21
253.818	229.08
254.281	313.34
254.744	318.02
255.207	301.64
255.67	306.32
256.133	252.49
256.596	327.38
257.059	315.68
257.522	250.14
257.984	210.36
258.447	329.72
258.909	287.59
259.372	261.85
259.834	252.49
260.297	308.66
260.759	245.46
261.221	289.93
261.684	282.91
262.146	306.32
262.608	311
263.07	325.04
263.532	250.14
263.994	311
264.456	322.7
264.918	367.17
265.38	275.89
265.842	243.12
266.303	320.36
266.765	327.38
267.227	254.83
267.688	238.44
268.15	268.87
268.611	315.68
269.072	311
269.534	268.87
269.995	364.83
270.456	294.61
270.918	308.66
271.379	282.91
271.84	355.47
272.301	250.14
272.762	318.02
273.223	287.59
273.684	245.46
274.144	311
274.605	289.93
275.066	325.04
275.527	266.53
275.987	203.33
276.448	320.36
276.908	296.96
277.369	327.38
277.829	322.7
278.289	341.43
278.75	296.96
279.21	285.25
279.67	357.81
280.13	303.98
280.59	285.25
281.05	322.7
281.51	336.74
281.97	250.14
282.43	275.89
282.89	327.38
283.35	266.53
283.809	325.04
284.269	336.74
284.729	294.61
285.188	278.23
285.648	360.15
286.107	285.25
286.567	250.14
287.026	308.66
287.485	322.7
287.944	238.44
288.404	261.85
288.863	257.17
289.322	339.09
289.781	247.8
290.24	243.12
290.699	311
291.158	332.06
291.616	268.87
292.075	233.76
292.534	292.27
292.992	264.19
293.451	299.3
293.91	271.21
294.368	320.36
294.827	329.72
295.285	254.83
295.743	240.78
296.202	367.17
296.66	292.27
297.118	325.04
297.576	320.36
298.034	308.66
298.492	282.91
298.95	292.27
299.408	294.61
299.866	259.51
300.324	268.87
300.781	311
301.239	311
301.697	285.25
302.154	308.66
302.612	313.34
303.069	287.59
303.527	254.83
303.984	308.66
304.441	320.36
304.899	318.02
305.356	261.85
305.813	371.85
306.27	292.27
306.727	292.27
307.184	273.55
307.641	273.55
308.098	308.66
308.555	296.96
309.012	245.46
309.468	306.32
309.925	212.7
310.382	315.68
310.838	266.53
311.295	296.96
311.751	318.02
312.208	374.19
312.664	266.53
313.12	308.66
313.577	336.74
314.033	240.78
314.489	278.23
314.945	336.74
315.401	320.36
315.857	306.32
316.313	318.02
316.769	289.93
317.225	306.32
317.681	348.45
318.136	355.47
318.592	334.4
319.048	273.55
319.503	341.43
319.959	301.64
320.414	278.23
320.869	261.85
321.325	245.46
321.78	275.89
322.235	315.68
322.691	327.38
323.146	301.64
323.601	254.83
324.056	289.93
324.511	322.7
324.966	292.27
325.421	325.04
325.875	311
326.33	395.26
326.785	299.3
327.24	264.19
327.694	299.3
328.149	339.09
328.603	273.55
329.058	292.27
329.512	325.04
329.966	334.4
330.421	353.13
330.875	343.77
331.329	292.27
331.783	280.57
332.237	294.61
332.691	252.49
333.145	285.25
333.599	268.87
334.053	320.36
334.507	313.34
334.96	301.64
335.414	322.7
335.868	341.43
336.321	254.83
336.775	313.34
337.228	320.36
337.682	383.56
338.135	318.02
338.588	311
339.042	280.57
339.495	278.23
339.948	268.87
340.401	296.96
340.854	273.55
341.307	268.87
341.76	266.53
342.213	327.38
342.666	355.47
343.119	296.96
343.571	299.3
344.024	346.11
344.477	282.91
344.929	315.68
345.382	275.89
345.834	282.91
346.287	311
346.739	264.19
347.191	322.7
347.644	336.74
348.096	353.13
348.548	273.55
349	245.46
349.452	285.25
349.904	334.4
350.356	285.25
350.808	306.32
351.26	301.64
351.711	252.49
352.163	289.93
352.615	275.89
353.066	336.74
353.518	273.55
353.969	301.64
354.421	306.32
354.872	294.61
355.324	268.87
355.775	273.55
356.226	240.78
356.677	313.34
357.128	313.34
357.579	280.57
358.03	315.68
358.481	341.43
358.932	280.57
359.383	261.85
359.834	306.32
360.285	303.98
360.735	318.02
361.186	315.68
361.637	315.68
362.087	388.24
362.538	313.34
362.988	273.55
363.438	327.38
363.889	350.79
364.339	294.61
364.789	294.61
365.239	362.49
365.689	353.13
366.139	299.3
366.589	336.74
367.039	266.53
367.489	332.06
367.939	271.21
368.389	292.27
368.839	273.55
369.288	247.8
369.738	327.38
370.187	325.04
370.637	311
371.086	385.9
371.536	271.21
371.985	268.87
372.434	327.38
372.884	325.04
373.333	325.04
373.782	339.09
374.231	313.34
374.68	362.49
375.129	308.66
375.578	224.4
376.027	362.49
376.475	313.34
376.924	346.11
377.373	287.59
377.822	292.27
378.27	303.98
378.719	285.25
379.167	278.23
379.616	299.3
380.064	306.32
380.512	257.17
380.961	280.57
381.409	322.7
381.857	334.4
382.305	327.38
382.753	285.25
383.201	367.17
383.649	336.74
384.097	355.47
384.545	329.72
384.992	327.38
385.44	315.68
385.888	320.36
386.335	315.68
386.783	301.64
387.231	301.64
387.678	238.44
388.125	268.87
388.573	318.02
389.02	287.59
389.467	325.04
389.914	224.4
390.362	346.11
390.809	264.19
391.256	346.11
391.703	318.02
392.15	301.64
392.596	329.72
393.043	287.59
393.49	329.72
393.937	343.77
394.383	311
394.83	311
395.276	332.06
395.723	320.36
396.169	341.43
396.616	315.68
397.062	311
397.508	289.93
397.954	287.59
398.401	271.21
398.847	318.02
399.293	254.83
399.739	208.02
400.185	332.06
400.631	287.59
401.076	348.45
401.522	329.72
401.968	339.09
402.414	252.49
402.859	341.43
403.305	329.72
403.75	399.94
404.196	296.96
404.641	273.55
405.086	299.3
405.532	292.27
405.977	294.61
406.422	280.57
406.867	311
407.312	334.4
407.757	320.36
408.202	355.47
408.647	329.72
409.092	306.32
409.537	289.93
409.982	296.96
410.426	296.96
410.871	320.36
411.316	285.25
411.76	315.68
412.205	289.93
412.649	294.61
413.093	273.55
413.538	303.98
413.982	374.19
414.426	339.09
414.87	238.44
415.314	325.04
415.758	313.34
416.202	329.72
416.646	282.91
417.09	318.02
417.534	261.85
417.978	299.3
418.421	399.94
418.865	306.32
419.309	254.83
419.752	325.04
420.196	395.26
420.639	308.66
421.083	271.21
421.526	320.36
421.969	364.83
422.412	357.81
422.856	268.87
423.299	315.68
423.742	334.4
424.185	357.81
424.628	320.36
425.071	369.51
425.513	322.7
425.956	341.43
426.399	268.87
426.842	381.21
427.284	280.57
427.727	327.38
428.169	313.34
428.612	332.06
429.054	280.57
429.497	292.27
429.939	343.77
430.381	327.38
430.823	350.79
431.265	320.36
431.707	339.09
432.149	346.11
432.591	296.96
433.033	303.98
433.475	334.4
433.917	362.49
434.359	278.23
434.8	280.57
435.242	294.61
435.684	303.98
436.125	355.47
436.567	336.74
437.008	259.51
437.449	360.15
437.891	318.02
438.332	306.32
438.773	292.27
439.214	341.43
439.656	289.93
440.097	357.81
440.538	350.79
440.978	287.59
441.419	355.47
441.86	287.59
442.301	334.4
442.742	341.43
443.182	322.7
443.623	357.81
444.063	280.57
444.504	360.15
444.944	271.21
445.385	383.56
445.825	357.81
446.265	315.68
446.706	327.38
447.146	418.66
447.586	292.27
448.026	329.72
448.466	313.34
448.906	325.04
449.346	369.51
449.786	348.45
450.225	329.72
450.665	322.7
451.105	308.66
451.544	374.19
451.984	282.91
452.424	371.85
452.863	308.66
453.302	259.51
453.742	390.58
454.181	311
454.62	308.66
455.059	367.17
455.499	322.7
455.938	350.79
456.377	292.27
456.816	334.4
457.254	325.04
457.693	289.93
458.132	261.85
458.571	325.04
459.01	294.61
459.448	275.89
459.887	296.96
460.325	385.9
460.764	280.57
461.202	364.83
461.641	350.79
462.079	360.15
462.517	329.72
462.955	306.32
463.393	282.91
463.832	355.47
464.27	350.79
464.708	334.4
465.145	285.25
465.583	287.59
466.021	320.36
466.459	327.38
466.897	299.3
467.334	289.93
467.772	332.06
468.209	301.64
468.647	334.4
469.084	296.96
469.522	282.91
469.959	341.43
470.396	250.14
470.833	313.34
471.271	294.61
471.708	306.32
472.145	336.74
472.582	327.38
473.019	360.15
473.456	346.11
473.892	374.19
474.329	371.85
474.766	381.21
475.202	336.74
475.639	371.85
476.076	353.13
476.512	266.53
476.949	308.66
477.385	381.21
477.821	327.38
478.258	266.53
478.694	346.11
479.13	301.64
479.566	346.11
480.002	320.36
480.438	257.17
480.874	301.64
481.31	282.91
481.746	371.85
482.181	315.68
482.617	243.12
483.053	311
483.488	357.81
483.924	355.47
484.36	275.89
484.795	282.91
485.23	311
485.666	367.17
486.101	409.3
486.536	313.34
486.971	339.09
487.407	287.59
487.842	306.32
488.277	322.7
488.712	355.47
489.146	287.59
489.581	252.49
490.016	294.61
490.451	299.3
490.885	311
491.32	355.47
491.755	268.87
492.189	318.02
492.624	231.42
493.058	278.23
493.492	339.09
493.927	313.34
494.361	329.72
494.795	308.66
495.229	247.8
495.663	287.59
496.097	313.34
496.531	329.72
496.965	311
497.399	308.66
497.833	341.43
498.266	257.17
498.7	329.72
499.134	278.23
499.567	353.13
500.001	285.25
500.434	327.38
500.868	287.59
501.301	341.43
501.734	336.74
502.168	313.34
502.601	348.45
503.034	308.66
503.467	318.02
503.9	306.32
504.333	327.38
504.766	404.62
505.199	343.77
505.632	343.77
506.064	360.15
506.497	306.32
506.93	306.32
507.362	285.25
507.795	303.98
508.227	346.11
508.66	336.74
509.092	299.3
509.524	285.25
509.956	350.79
510.389	320.36
510.821	339.09
511.253	348.45
511.685	327.38
512.117	294.61
512.549	254.83
512.981	334.4
513.412	306.32
513.844	348.45
514.276	318.02
514.707	292.27
515.139	453.77
515.571	303.98
516.002	367.17
516.433	348.45
516.865	329.72
517.296	336.74
517.727	275.89
518.159	343.77
518.59	315.68
519.021	296.96
519.452	306.32
519.883	336.74
520.314	332.06
520.744	294.61
521.175	289.93
521.606	303.98
522.037	311
522.467	313.34
522.898	289.93
523.328	367.17
523.759	285.25
524.189	325.04
524.62	275.89
525.05	325.04
525.48	282.91
525.91	303.98
526.341	313.34
526.771	364.83
527.201	332.06
527.631	268.87
528.061	294.61
528.49	336.74
528.92	320.36
529.35	313.34
529.78	318.02
530.209	346.11
530.639	264.19
531.068	339.09
531.498	303.98
531.927	296.96
532.357	362.49
532.786	301.64
533.215	339.09
533.644	313.34
534.074	313.34
534.503	355.47
534.932	334.4
535.361	282.91
535.79	196.31
536.218	280.57
536.647	376.53
537.076	271.21
537.505	268.87
537.933	306.32
538.362	278.23
538.79	301.64
539.219	282.91
539.647	327.38
540.076	332.06
540.504	261.85
540.932	325.04
541.36	409.3
541.788	287.59
542.217	313.34
542.645	306.32
543.073	346.11
543.5	303.98
543.928	289.93
544.356	289.93
544.784	388.24
545.211	357.81
545.639	313.34
546.067	301.64
546.494	385.9
546.922	275.89
547.349	306.32
547.776	313.34
548.204	240.78
548.631	278.23
549.058	294.61
549.485	322.7
549.912	215.04
550.339	303.98
550.766	308.66
551.193	303.98
551.62	308.66
552.047	311
552.474	388.24
552.9	348.45
553.327	350.79
553.754	367.17
554.18	282.91
554.607	327.38
555.033	371.85
555.459	332.06
555.886	254.83
556.312	329.72
556.738	296.96
557.164	332.06
557.59	364.83
558.016	301.64
558.442	311
558.868	299.3
559.294	322.7
559.72	311
560.145	343.77
560.571	306.32
560.997	240.78
561.422	299.3
561.848	301.64
562.273	318.02
562.699	275.89
563.124	350.79
563.549	357.81
563.974	296.96
564.4	325.04
564.825	313.34
565.25	261.85
565.675	306.32
566.1	280.57
566.525	266.53
566.95	318.02
567.374	268.87
567.799	360.15
568.224	339.09
568.648	350.79
569.073	357.81
569.497	303.98
569.922	271.21
570.346	343.77
570.771	341.43
571.195	325.04
571.619	303.98
572.043	296.96
572.467	303.98
572.891	318.02
573.315	261.85
573.739	280.57
574.163	313.34
574.587	341.43
575.011	292.27
575.435	259.51
575.858	315.68
576.282	322.7
576.705	285.25
577.129	311
577.552	364.83
577.976	346.11
578.399	285.25
578.822	360.15
579.245	315.68
579.669	315.68
580.092	301.64
580.515	322.7
580.938	346.11
581.361	327.38
581.784	327.38
582.206	371.85
582.629	294.61
583.052	240.78
583.474	315.68
583.897	362.49
584.32	280.57
584.742	355.47
585.165	364.83
585.587	285.25
586.009	327.38
586.431	315.68
586.854	343.77
587.276	315.68
587.698	341.43
588.12	353.13
588.542	266.53
588.964	355.47
589.386	275.89
589.807	299.3
590.229	341.43
590.651	318.02
591.073	353.13
591.494	303.98
591.916	353.13
592.337	388.24
592.759	320.36
593.18	261.85
593.601	341.43
594.022	247.8
594.444	285.25
594.865	287.59
595.286	311
595.707	294.61
596.128	318.02
596.549	350.79
596.97	289.93
597.39	264.19
597.811	252.49
598.232	353.13
598.652	318.02
599.073	343.77
599.494	278.23
599.914	306.32
600.334	294.61
600.755	357.81
601.175	322.7
601.595	327.38
602.015	341.43
602.436	360.15
602.856	423.34
603.276	341.43
603.696	315.68
604.115	308.66
604.535	303.98
604.955	264.19
605.375	369.51
605.794	332.06
606.214	306.32
606.634	327.38
607.053	315.68
607.473	341.43
607.892	280.57
608.311	341.43
608.731	292.27
609.15	275.89
609.569	327.38
609.988	343.77
610.407	271.21
610.826	353.13
611.245	313.34
611.664	329.72
612.083	336.74
612.501	348.45
612.92	233.76
613.339	364.83
613.757	292.27
614.176	287.59
614.594	306.32
615.013	292.27
615.431	334.4
615.85	278.23
616.268	280.57
616.686	355.47
617.104	311
617.522	289.93
617.94	303.98
618.358	334.4
618.776	306.32
619.194	315.68
619.612	278.23
620.03	332.06
620.447	318.02
620.865	289.93
621.282	285.25
621.7	294.61
622.117	346.11
622.535	311
622.952	339.09
623.369	350.79
623.787	275.89
624.204	367.17
624.621	329.72
625.038	348.45
625.455	327.38
625.872	313.34
626.289	268.87
626.706	357.81
627.123	259.51
627.539	296.96
627.956	350.79
628.373	327.38
628.789	282.91
629.206	336.74
629.622	257.17
630.038	266.53
630.455	301.64
630.871	287.59
631.287	264.19
631.703	285.25
632.12	332.06
632.536	296.96
632.952	322.7
633.368	236.1
633.783	341.43
634.199	332.06
634.615	318.02
635.031	341.43
635.446	306.32
635.862	299.3
636.277	346.11
636.693	320.36
637.108	341.43
637.524	294.61
637.939	362.49
638.354	287.59
638.77	315.68
639.185	332.06
639.6	336.74
640.015	355.47
640.43	313.34
640.845	341.43
641.259	280.57
641.674	296.96
642.089	339.09
642.504	360.15
642.918	308.66
643.333	329.72
643.747	327.38
644.162	329.72
644.576	261.85
644.991	273.55
645.405	278.23
645.819	306.32
646.233	296.96
646.647	362.49
647.061	268.87
647.475	308.66
647.889	308.66
648.303	336.74
648.717	313.34
649.131	285.25
649.545	254.83
649.958	240.78
650.372	301.64
650.785	261.85
651.199	313.34
651.612	343.77
652.026	294.61
652.439	329.72
652.852	296.96
653.266	233.76
653.679	233.76
654.092	318.02
654.505	325.04
654.918	285.25
655.331	315.68
655.744	329.72
656.156	320.36
656.569	285.25
656.982	313.34
657.394	388.24
657.807	296.96
658.22	362.49
658.632	364.83
659.044	364.83
659.457	369.51
659.869	374.19
660.281	374.19
660.693	353.13
661.106	362.49
661.518	294.61
661.93	329.72
662.342	325.04
662.754	364.83
663.165	332.06
663.577	275.89
663.989	306.32
664.401	350.79
664.812	268.87
665.224	322.7
665.635	327.38
666.047	285.25
666.458	303.98
666.869	327.38
667.281	336.74
667.692	306.32
668.103	350.79
668.514	271.21
668.925	254.83
669.336	385.9
669.747	336.74
670.158	285.25
670.569	306.32
670.979	296.96
671.39	376.53
671.801	353.13
672.211	332.06
672.622	261.85
673.032	303.98
673.443	357.81
673.853	336.74
674.263	355.47
674.674	334.4
675.084	289.93
675.494	320.36
675.904	217.38
676.314	287.59
676.724	318.02
677.134	296.96
677.544	329.72
677.953	278.23
678.363	229.08
678.773	357.81
679.182	303.98
679.592	325.04
680.001	285.25
680.411	341.43
680.82	273.55
681.23	318.02
681.639	355.47
682.048	392.92
682.457	322.7
682.866	311
683.275	268.87
683.684	306.32
684.093	282.91
684.502	289.93
684.911	278.23
685.32	369.51
685.728	289.93
686.137	353.13
686.546	296.96
686.954	275.89
687.363	327.38
687.771	282.91
688.179	318.02
688.588	252.49
688.996	313.34
689.404	236.1
689.812	268.87
690.22	306.32
690.628	278.23
691.036	308.66
691.444	315.68
691.852	336.74
692.26	360.15
692.667	299.3
693.075	301.64
693.483	294.61
693.89	301.64
694.298	257.17
694.705	348.45
695.112	329.72
695.52	280.57
695.927	287.59
696.334	303.98
696.741	343.77
697.148	315.68
697.555	311
697.962	332.06
698.369	299.3
698.776	303.98
699.183	289.93
699.59	278.23
699.996	303.98
700.403	348.45
700.81	285.25
701.216	362.49
701.623	247.8
702.029	346.11
702.435	348.45
702.842	308.66
703.248	294.61
703.654	303.98
704.06	292.27
704.466	325.04
704.872	240.78
705.278	332.06
705.684	285.25
706.09	301.64
706.496	350.79
706.901	252.49
707.307	294.61
707.712	332.06
708.118	306.32
708.523	313.34
708.929	264.19
709.334	327.38
709.74	327.38
710.145	318.02
710.55	350.79
710.955	315.68
711.36	353.13
711.765	278.23
712.17	315.68
712.575	332.06
712.98	851.66
713.385	364.83
713.789	318.02
714.194	313.34
714.599	318.02
715.003	334.4
715.408	339.09
715.812	259.51
716.217	303.98
716.621	320.36
717.025	341.43
717.429	376.53
717.833	322.7
718.238	378.87
718.642	334.4
719.046	355.47
719.449	296.96
719.853	303.98
720.257	275.89
720.661	355.47
721.065	301.64
721.468	252.49
721.872	350.79
722.275	285.25
722.679	381.21
723.082	296.96
723.485	208.02
723.889	303.98
724.292	369.51
724.695	266.53
725.098	308.66
725.501	292.27
725.904	252.49
726.307	303.98
726.71	322.7
727.113	376.53
727.516	306.32
727.918	306.32
728.321	318.02
728.724	327.38
729.126	296.96
729.529	378.87
729.931	266.53
730.333	343.77
730.736	306.32
731.138	229.08
731.54	322.7
731.942	355.47
732.344	266.53
732.746	308.66
733.148	308.66
733.55	322.7
733.952	343.77
734.354	332.06
734.756	259.51
735.157	315.68
735.559	303.98
735.96	271.21
736.362	252.49
736.763	299.3
737.165	383.56
737.566	266.53
737.967	292.27
738.368	278.23
738.77	287.59
739.171	339.09
739.572	280.57
739.973	282.91
740.374	280.57
740.774	332.06
741.175	273.55
741.576	343.77
741.977	320.36
742.377	348.45
742.778	313.34
743.178	259.51
743.579	308.66
743.979	357.81
744.379	329.72
744.78	378.87
745.18	313.34
745.58	371.85
745.98	292.27
746.38	287.59
746.78	289.93
747.18	285.25
747.58	243.12
747.98	273.55
748.38	294.61
748.779	315.68
749.179	289.93
749.578	343.77
749.978	339.09
750.377	266.53
750.777	313.34
751.176	301.64
751.575	355.47
751.975	306.32
752.374	299.3
752.773	285.25
753.172	278.23
753.571	371.85
753.97	369.51
754.369	362.49
754.768	275.89
755.166	308.66
755.565	313.34
755.964	313.34
756.362	266.53
756.761	318.02
757.159	311
757.558	350.79
757.956	308.66
758.354	336.74
758.753	362.49
759.151	315.68
759.549	280.57
759.947	367.17
760.345	390.58
760.743	280.57
761.141	289.93
761.539	240.78
761.936	329.72
762.334	341.43
762.732	367.17
763.129	320.36
763.527	327.38
763.924	399.94
764.322	327.38
764.719	329.72
765.117	278.23
765.514	343.77
765.911	350.79
766.308	348.45
