Data from Al_FLMS009871__1000__16-22-53-917.txt Node

Date: Fri Mar 08 16:22:53 CST 2024
User: pe5414po
Spectrometer: FLMS00987
Trigger mode: 0
Integration Time (sec): 1.000000E-1
Scans to average: 1
Electric dark correction enabled: true
Nonlinearity correction enabled: false
Boxcar width: 0
XAxis mode: Wavelengths
Number of Pixels in Spectrum: 2048
>>>>>Begin Spectral Data<<<<<
188.938	-115.86
189.409	-115.86
189.879	-115.86
190.349	-111.18
190.819	-57.34
191.29	-94.79
191.76	-92.45
192.23	-43.3
192.7	-73.73
193.17	17.55
193.64	-5.85
194.109	-73.73
194.579	-59.68
195.049	-78.41
195.519	-33.94
195.988	43.3
196.458	99.47
196.927	92.45
197.397	50.32
197.866	113.52
198.336	139.26
198.805	162.67
199.274	228.2
199.744	202.46
200.213	249.27
200.682	209.48
201.151	188.41
201.62	239.9
202.089	242.25
202.558	303.1
203.027	253.95
203.495	235.22
203.964	326.5
204.433	242.25
204.902	333.53
205.37	272.67
205.839	305.44
206.307	298.42
206.776	317.14
207.244	359.27
207.712	328.85
208.181	303.1
208.649	317.14
209.117	251.61
209.585	277.35
210.053	296.08
210.521	263.31
210.989	307.78
211.457	359.27
211.925	326.5
212.393	200.12
212.861	277.35
213.328	312.46
213.796	319.48
214.264	275.01
214.731	272.67
215.199	265.65
215.666	207.14
216.133	296.08
216.601	230.54
217.068	253.95
217.535	282.03
218.003	235.22
218.47	265.65
218.937	237.56
219.404	282.03
219.871	300.76
220.338	258.63
220.805	235.22
221.271	258.63
221.738	216.5
222.205	253.95
222.671	275.01
223.138	263.31
223.605	246.93
224.071	211.82
224.538	328.85
225.004	296.08
225.47	277.35
225.937	230.54
226.403	265.65
226.869	282.03
227.335	242.25
227.801	284.38
228.267	275.01
228.733	230.54
229.199	267.99
229.665	270.33
230.131	277.35
230.597	319.48
231.062	232.88
231.528	312.46
231.994	284.38
232.459	298.42
232.925	328.85
233.39	289.06
233.856	230.54
234.321	253.95
234.786	251.61
235.252	282.03
235.717	335.87
236.182	246.93
236.647	253.95
237.112	321.82
237.577	267.99
238.042	317.14
238.507	324.16
238.972	267.99
239.436	319.48
239.901	303.1
240.366	345.23
240.83	218.84
241.295	317.14
241.76	300.76
242.224	249.27
242.688	307.78
243.153	249.27
243.617	331.19
244.081	286.72
244.545	260.97
245.01	270.33
245.474	293.74
245.938	310.12
246.402	349.91
246.866	298.42
247.33	293.74
247.793	253.95
248.257	291.4
248.721	282.03
249.185	326.5
249.648	282.03
250.112	235.22
250.575	211.82
251.039	286.72
251.502	340.55
251.965	244.59
252.429	253.95
252.892	279.69
253.355	293.74
253.818	328.85
254.281	296.08
254.744	230.54
255.207	256.29
255.67	253.95
256.133	338.21
256.596	293.74
257.059	340.55
257.522	286.72
257.984	258.63
258.447	291.4
258.909	314.8
259.372	272.67
259.834	317.14
260.297	289.06
260.759	277.35
261.221	265.65
261.684	352.25
262.146	312.46
262.608	275.01
263.07	303.1
263.532	286.72
263.994	260.97
264.456	296.08
264.918	263.31
265.38	277.35
265.842	340.55
266.303	293.74
266.765	335.87
267.227	249.27
267.688	275.01
268.15	253.95
268.611	286.72
269.072	270.33
269.534	228.2
269.995	310.12
270.456	258.63
270.918	275.01
271.379	246.93
271.84	202.46
272.301	263.31
272.762	279.69
273.223	413.1
273.684	300.76
274.144	303.1
274.605	235.22
275.066	275.01
275.527	324.16
275.987	291.4
276.448	267.99
276.908	296.08
277.369	394.38
277.829	345.23
278.289	253.95
278.75	307.78
279.21	359.27
279.67	314.8
280.13	359.27
280.59	380.34
281.05	345.23
281.51	314.8
281.97	298.42
282.43	277.35
282.89	275.01
283.35	359.27
283.809	260.97
284.269	265.65
284.729	317.14
285.188	352.25
285.648	282.03
286.107	307.78
286.567	356.93
287.026	260.97
287.485	289.06
287.944	296.08
288.404	275.01
288.863	310.12
289.322	349.91
289.781	275.01
290.24	237.56
290.699	244.59
291.158	333.53
291.616	328.85
292.075	342.89
292.534	305.44
292.992	328.85
293.451	293.74
293.91	314.8
294.368	335.87
294.827	265.65
295.285	314.8
295.743	389.7
296.202	289.06
296.66	321.82
297.118	319.48
297.576	382.68
298.034	293.74
298.492	246.93
298.95	282.03
299.408	272.67
299.866	298.42
300.324	267.99
300.781	296.08
301.239	253.95
301.697	305.44
302.154	321.82
302.612	345.23
303.069	335.87
303.527	319.48
303.984	270.33
304.441	300.76
304.899	298.42
305.356	307.78
305.813	277.35
306.27	312.46
306.727	244.59
307.184	331.19
307.641	307.78
308.098	363.95
308.555	305.44
309.012	375.66
309.468	352.25
309.925	284.38
310.382	378
310.838	293.74
311.295	366.29
311.751	354.59
312.208	300.76
312.664	300.76
313.12	305.44
313.577	314.8
314.033	251.61
314.489	244.59
314.945	328.85
315.401	317.14
315.857	312.46
316.313	284.38
316.769	300.76
317.225	375.66
317.681	228.2
318.136	244.59
318.592	356.93
319.048	338.21
319.503	361.61
319.959	291.4
320.414	333.53
320.869	328.85
321.325	314.8
321.78	256.29
322.235	314.8
322.691	363.95
323.146	305.44
323.601	340.55
324.056	375.66
324.511	265.65
324.966	359.27
325.421	270.33
325.875	277.35
326.33	342.89
326.785	244.59
327.24	286.72
327.694	242.25
328.149	289.06
328.603	317.14
329.058	305.44
329.512	293.74
329.966	354.59
330.421	303.1
330.875	275.01
331.329	256.29
331.783	253.95
332.237	349.91
332.691	249.27
333.145	319.48
333.599	319.48
334.053	272.67
334.507	253.95
334.96	363.95
335.414	366.29
335.868	328.85
336.321	300.76
336.775	338.21
337.228	317.14
337.682	370.97
338.135	291.4
338.588	370.97
339.042	286.72
339.495	312.46
339.948	270.33
340.401	338.21
340.854	326.5
341.307	265.65
341.76	352.25
342.213	317.14
342.666	300.76
343.119	345.23
343.571	333.53
344.024	312.46
344.477	317.14
344.929	310.12
345.382	289.06
345.834	317.14
346.287	319.48
346.739	289.06
347.191	328.85
347.644	331.19
348.096	354.59
348.548	314.8
349	326.5
349.452	267.99
349.904	305.44
350.356	303.1
350.808	331.19
351.26	396.72
351.711	284.38
352.163	373.32
352.615	333.53
353.066	314.8
353.518	314.8
353.969	333.53
354.421	251.61
354.872	284.38
355.324	321.82
355.775	298.42
356.226	279.69
356.677	307.78
357.128	272.67
357.579	267.99
358.03	335.87
358.481	303.1
358.932	368.63
359.383	352.25
359.834	279.69
360.285	349.91
360.735	282.03
361.186	272.67
361.637	270.33
362.087	321.82
362.538	338.21
362.988	366.29
363.438	324.16
363.889	317.14
364.339	389.7
364.789	338.21
365.239	347.57
365.689	335.87
366.139	331.19
366.589	340.55
367.039	310.12
367.489	314.8
367.939	354.59
368.389	296.08
368.839	310.12
369.288	286.72
369.738	340.55
370.187	242.25
370.637	331.19
371.086	328.85
371.536	303.1
371.985	342.89
372.434	298.42
372.884	282.03
373.333	356.93
373.782	282.03
374.231	265.65
374.68	378
375.129	253.95
375.578	361.61
376.027	314.8
376.475	296.08
376.924	338.21
377.373	328.85
377.822	293.74
378.27	293.74
378.719	275.01
379.167	324.16
379.616	300.76
380.064	338.21
380.512	347.57
380.961	342.89
381.409	321.82
381.857	319.48
382.305	300.76
382.753	267.99
383.201	284.38
383.649	366.29
384.097	342.89
384.545	324.16
384.992	298.42
385.44	319.48
385.888	300.76
386.335	331.19
386.783	331.19
387.231	331.19
387.678	328.85
388.125	277.35
388.573	314.8
389.02	338.21
389.467	352.25
389.914	305.44
390.362	265.65
390.809	321.82
391.256	342.89
391.703	289.06
392.15	312.46
392.596	310.12
393.043	333.53
393.49	298.42
393.937	307.78
394.383	291.4
394.83	282.03
395.276	312.46
395.723	349.91
396.169	312.46
396.616	286.72
397.062	296.08
397.508	249.27
397.954	300.76
398.401	347.57
398.847	382.68
399.293	326.5
399.739	363.95
400.185	305.44
400.631	385.02
401.076	345.23
401.522	331.19
401.968	363.95
402.414	349.91
402.859	361.61
403.305	284.38
403.75	338.21
404.196	293.74
404.641	338.21
405.086	303.1
405.532	361.61
405.977	342.89
406.422	338.21
406.867	310.12
407.312	356.93
407.757	256.29
408.202	321.82
408.647	286.72
409.092	300.76
409.537	319.48
409.982	296.08
410.426	300.76
410.871	373.32
411.316	300.76
411.76	253.95
412.205	293.74
412.649	300.76
413.093	312.46
413.538	305.44
413.982	338.21
414.426	286.72
414.87	352.25
415.314	319.48
415.758	331.19
416.202	296.08
416.646	293.74
417.09	312.46
417.534	333.53
417.978	333.53
418.421	284.38
418.865	277.35
419.309	399.06
419.752	289.06
420.196	298.42
420.639	338.21
421.083	396.72
421.526	335.87
421.969	312.46
422.412	279.69
422.856	324.16
423.299	347.57
423.742	279.69
424.185	356.93
424.628	214.16
425.071	289.06
425.513	347.57
425.956	345.23
426.399	352.25
426.842	298.42
427.284	373.32
427.727	319.48
428.169	307.78
428.612	307.78
429.054	260.97
429.497	303.1
429.939	305.44
430.381	359.27
430.823	312.46
431.265	345.23
431.707	361.61
432.149	246.93
432.591	277.35
433.033	314.8
433.475	345.23
433.917	387.36
434.359	319.48
434.8	260.97
435.242	289.06
435.684	326.5
436.125	333.53
436.567	291.4
437.008	326.5
437.449	331.19
437.891	307.78
438.332	317.14
438.773	310.12
439.214	368.63
439.656	296.08
440.097	378
440.538	270.33
440.978	324.16
441.419	300.76
441.86	335.87
442.301	286.72
442.742	335.87
443.182	331.19
443.623	338.21
444.063	321.82
444.504	354.59
444.944	387.36
445.385	356.93
445.825	277.35
446.265	375.66
446.706	307.78
447.146	338.21
447.586	272.67
448.026	289.06
448.466	361.61
448.906	293.74
449.346	361.61
449.786	296.08
450.225	293.74
450.665	354.59
451.105	286.72
451.544	345.23
451.984	279.69
452.424	403.74
452.863	275.01
453.302	312.46
453.742	331.19
454.181	321.82
454.62	361.61
455.059	342.89
455.499	352.25
455.938	370.97
456.377	319.48
456.816	321.82
457.254	251.61
457.693	307.78
458.132	349.91
458.571	324.16
459.01	333.53
459.448	345.23
459.887	307.78
460.325	305.44
460.764	317.14
461.202	321.82
461.641	354.59
462.079	359.27
462.517	312.46
462.955	284.38
463.393	296.08
463.832	363.95
464.27	310.12
464.708	366.29
465.145	272.67
465.583	354.59
466.021	303.1
466.459	338.21
466.897	352.25
467.334	282.03
467.772	354.59
468.209	352.25
468.647	296.08
469.084	387.36
469.522	370.97
469.959	279.69
470.396	317.14
470.833	321.82
471.271	333.53
471.708	349.91
472.145	298.42
472.582	293.74
473.019	338.21
473.456	312.46
473.892	361.61
474.329	368.63
474.766	319.48
475.202	282.03
475.639	314.8
476.076	270.33
476.512	324.16
476.949	296.08
477.385	338.21
477.821	260.97
478.258	303.1
478.694	312.46
479.13	326.5
479.566	324.16
480.002	387.36
480.438	291.4
480.874	333.53
481.31	349.91
481.746	312.46
482.181	319.48
482.617	408.42
483.053	349.91
483.488	338.21
483.924	183.73
484.36	324.16
484.795	312.46
485.23	319.48
485.666	310.12
486.101	321.82
486.536	307.78
486.971	338.21
487.407	211.82
487.842	328.85
488.277	352.25
488.712	326.5
489.146	385.02
489.581	270.33
490.016	338.21
490.451	363.95
490.885	354.59
491.32	342.89
491.755	340.55
492.189	319.48
492.624	289.06
493.058	326.5
493.492	335.87
493.927	310.12
494.361	314.8
494.795	256.29
495.229	331.19
495.663	298.42
496.097	272.67
496.531	317.14
496.965	310.12
497.399	300.76
497.833	331.19
498.266	333.53
498.7	317.14
499.134	324.16
499.567	319.48
500.001	347.57
500.434	298.42
500.868	321.82
501.301	246.93
501.734	347.57
502.168	296.08
502.601	349.91
503.034	356.93
503.467	291.4
503.9	286.72
504.333	312.46
504.766	352.25
505.199	389.7
505.632	333.53
506.064	321.82
506.497	319.48
506.93	326.5
507.362	275.01
507.795	368.63
508.227	328.85
508.66	356.93
509.092	349.91
509.524	328.85
509.956	324.16
510.389	324.16
510.821	342.89
511.253	291.4
511.685	328.85
512.117	317.14
512.549	363.95
512.981	340.55
513.412	319.48
513.844	361.61
514.276	340.55
514.707	345.23
515.139	291.4
515.571	328.85
516.002	303.1
516.433	352.25
516.865	317.14
517.296	324.16
517.727	394.38
518.159	267.99
518.59	326.5
519.021	345.23
519.452	303.1
519.883	375.66
520.314	293.74
520.744	246.93
521.175	312.46
521.606	380.34
522.037	338.21
522.467	286.72
522.898	319.48
523.328	361.61
523.759	307.78
524.189	403.74
524.62	265.65
525.05	296.08
525.48	331.19
525.91	293.74
526.341	338.21
526.771	291.4
527.201	321.82
527.631	296.08
528.061	277.35
528.49	338.21
528.92	385.02
529.35	356.93
529.78	368.63
530.209	326.5
530.639	352.25
531.068	319.48
531.498	314.8
531.927	319.48
532.357	359.27
532.786	340.55
533.215	380.34
533.644	298.42
534.074	338.21
534.503	239.9
534.932	286.72
535.361	307.78
535.79	303.1
536.218	342.89
536.647	270.33
537.076	275.01
537.505	312.46
537.933	352.25
538.362	359.27
538.79	368.63
539.219	361.61
539.647	300.76
540.076	284.38
540.504	305.44
540.932	314.8
541.36	321.82
541.788	314.8
542.217	366.29
542.645	359.27
543.073	340.55
543.5	277.35
543.928	335.87
544.356	342.89
544.784	253.95
545.211	235.22
545.639	289.06
546.067	345.23
546.494	335.87
546.922	272.67
547.349	361.61
547.776	317.14
548.204	307.78
548.631	289.06
549.058	324.16
549.485	335.87
549.912	260.97
550.339	331.19
550.766	298.42
551.193	279.69
551.62	368.63
552.047	335.87
552.474	319.48
552.9	368.63
553.327	349.91
553.754	319.48
554.18	321.82
554.607	338.21
555.033	352.25
555.459	338.21
555.886	375.66
556.312	356.93
556.738	333.53
557.164	326.5
557.59	328.85
558.016	314.8
558.442	389.7
558.868	298.42
559.294	317.14
559.72	366.29
560.145	354.59
560.571	335.87
560.997	307.78
561.422	279.69
561.848	347.57
562.273	298.42
562.699	331.19
563.124	317.14
563.549	298.42
563.974	324.16
564.4	368.63
564.825	286.72
565.25	270.33
565.675	275.01
566.1	415.45
566.525	310.12
566.95	298.42
567.374	289.06
567.799	305.44
568.224	263.31
568.648	286.72
569.073	275.01
569.497	345.23
569.922	298.42
570.346	338.21
570.771	326.5
571.195	413.1
571.619	354.59
572.043	312.46
572.467	338.21
572.891	326.5
573.315	282.03
573.739	321.82
574.163	324.16
574.587	333.53
575.011	298.42
575.435	310.12
575.858	328.85
576.282	349.91
576.705	246.93
577.129	321.82
577.552	300.76
577.976	324.16
578.399	338.21
578.822	319.48
579.245	352.25
579.669	333.53
580.092	289.06
580.515	319.48
580.938	291.4
581.361	331.19
581.784	345.23
582.206	345.23
582.629	333.53
583.052	296.08
583.474	361.61
583.897	340.55
584.32	331.19
584.742	340.55
585.165	284.38
585.587	340.55
586.009	361.61
586.431	370.97
586.854	286.72
587.276	338.21
587.698	314.8
588.12	335.87
588.542	401.4
588.964	303.1
589.386	310.12
589.807	349.91
590.229	312.46
590.651	349.91
591.073	356.93
591.494	291.4
591.916	366.29
592.337	286.72
592.759	361.61
593.18	319.48
593.601	347.57
594.022	328.85
594.444	307.78
594.865	317.14
595.286	356.93
595.707	272.67
596.128	291.4
596.549	293.74
596.97	326.5
597.39	342.89
597.811	244.59
598.232	225.86
598.652	272.67
599.073	321.82
599.494	373.32
599.914	370.97
600.334	314.8
600.755	314.8
601.175	286.72
601.595	303.1
602.015	340.55
602.436	279.69
602.856	378
603.276	331.19
603.696	310.12
604.115	328.85
604.535	363.95
604.955	338.21
605.375	319.48
605.794	342.89
606.214	319.48
606.634	331.19
607.053	286.72
607.473	263.31
607.892	218.84
608.311	361.61
608.731	291.4
609.15	293.74
609.569	291.4
609.988	305.44
610.407	354.59
610.826	338.21
611.245	338.21
611.664	258.63
612.083	232.88
612.501	392.04
612.92	272.67
613.339	314.8
613.757	265.65
614.176	335.87
614.594	317.14
615.013	277.35
615.431	392.04
615.85	370.97
616.268	373.32
616.686	335.87
617.104	298.42
617.522	317.14
617.94	410.76
618.358	298.42
618.776	312.46
619.194	359.27
619.612	340.55
620.03	345.23
620.447	209.48
620.865	286.72
621.282	291.4
621.7	310.12
622.117	256.29
622.535	296.08
622.952	321.82
623.369	328.85
623.787	352.25
624.204	347.57
624.621	317.14
625.038	333.53
625.455	352.25
625.872	326.5
626.289	277.35
626.706	373.32
627.123	307.78
627.539	317.14
627.956	303.1
628.373	303.1
628.789	349.91
629.206	284.38
629.622	260.97
630.038	319.48
630.455	282.03
630.871	277.35
631.287	300.76
631.703	303.1
632.12	314.8
632.536	352.25
632.952	373.32
633.368	324.16
633.783	291.4
634.199	326.5
634.615	293.74
635.031	345.23
635.446	363.95
635.862	380.34
636.277	289.06
636.693	305.44
637.108	368.63
637.524	368.63
637.939	349.91
638.354	270.33
638.77	340.55
639.185	389.7
639.6	342.89
640.015	314.8
640.43	317.14
640.845	370.97
641.259	298.42
641.674	275.01
642.089	275.01
642.504	279.69
642.918	340.55
643.333	289.06
643.747	300.76
644.162	347.57
644.576	326.5
644.991	328.85
645.405	345.23
645.819	417.79
646.233	291.4
646.647	321.82
647.061	291.4
647.475	340.55
647.889	326.5
648.303	310.12
648.717	305.44
649.131	319.48
649.545	305.44
649.958	307.78
650.372	324.16
650.785	265.65
651.199	366.29
651.612	279.69
652.026	354.59
652.439	284.38
652.852	310.12
653.266	277.35
653.679	345.23
654.092	373.32
654.505	244.59
654.918	380.34
655.331	279.69
655.744	312.46
656.156	321.82
656.569	324.16
656.982	312.46
657.394	317.14
657.807	310.12
658.22	263.31
658.632	275.01
659.044	342.89
659.457	293.74
659.869	385.02
660.281	291.4
660.693	370.97
661.106	284.38
661.518	305.44
661.93	291.4
662.342	352.25
662.754	331.19
663.165	291.4
663.577	293.74
663.989	324.16
664.401	307.78
664.812	352.25
665.224	310.12
665.635	305.44
666.047	354.59
666.458	265.65
666.869	368.63
667.281	389.7
667.692	340.55
668.103	321.82
668.514	389.7
668.925	286.72
669.336	349.91
669.747	272.67
670.158	296.08
670.569	312.46
670.979	349.91
671.39	328.85
671.801	328.85
672.211	307.78
672.622	291.4
673.032	310.12
673.443	272.67
673.853	310.12
674.263	303.1
674.674	333.53
675.084	314.8
675.494	286.72
675.904	338.21
676.314	314.8
676.724	326.5
677.134	317.14
677.544	335.87
677.953	347.57
678.363	251.61
678.773	368.63
679.182	392.04
679.592	307.78
680.001	352.25
680.411	275.01
680.82	305.44
681.23	284.38
681.639	307.78
682.048	363.95
682.457	300.76
682.866	401.4
683.275	361.61
683.684	387.36
684.093	396.72
684.502	310.12
684.911	340.55
685.32	335.87
685.728	267.99
686.137	328.85
686.546	286.72
686.954	403.74
687.363	401.4
687.771	349.91
688.179	310.12
688.588	317.14
688.996	253.95
689.404	321.82
689.812	380.34
690.22	319.48
690.628	303.1
691.036	277.35
691.444	399.06
691.852	354.59
692.26	324.16
692.667	342.89
693.075	303.1
693.483	321.82
693.89	317.14
694.298	246.93
694.705	265.65
695.112	286.72
695.52	305.44
695.927	378
696.334	310.12
696.741	319.48
697.148	289.06
697.555	326.5
697.962	305.44
698.369	389.7
698.776	277.35
699.183	307.78
699.59	307.78
699.996	326.5
700.403	331.19
700.81	331.19
701.216	317.14
701.623	279.69
702.029	368.63
702.435	403.74
702.842	324.16
703.248	270.33
703.654	382.68
704.06	342.89
704.466	310.12
704.872	242.25
705.278	303.1
705.684	246.93
706.09	340.55
706.496	282.03
706.901	293.74
707.307	361.61
707.712	370.97
708.118	324.16
708.523	286.72
708.929	296.08
709.334	237.56
709.74	331.19
710.145	363.95
710.55	312.46
710.955	326.5
711.36	356.93
711.765	333.53
712.17	312.46
712.575	375.66
712.98	766.53
713.385	431.83
713.789	326.5
714.194	300.76
714.599	305.44
715.003	331.19
715.408	333.53
715.812	335.87
716.217	319.48
716.621	378
717.025	319.48
717.429	317.14
717.833	335.87
718.238	300.76
718.642	300.76
719.046	333.53
719.449	260.97
719.853	275.01
720.257	319.48
720.661	347.57
721.065	359.27
721.468	335.87
721.872	342.89
722.275	324.16
722.679	319.48
723.082	319.48
723.485	265.65
723.889	312.46
724.292	265.65
724.695	324.16
725.098	361.61
725.501	272.67
725.904	319.48
726.307	338.21
726.71	293.74
727.113	242.25
727.516	310.12
727.918	361.61
728.321	375.66
728.724	296.08
729.126	340.55
729.529	319.48
729.931	326.5
730.333	366.29
730.736	340.55
731.138	338.21
731.54	319.48
731.942	303.1
732.344	356.93
732.746	258.63
733.148	333.53
733.55	328.85
733.952	319.48
734.354	314.8
734.756	359.27
735.157	312.46
735.559	342.89
735.96	413.1
736.362	392.04
736.763	338.21
737.165	310.12
737.566	284.38
737.967	328.85
738.368	335.87
738.77	305.44
739.171	361.61
739.572	352.25
739.973	328.85
740.374	354.59
740.774	307.78
741.175	317.14
741.576	359.27
741.977	253.95
742.377	326.5
742.778	293.74
743.178	270.33
743.579	342.89
743.979	267.99
744.379	354.59
744.78	296.08
745.18	312.46
745.58	312.46
745.98	289.06
746.38	321.82
746.78	270.33
747.18	291.4
747.58	291.4
747.98	284.38
748.38	399.06
748.779	331.19
749.179	305.44
749.578	324.16
749.978	272.67
750.377	265.65
750.777	263.31
751.176	251.61
751.575	289.06
751.975	310.12
752.374	352.25
752.773	328.85
753.172	307.78
753.571	335.87
753.97	282.03
754.369	284.38
754.768	296.08
755.166	270.33
755.565	256.29
755.964	356.93
756.362	296.08
756.761	368.63
757.159	368.63
757.558	389.7
757.956	319.48
758.354	307.78
758.753	314.8
759.151	366.29
759.549	265.65
759.947	263.31
760.345	303.1
760.743	326.5
761.141	314.8
761.539	366.29
761.936	375.66
762.334	352.25
762.732	307.78
763.129	284.38
763.527	305.44
763.924	347.57
764.322	270.33
764.719	312.46
765.117	305.44
765.514	289.06
