Data from Al_FLMS009871__1002__16-22-54-117.txt Node

Date: Fri Mar 08 16:22:54 CST 2024
User: pe5414po
Spectrometer: FLMS00987
Trigger mode: 0
Integration Time (sec): 1.000000E-1
Scans to average: 1
Electric dark correction enabled: true
Nonlinearity correction enabled: false
Boxcar width: 0
XAxis mode: Wavelengths
Number of Pixels in Spectrum: 2048
>>>>>Begin Spectral Data<<<<<
188.938	-38.47
189.409	-38.47
189.879	-38.47
190.349	-78.26
190.819	-80.6
191.29	-64.22
191.76	-57.2
192.23	-99.33
192.7	-92.3
193.17	-38.47
193.64	-10.39
194.109	-50.18
194.579	-29.11
195.049	27.06
195.519	76.21
195.988	24.72
196.458	38.77
196.927	85.58
197.397	71.53
197.866	45.79
198.336	71.53
198.805	209.62
199.274	172.18
199.744	165.15
200.213	254.09
200.682	235.37
201.151	218.99
201.62	200.26
202.089	226.01
202.558	190.9
203.027	247.07
203.495	256.43
203.964	279.84
204.433	233.03
204.902	275.16
205.37	275.16
205.839	345.38
206.307	291.54
206.776	249.41
207.244	303.25
207.712	331.33
208.181	249.41
208.649	307.93
209.117	249.41
209.585	270.48
210.053	359.42
210.521	300.91
210.989	244.73
211.457	286.86
211.925	291.54
212.393	303.25
212.861	237.71
213.328	256.43
213.796	282.18
214.264	270.48
214.731	251.75
215.199	331.33
215.666	251.75
216.133	312.61
216.601	282.18
217.068	240.05
217.535	289.2
218.003	216.65
218.47	209.62
218.937	326.65
219.404	343.03
219.871	319.63
220.338	279.84
220.805	186.22
221.271	333.67
221.738	305.59
222.205	303.25
222.671	272.82
223.138	258.78
223.605	291.54
224.071	244.73
224.538	317.29
225.004	251.75
225.47	263.46
225.937	256.43
226.403	298.56
226.869	319.63
227.335	216.65
227.801	242.39
228.267	321.97
228.733	296.22
229.199	284.52
229.665	261.12
230.131	282.18
230.597	247.07
231.062	282.18
231.528	289.2
231.994	347.72
232.459	251.75
232.925	242.39
233.39	256.43
233.856	263.46
234.321	293.88
234.786	310.27
235.252	240.05
235.717	247.07
236.182	270.48
236.647	228.35
237.112	247.07
237.577	254.09
238.042	256.43
238.507	300.91
238.972	354.74
239.436	307.93
239.901	298.56
240.366	242.39
240.83	265.8
241.295	277.5
241.76	277.5
242.224	300.91
242.688	352.4
243.153	284.52
243.617	291.54
244.081	249.41
244.545	251.75
245.01	244.73
245.474	298.56
245.938	350.06
246.402	305.59
246.866	286.86
247.33	284.52
247.793	286.86
248.257	265.8
248.721	272.82
249.185	352.4
249.648	261.12
250.112	202.6
250.575	284.52
251.039	279.84
251.502	254.09
251.965	272.82
252.429	254.09
252.892	237.71
253.355	258.78
253.818	293.88
254.281	265.8
254.744	261.12
255.207	293.88
255.67	300.91
256.133	233.03
256.596	298.56
257.059	263.46
257.522	218.99
257.984	293.88
258.447	249.41
258.909	226.01
259.372	275.16
259.834	251.75
260.297	298.56
260.759	286.86
261.221	312.61
261.684	251.75
262.146	310.27
262.608	277.5
263.07	263.46
263.532	251.75
263.994	282.18
264.456	256.43
264.918	254.09
265.38	265.8
265.842	254.09
266.303	321.97
266.765	364.1
267.227	256.43
267.688	289.2
268.15	233.03
268.611	364.1
269.072	300.91
269.534	303.25
269.995	310.27
270.456	268.14
270.918	268.14
271.379	279.84
271.84	284.52
272.301	289.2
272.762	343.03
273.223	305.59
273.684	240.05
274.144	336.01
274.605	272.82
275.066	277.5
275.527	254.09
275.987	310.27
276.448	300.91
276.908	298.56
277.369	338.35
277.829	261.12
278.289	284.52
278.75	261.12
279.21	305.59
279.67	345.38
280.13	230.69
280.59	317.29
281.05	268.14
281.51	305.59
281.97	305.59
282.43	263.46
282.89	244.73
283.35	305.59
283.809	272.82
284.269	254.09
284.729	307.93
285.188	247.07
285.648	296.22
286.107	265.8
286.567	307.93
287.026	352.4
287.485	228.35
287.944	258.78
288.404	345.38
288.863	286.86
289.322	300.91
289.781	307.93
290.24	244.73
290.699	300.91
291.158	226.01
291.616	284.52
292.075	328.99
292.534	279.84
292.992	261.12
293.451	303.25
293.91	256.43
294.368	265.8
294.827	338.35
295.285	291.54
295.743	289.2
296.202	289.2
296.66	261.12
297.118	331.33
297.576	284.52
298.034	272.82
298.492	300.91
298.95	314.95
299.408	261.12
299.866	256.43
300.324	261.12
300.781	265.8
301.239	314.95
301.697	254.09
302.154	293.88
302.612	333.67
303.069	317.29
303.527	310.27
303.984	326.65
304.441	289.2
304.899	319.63
305.356	282.18
305.813	251.75
306.27	333.67
306.727	305.59
307.184	298.56
307.641	298.56
308.098	324.31
308.555	291.54
309.012	286.86
309.468	268.14
309.925	282.18
310.382	328.99
310.838	270.48
311.295	240.05
311.751	221.33
312.208	293.88
312.664	293.88
313.12	305.59
313.577	282.18
314.033	272.82
314.489	303.25
314.945	284.52
315.401	286.86
315.857	303.25
316.313	317.29
316.769	233.03
317.225	312.61
317.681	300.91
318.136	312.61
318.592	240.05
319.048	300.91
319.503	275.16
319.959	275.16
320.414	298.56
320.869	347.72
321.325	261.12
321.78	298.56
322.235	336.01
322.691	268.14
323.146	303.25
323.601	254.09
324.056	244.73
324.511	324.31
324.966	338.35
325.421	317.29
325.875	312.61
326.33	336.01
326.785	338.35
327.24	275.16
327.694	389.85
328.149	326.65
328.603	352.4
329.058	237.71
329.512	340.69
329.966	305.59
330.421	268.14
330.875	328.99
331.329	326.65
331.783	321.97
332.237	314.95
332.691	272.82
333.145	261.12
333.599	258.78
334.053	307.93
334.507	324.31
334.96	275.16
335.414	286.86
335.868	277.5
336.321	296.22
336.775	305.59
337.228	293.88
337.682	310.27
338.135	343.03
338.588	296.22
339.042	361.76
339.495	354.74
339.948	303.25
340.401	314.95
340.854	300.91
341.307	319.63
341.76	286.86
342.213	307.93
342.666	286.86
343.119	298.56
343.571	331.33
344.024	277.5
344.477	244.73
344.929	286.86
345.382	226.01
345.834	275.16
346.287	268.14
346.739	303.25
347.191	249.41
347.644	289.2
348.096	340.69
348.548	314.95
349	326.65
349.452	263.46
349.904	333.67
350.356	247.07
350.808	277.5
351.26	300.91
351.711	331.33
352.163	268.14
352.615	298.56
353.066	291.54
353.518	364.1
353.969	284.52
354.421	258.78
354.872	371.12
355.324	326.65
355.775	366.44
356.226	284.52
356.677	300.91
357.128	305.59
357.579	328.99
358.03	340.69
358.481	340.69
358.932	247.07
359.383	328.99
359.834	275.16
360.285	326.65
360.735	307.93
361.186	336.01
361.637	321.97
362.087	312.61
362.538	352.4
362.988	282.18
363.438	328.99
363.889	298.56
364.339	364.1
364.789	319.63
365.239	307.93
365.689	298.56
366.139	286.86
366.589	352.4
367.039	336.01
367.489	300.91
367.939	254.09
368.389	371.12
368.839	254.09
369.288	300.91
369.738	321.97
370.187	336.01
370.637	286.86
371.086	317.29
371.536	307.93
371.985	270.48
372.434	357.08
372.884	310.27
373.333	216.65
373.782	263.46
374.231	333.67
374.68	293.88
375.129	321.97
375.578	218.99
376.027	279.84
376.475	272.82
376.924	265.8
377.373	307.93
377.822	364.1
378.27	319.63
378.719	293.88
379.167	293.88
379.616	314.95
380.064	343.03
380.512	326.65
380.961	326.65
381.409	293.88
381.857	328.99
382.305	240.05
382.753	324.31
383.201	408.57
383.649	200.26
384.097	317.29
384.545	366.44
384.992	291.54
385.44	296.22
385.888	298.56
386.335	282.18
386.783	312.61
387.231	312.61
387.678	305.59
388.125	282.18
388.573	289.2
389.02	298.56
389.467	242.39
389.914	268.14
390.362	289.2
390.809	282.18
391.256	343.03
391.703	324.31
392.15	254.09
392.596	371.12
393.043	307.93
393.49	352.4
393.937	347.72
394.383	307.93
394.83	263.46
395.276	328.99
395.723	305.59
396.169	293.88
396.616	314.95
397.062	289.2
397.508	317.29
397.954	254.09
398.401	289.2
398.847	338.35
399.293	305.59
399.739	328.99
400.185	368.78
400.631	240.05
401.076	359.42
401.522	310.27
401.968	303.25
402.414	293.88
402.859	375.8
403.305	317.29
403.75	345.38
404.196	312.61
404.641	298.56
405.086	218.99
405.532	319.63
405.977	254.09
406.422	279.84
406.867	254.09
407.312	307.93
407.757	307.93
408.202	321.97
408.647	343.03
409.092	289.2
409.537	305.59
409.982	328.99
410.426	368.78
410.871	244.73
411.316	254.09
411.76	343.03
412.205	265.8
412.649	340.69
413.093	354.74
413.538	307.93
413.982	357.08
414.426	340.69
414.87	345.38
415.314	403.89
415.758	286.86
416.202	364.1
416.646	284.52
417.09	314.95
417.534	275.16
417.978	319.63
418.421	394.53
418.865	275.16
419.309	343.03
419.752	317.29
420.196	298.56
420.639	261.12
421.083	331.33
421.526	296.22
421.969	263.46
422.412	328.99
422.856	272.82
423.299	307.93
423.742	291.54
424.185	251.75
424.628	237.71
425.071	312.61
425.513	380.48
425.956	275.16
426.399	328.99
426.842	265.8
427.284	326.65
427.727	328.99
428.169	326.65
428.612	293.88
429.054	326.65
429.497	296.22
429.939	251.75
430.381	282.18
430.823	336.01
431.265	328.99
431.707	240.05
432.149	282.18
432.591	326.65
433.033	343.03
433.475	237.71
433.917	240.05
434.359	336.01
434.8	338.35
435.242	300.91
435.684	340.69
436.125	375.8
436.567	380.48
437.008	279.84
437.449	303.25
437.891	289.2
438.332	354.74
438.773	286.86
439.214	300.91
439.656	261.12
440.097	371.12
440.538	347.72
440.978	268.14
441.419	307.93
441.86	277.5
442.301	333.67
442.742	312.61
443.182	272.82
443.623	338.35
444.063	357.08
444.504	310.27
444.944	298.56
445.385	279.84
445.825	359.42
446.265	364.1
446.706	270.48
447.146	357.08
447.586	385.16
448.026	321.97
448.466	296.22
448.906	371.12
449.346	312.61
449.786	387.5
450.225	321.97
450.665	310.27
451.105	328.99
451.544	401.55
451.984	293.88
452.424	298.56
452.863	336.01
453.302	307.93
453.742	310.27
454.181	359.42
454.62	286.86
455.059	286.86
455.499	282.18
455.938	275.16
456.377	312.61
456.816	282.18
457.254	361.76
457.693	336.01
458.132	298.56
458.571	317.29
459.01	247.07
459.448	277.5
459.887	286.86
460.325	366.44
460.764	263.46
461.202	261.12
461.641	254.09
462.079	314.95
462.517	359.42
462.955	317.29
463.393	361.76
463.832	242.39
464.27	310.27
464.708	307.93
465.145	375.8
465.583	389.85
466.021	314.95
466.459	312.61
466.897	258.78
467.334	289.2
467.772	333.67
468.209	347.72
468.647	326.65
469.084	310.27
469.522	357.08
469.959	310.27
470.396	326.65
470.833	366.44
471.271	237.71
471.708	289.2
472.145	345.38
472.582	268.14
473.019	331.33
473.456	354.74
473.892	343.03
474.329	263.46
474.766	361.76
475.202	233.03
475.639	291.54
476.076	272.82
476.512	321.97
476.949	310.27
477.385	277.5
477.821	307.93
478.258	293.88
478.694	251.75
479.13	340.69
479.566	352.4
480.002	371.12
480.438	284.52
480.874	319.63
481.31	340.69
481.746	277.5
482.181	324.31
482.617	345.38
483.053	284.52
483.488	284.52
483.924	328.99
484.36	338.35
484.795	272.82
485.23	321.97
485.666	345.38
486.101	289.2
486.536	340.69
486.971	373.46
487.407	354.74
487.842	328.99
488.277	310.27
488.712	279.84
489.146	333.67
489.581	310.27
490.016	331.33
490.451	317.29
490.885	371.12
491.32	296.22
491.755	298.56
492.189	354.74
492.624	258.78
493.058	305.59
493.492	277.5
493.927	282.18
494.361	328.99
494.795	310.27
495.229	296.22
495.663	380.48
496.097	321.97
496.531	321.97
496.965	265.8
497.399	272.82
497.833	343.03
498.266	284.52
498.7	289.2
499.134	340.69
499.567	307.93
500.001	282.18
500.434	307.93
500.868	268.14
501.301	331.33
501.734	347.72
502.168	265.8
502.601	300.91
503.034	272.82
503.467	326.65
503.9	317.29
504.333	251.75
504.766	336.01
505.199	354.74
505.632	338.35
506.064	277.5
506.497	268.14
506.93	394.53
507.362	455.38
507.795	359.42
508.227	333.67
508.66	314.95
509.092	298.56
509.524	361.76
509.956	317.29
510.389	375.8
510.821	385.16
511.253	277.5
511.685	314.95
512.117	319.63
512.549	387.5
512.981	251.75
513.412	314.95
513.844	230.69
514.276	265.8
514.707	359.42
515.139	305.59
515.571	347.72
516.002	394.53
516.433	331.33
516.865	321.97
517.296	286.86
517.727	345.38
518.159	368.78
518.59	336.01
519.021	303.25
519.452	300.91
519.883	352.4
520.314	326.65
520.744	319.63
521.175	298.56
521.606	303.25
522.037	343.03
522.467	300.91
522.898	307.93
523.328	361.76
523.759	289.2
524.189	333.67
524.62	312.61
525.05	263.46
525.48	272.82
525.91	277.5
526.341	282.18
526.771	261.12
527.201	251.75
527.631	312.61
528.061	263.46
528.49	270.48
528.92	291.54
529.35	328.99
529.78	336.01
530.209	293.88
530.639	310.27
531.068	336.01
531.498	307.93
531.927	361.76
532.357	364.1
532.786	256.43
533.215	343.03
533.644	338.35
534.074	314.95
534.503	268.14
534.932	298.56
535.361	258.78
535.79	321.97
536.218	371.12
536.647	319.63
537.076	328.99
537.505	324.31
537.933	284.52
538.362	263.46
538.79	303.25
539.219	303.25
539.647	319.63
540.076	312.61
540.504	359.42
540.932	317.29
541.36	345.38
541.788	303.25
542.217	364.1
542.645	312.61
543.073	343.03
543.5	314.95
543.928	340.69
544.356	258.78
544.784	359.42
545.211	314.95
545.639	357.08
546.067	317.29
546.494	403.89
546.922	275.16
547.349	300.91
547.776	312.61
548.204	314.95
548.631	265.8
549.058	303.25
549.485	321.97
549.912	293.88
550.339	352.4
550.766	279.84
551.193	293.88
551.62	218.99
552.047	336.01
552.474	343.03
552.9	282.18
553.327	284.52
553.754	321.97
554.18	324.31
554.607	352.4
555.033	298.56
555.459	326.65
555.886	298.56
556.312	338.35
556.738	296.22
557.164	254.09
557.59	286.86
558.016	235.37
558.442	359.42
558.868	314.95
559.294	293.88
559.72	314.95
560.145	298.56
560.571	368.78
560.997	352.4
561.422	284.52
561.848	352.4
562.273	263.46
562.699	270.48
563.124	286.86
563.549	364.1
563.974	352.4
564.4	307.93
564.825	263.46
565.25	263.46
565.675	324.31
566.1	357.08
566.525	314.95
566.95	307.93
567.374	298.56
567.799	244.73
568.224	312.61
568.648	366.44
569.073	343.03
569.497	300.91
569.922	350.06
570.346	303.25
570.771	326.65
571.195	343.03
571.619	307.93
572.043	289.2
572.467	378.14
572.891	314.95
573.315	347.72
573.739	357.08
574.163	343.03
574.587	289.2
575.011	300.91
575.435	303.25
575.858	307.93
576.282	375.8
576.705	371.12
577.129	307.93
577.552	326.65
577.976	324.31
578.399	279.84
578.822	328.99
579.245	282.18
579.669	268.14
580.092	343.03
580.515	324.31
580.938	289.2
581.361	359.42
581.784	277.5
582.206	338.35
582.629	268.14
583.052	328.99
583.474	331.33
583.897	371.12
584.32	321.97
584.742	305.59
585.165	303.25
585.587	359.42
586.009	296.22
586.431	293.88
586.854	296.22
587.276	331.33
587.698	275.16
588.12	277.5
588.542	270.48
588.964	347.72
589.386	354.74
589.807	307.93
590.229	366.44
590.651	286.86
591.073	312.61
591.494	333.67
591.916	268.14
592.337	307.93
592.759	300.91
593.18	312.61
593.601	328.99
594.022	305.59
594.444	314.95
594.865	293.88
595.286	331.33
595.707	293.88
596.128	305.59
596.549	258.78
596.97	237.71
597.39	359.42
597.811	289.2
598.232	366.44
598.652	319.63
599.073	303.25
599.494	303.25
599.914	319.63
600.334	289.2
600.755	289.2
601.175	359.42
601.595	373.46
602.015	270.48
602.436	277.5
602.856	417.93
603.276	345.38
603.696	305.59
604.115	272.82
604.535	324.31
604.955	268.14
605.375	305.59
605.794	352.4
606.214	275.16
606.634	249.41
607.053	328.99
607.473	328.99
607.892	319.63
608.311	364.1
608.731	226.01
609.15	331.33
609.569	326.65
609.988	354.74
610.407	282.18
610.826	303.25
611.245	321.97
611.664	324.31
612.083	328.99
612.501	331.33
612.92	293.88
613.339	289.2
613.757	328.99
614.176	321.97
614.594	317.29
615.013	293.88
615.431	324.31
615.85	247.07
616.268	307.93
616.686	328.99
617.104	364.1
617.522	286.86
617.94	275.16
618.358	282.18
618.776	312.61
619.194	286.86
619.612	282.18
620.03	354.74
620.447	270.48
620.865	279.84
621.282	272.82
621.7	368.78
622.117	361.76
622.535	371.12
622.952	282.18
623.369	284.52
623.787	303.25
624.204	366.44
624.621	399.21
625.038	279.84
625.455	298.56
625.872	336.01
626.289	392.19
626.706	338.35
627.123	394.53
627.539	343.03
627.956	333.67
628.373	277.5
628.789	303.25
629.206	354.74
629.622	357.08
630.038	343.03
630.455	333.67
630.871	345.38
631.287	385.16
631.703	307.93
632.12	310.27
632.536	343.03
632.952	371.12
633.368	275.16
633.783	389.85
634.199	336.01
634.615	389.85
635.031	291.54
635.446	247.07
635.862	324.31
636.277	268.14
636.693	291.54
637.108	270.48
637.524	270.48
637.939	314.95
638.354	338.35
638.77	326.65
639.185	333.67
639.6	272.82
640.015	352.4
640.43	326.65
640.845	338.35
641.259	277.5
641.674	307.93
642.089	385.16
642.504	328.99
642.918	368.78
643.333	319.63
643.747	249.41
644.162	345.38
644.576	307.93
644.991	321.97
645.405	307.93
645.819	310.27
646.233	310.27
646.647	282.18
647.061	307.93
647.475	371.12
647.889	284.52
648.303	312.61
648.717	256.43
649.131	319.63
649.545	328.99
649.958	237.71
650.372	331.33
650.785	293.88
651.199	350.06
651.612	279.84
652.026	270.48
652.439	303.25
652.852	289.2
653.266	298.56
653.679	296.22
654.092	343.03
654.505	284.52
654.918	286.86
655.331	244.73
655.744	324.31
656.156	371.12
656.569	307.93
656.982	385.16
657.394	261.12
657.807	343.03
658.22	300.91
658.632	300.91
659.044	303.25
659.457	300.91
659.869	338.35
660.281	265.8
660.693	279.84
661.106	279.84
661.518	359.42
661.93	350.06
662.342	312.61
662.754	343.03
663.165	310.27
663.577	326.65
663.989	312.61
664.401	336.01
664.812	277.5
665.224	303.25
665.635	380.48
666.047	307.93
666.458	291.54
666.869	328.99
667.281	312.61
667.692	296.22
668.103	343.03
668.514	321.97
668.925	303.25
669.336	275.16
669.747	361.76
670.158	333.67
670.569	256.43
670.979	270.48
671.39	345.38
671.801	314.95
672.211	310.27
672.622	336.01
673.032	352.4
673.443	314.95
673.853	282.18
674.263	284.52
674.674	328.99
675.084	347.72
675.494	357.08
675.904	261.12
676.314	298.56
676.724	326.65
677.134	336.01
677.544	312.61
677.953	333.67
678.363	286.86
678.773	371.12
679.182	296.22
679.592	293.88
680.001	310.27
680.411	319.63
680.82	352.4
681.23	305.59
681.639	293.88
682.048	256.43
682.457	336.01
682.866	324.31
683.275	343.03
683.684	298.56
684.093	265.8
684.502	328.99
684.911	249.41
685.32	258.78
685.728	286.86
686.137	237.71
686.546	326.65
686.954	357.08
687.363	291.54
687.771	277.5
688.179	312.61
688.588	305.59
688.996	307.93
689.404	326.65
689.812	258.78
690.22	336.01
690.628	310.27
691.036	305.59
691.444	403.89
691.852	333.67
692.26	343.03
692.667	340.69
693.075	268.14
693.483	279.84
693.89	263.46
694.298	305.59
694.705	261.12
695.112	324.31
695.52	347.72
695.927	270.48
696.334	357.08
696.741	338.35
697.148	310.27
697.555	307.93
697.962	310.27
698.369	289.2
698.776	293.88
699.183	293.88
699.59	343.03
699.996	312.61
700.403	286.86
700.81	317.29
701.216	293.88
701.623	366.44
702.029	359.42
702.435	347.72
702.842	291.54
703.248	303.25
703.654	228.35
704.06	364.1
704.466	289.2
704.872	293.88
705.278	270.48
705.684	284.52
706.09	314.95
706.496	277.5
706.901	312.61
707.307	333.67
707.712	373.46
708.118	328.99
708.523	366.44
708.929	331.33
709.334	324.31
709.74	300.91
710.145	275.16
710.55	298.56
710.955	298.56
711.36	319.63
711.765	293.88
712.17	340.69
712.575	328.99
712.98	876.68
713.385	354.74
713.789	368.78
714.194	256.43
714.599	345.38
715.003	296.22
715.408	328.99
715.812	293.88
716.217	350.06
716.621	310.27
717.025	254.09
717.429	336.01
717.833	307.93
718.238	298.56
718.642	293.88
719.046	293.88
719.449	366.44
719.853	333.67
720.257	310.27
720.661	298.56
721.065	382.82
721.468	256.43
721.872	352.4
722.275	336.01
722.679	319.63
723.082	305.59
723.485	293.88
723.889	343.03
724.292	310.27
724.695	336.01
725.098	314.95
725.501	331.33
725.904	375.8
726.307	345.38
726.71	314.95
727.113	324.31
727.516	307.93
727.918	345.38
728.321	314.95
728.724	286.86
729.126	310.27
729.529	296.22
729.931	347.72
730.333	347.72
730.736	282.18
731.138	247.07
731.54	357.08
731.942	303.25
732.344	298.56
732.746	307.93
733.148	336.01
733.55	251.75
733.952	284.52
734.354	328.99
734.756	314.95
735.157	272.82
735.559	296.22
735.96	279.84
736.362	275.16
736.763	328.99
737.165	321.97
737.566	300.91
737.967	333.67
738.368	321.97
738.77	345.38
739.171	331.33
739.572	382.82
739.973	357.08
740.374	293.88
740.774	291.54
741.175	279.84
741.576	314.95
741.977	354.74
742.377	312.61
742.778	382.82
743.178	314.95
743.579	319.63
743.979	300.91
744.379	279.84
744.78	291.54
745.18	328.99
745.58	298.56
745.98	261.12
746.38	282.18
746.78	289.2
747.18	303.25
747.58	324.31
747.98	277.5
748.38	307.93
748.779	371.12
749.179	340.69
749.578	343.03
749.978	352.4
750.377	249.41
750.777	296.22
751.176	279.84
751.575	300.91
751.975	254.09
752.374	338.35
752.773	324.31
753.172	282.18
753.571	265.8
753.97	378.14
754.369	303.25
754.768	314.95
755.166	293.88
755.565	359.42
755.964	289.2
756.362	392.19
756.761	338.35
757.159	270.48
757.558	378.14
757.956	333.67
758.354	310.27
758.753	293.88
759.151	305.59
759.549	275.16
759.947	291.54
760.345	382.82
760.743	270.48
761.141	333.67
761.539	251.75
761.936	350.06
762.334	338.35
762.732	305.59
763.129	375.8
763.527	286.86
763.924	312.61
764.322	387.5
764.719	319.63
