Data from Al_FLMS009871__1009__16-22-54-817.txt Node

Date: Fri Mar 08 16:22:54 CST 2024
User: pe5414po
Spectrometer: FLMS00987
Trigger mode: 0
Integration Time (sec): 1.000000E-1
Scans to average: 1
Electric dark correction enabled: true
Nonlinearity correction enabled: false
Boxcar width: 0
XAxis mode: Wavelengths
Number of Pixels in Spectrum: 2048
>>>>>Begin Spectral Data<<<<<
188.938	-165.01
189.409	-165.01
189.879	-165.01
190.349	-155.65
190.819	-90.11
191.29	-83.09
191.76	-106.49
192.23	-36.28
192.7	-148.62
193.17	-64.36
193.64	-71.39
194.109	-92.45
194.579	-29.26
195.049	50.32
195.519	92.45
195.988	-17.55
196.458	83.09
196.927	101.81
197.397	76.07
197.866	120.54
198.336	125.22
198.805	190.75
199.274	129.9
199.744	195.43
200.213	279.69
200.682	193.09
201.151	230.54
201.62	232.88
202.089	209.48
202.558	242.25
203.027	267.99
203.495	263.31
203.964	242.25
204.433	277.35
204.902	275.01
205.37	352.25
205.839	284.38
206.307	359.27
206.776	272.67
207.244	305.44
207.712	342.89
208.181	286.72
208.649	272.67
209.117	298.42
209.585	286.72
210.053	310.12
210.521	310.12
210.989	270.33
211.457	307.78
211.925	333.53
212.393	275.01
212.861	279.69
213.328	317.14
213.796	232.88
214.264	239.9
214.731	296.08
215.199	289.06
215.666	279.69
216.133	246.93
216.601	249.27
217.068	253.95
217.535	275.01
218.003	275.01
218.47	253.95
218.937	282.03
219.404	260.97
219.871	305.44
220.338	286.72
220.805	218.84
221.271	223.52
221.738	190.75
222.205	216.5
222.671	160.33
223.138	296.08
223.605	251.61
224.071	225.86
224.538	317.14
225.004	260.97
225.47	267.99
225.937	260.97
226.403	293.74
226.869	289.06
227.335	293.74
227.801	314.8
228.267	312.46
228.733	314.8
229.199	223.52
229.665	310.12
230.131	253.95
230.597	272.67
231.062	253.95
231.528	223.52
231.994	293.74
232.459	251.61
232.925	284.38
233.39	284.38
233.856	284.38
234.321	296.08
234.786	298.42
235.252	296.08
235.717	235.22
236.182	286.72
236.647	319.48
237.112	307.78
237.577	319.48
238.042	228.2
238.507	253.95
238.972	284.38
239.436	232.88
239.901	279.69
240.366	216.5
240.83	293.74
241.295	314.8
241.76	293.74
242.224	279.69
242.688	284.38
243.153	300.76
243.617	277.35
244.081	244.59
244.545	340.55
245.01	244.59
245.474	256.29
245.938	328.85
246.402	279.69
246.866	253.95
247.33	303.1
247.793	328.85
248.257	279.69
248.721	256.29
249.185	260.97
249.648	244.59
250.112	275.01
250.575	251.61
251.039	263.31
251.502	242.25
251.965	260.97
252.429	300.76
252.892	340.55
253.355	298.42
253.818	279.69
254.281	307.78
254.744	298.42
255.207	338.21
255.67	260.97
256.133	289.06
256.596	275.01
257.059	289.06
257.522	270.33
257.984	228.2
258.447	284.38
258.909	324.16
259.372	237.56
259.834	349.91
260.297	333.53
260.759	239.9
261.221	314.8
261.684	300.76
262.146	277.35
262.608	258.63
263.07	356.93
263.532	286.72
263.994	321.82
264.456	263.31
264.918	249.27
265.38	340.55
265.842	267.99
266.303	314.8
266.765	307.78
267.227	314.8
267.688	277.35
268.15	314.8
268.611	291.4
269.072	232.88
269.534	296.08
269.995	258.63
270.456	324.16
270.918	349.91
271.379	275.01
271.84	263.31
272.301	267.99
272.762	286.72
273.223	239.9
273.684	305.44
274.144	312.46
274.605	239.9
275.066	314.8
275.527	249.27
275.987	366.29
276.448	296.08
276.908	319.48
277.369	305.44
277.829	314.8
278.289	345.23
278.75	375.66
279.21	307.78
279.67	324.16
280.13	300.76
280.59	270.33
281.05	303.1
281.51	293.74
281.97	253.95
282.43	303.1
282.89	284.38
283.35	291.4
283.809	277.35
284.269	256.29
284.729	258.63
285.188	249.27
285.648	284.38
286.107	356.93
286.567	324.16
287.026	263.31
287.485	282.03
287.944	296.08
288.404	321.82
288.863	319.48
289.322	307.78
289.781	260.97
290.24	277.35
290.699	380.34
291.158	265.65
291.616	242.25
292.075	293.74
292.534	305.44
292.992	296.08
293.451	296.08
293.91	265.65
294.368	305.44
294.827	347.57
295.285	277.35
295.743	286.72
296.202	291.4
296.66	202.46
297.118	270.33
297.576	380.34
298.034	305.44
298.492	317.14
298.95	333.53
299.408	317.14
299.866	385.02
300.324	319.48
300.781	289.06
301.239	338.21
301.697	251.61
302.154	312.46
302.612	321.82
303.069	260.97
303.527	321.82
303.984	312.46
304.441	258.63
304.899	347.57
305.356	321.82
305.813	305.44
306.27	314.8
306.727	202.46
307.184	326.5
307.641	310.12
308.098	286.72
308.555	258.63
309.012	267.99
309.468	345.23
309.925	256.29
310.382	263.31
310.838	286.72
311.295	305.44
311.751	237.56
312.208	291.4
312.664	298.42
313.12	324.16
313.577	258.63
314.033	296.08
314.489	279.69
314.945	373.32
315.401	296.08
315.857	239.9
316.313	319.48
316.769	293.74
317.225	345.23
317.681	310.12
318.136	324.16
318.592	298.42
319.048	263.31
319.503	307.78
319.959	284.38
320.414	282.03
320.869	363.95
321.325	321.82
321.78	270.33
322.235	300.76
322.691	298.42
323.146	275.01
323.601	356.93
324.056	279.69
324.511	279.69
324.966	326.5
325.421	267.99
325.875	232.88
326.33	340.55
326.785	303.1
327.24	317.14
327.694	333.53
328.149	303.1
328.603	258.63
329.058	267.99
329.512	279.69
329.966	244.59
330.421	258.63
330.875	239.9
331.329	361.61
331.783	246.93
332.237	321.82
332.691	347.57
333.145	328.85
333.599	296.08
334.053	305.44
334.507	310.12
334.96	340.55
335.414	317.14
335.868	296.08
336.321	310.12
336.775	312.46
337.228	249.27
337.682	321.82
338.135	342.89
338.588	298.42
339.042	305.44
339.495	328.85
339.948	310.12
340.401	296.08
340.854	298.42
341.307	375.66
341.76	284.38
342.213	331.19
342.666	338.21
343.119	298.42
343.571	293.74
344.024	244.59
344.477	361.61
344.929	284.38
345.382	307.78
345.834	356.93
346.287	363.95
346.739	319.48
347.191	324.16
347.644	317.14
348.096	312.46
348.548	317.14
349	265.65
349.452	263.31
349.904	340.55
350.356	352.25
350.808	349.91
351.26	361.61
351.711	359.27
352.163	347.57
352.615	277.35
353.066	291.4
353.518	258.63
353.969	277.35
354.421	298.42
354.872	352.25
355.324	265.65
355.775	319.48
356.226	310.12
356.677	293.74
357.128	272.67
357.579	249.27
358.03	326.5
358.481	363.95
358.932	356.93
359.383	289.06
359.834	263.31
360.285	312.46
360.735	298.42
361.186	293.74
361.637	349.91
362.087	335.87
362.538	324.16
362.988	298.42
363.438	338.21
363.889	352.25
364.339	293.74
364.789	277.35
365.239	303.1
365.689	349.91
366.139	347.57
366.589	314.8
367.039	352.25
367.489	291.4
367.939	338.21
368.389	321.82
368.839	291.4
369.288	267.99
369.738	321.82
370.187	335.87
370.637	361.61
371.086	317.14
371.536	305.44
371.985	286.72
372.434	331.19
372.884	282.03
373.333	265.65
373.782	305.44
374.231	244.59
374.68	356.93
375.129	349.91
375.578	361.61
376.027	347.57
376.475	275.01
376.924	340.55
377.373	277.35
377.822	319.48
378.27	349.91
378.719	324.16
379.167	338.21
379.616	324.16
380.064	293.74
380.512	305.44
380.961	319.48
381.409	317.14
381.857	277.35
382.305	310.12
382.753	225.86
383.201	246.93
383.649	256.29
384.097	286.72
384.545	270.33
384.992	303.1
385.44	310.12
385.888	333.53
386.335	305.44
386.783	246.93
387.231	300.76
387.678	307.78
388.125	324.16
388.573	277.35
389.02	296.08
389.467	265.65
389.914	303.1
390.362	347.57
390.809	356.93
391.256	310.12
391.703	352.25
392.15	277.35
392.596	321.82
393.043	321.82
393.49	270.33
393.937	291.4
394.383	394.38
394.83	333.53
395.276	282.03
395.723	345.23
396.169	284.38
396.616	410.76
397.062	328.85
397.508	317.14
397.954	284.38
398.401	244.59
398.847	345.23
399.293	340.55
399.739	293.74
400.185	263.31
400.631	354.59
401.076	335.87
401.522	394.38
401.968	319.48
402.414	270.33
402.859	321.82
403.305	335.87
403.75	270.33
404.196	307.78
404.641	326.5
405.086	342.89
405.532	340.55
405.977	359.27
406.422	284.38
406.867	303.1
407.312	272.67
407.757	291.4
408.202	314.8
408.647	305.44
409.092	361.61
409.537	298.42
409.982	321.82
410.426	319.48
410.871	328.85
411.316	324.16
411.76	312.46
412.205	305.44
412.649	392.04
413.093	321.82
413.538	249.27
413.982	253.95
414.426	333.53
414.87	289.06
415.314	319.48
415.758	291.4
416.202	312.46
416.646	324.16
417.09	335.87
417.534	307.78
417.978	359.27
418.421	300.76
418.865	310.12
419.309	289.06
419.752	368.63
420.196	225.86
420.639	387.36
421.083	265.65
421.526	354.59
421.969	310.12
422.412	307.78
422.856	324.16
423.299	267.99
423.742	368.63
424.185	331.19
424.628	251.61
425.071	324.16
425.513	244.59
425.956	338.21
426.399	385.02
426.842	331.19
427.284	319.48
427.727	256.29
428.169	312.46
428.612	284.38
429.054	394.38
429.497	363.95
429.939	277.35
430.381	338.21
430.823	361.61
431.265	303.1
431.707	345.23
432.149	282.03
432.591	326.5
433.033	328.85
433.475	338.21
433.917	293.74
434.359	382.68
434.8	368.63
435.242	289.06
435.684	293.74
436.125	310.12
436.567	298.42
437.008	286.72
437.449	392.04
437.891	314.8
438.332	298.42
438.773	335.87
439.214	282.03
439.656	349.91
440.097	342.89
440.538	317.14
440.978	321.82
441.419	331.19
441.86	366.29
442.301	356.93
442.742	340.55
443.182	296.08
443.623	282.03
444.063	321.82
444.504	298.42
444.944	347.57
445.385	291.4
445.825	335.87
446.265	324.16
446.706	349.91
447.146	303.1
447.586	335.87
448.026	326.5
448.466	277.35
448.906	385.02
449.346	291.4
449.786	345.23
450.225	293.74
450.665	258.63
451.105	284.38
451.544	331.19
451.984	373.32
452.424	286.72
452.863	347.57
453.302	324.16
453.742	333.53
454.181	317.14
454.62	342.89
455.059	335.87
455.499	342.89
455.938	366.29
456.377	307.78
456.816	338.21
457.254	345.23
457.693	385.02
458.132	303.1
458.571	237.56
459.01	293.74
459.448	298.42
459.887	279.69
460.325	310.12
460.764	235.22
461.202	324.16
461.641	363.95
462.079	246.93
462.517	242.25
462.955	289.06
463.393	324.16
463.832	359.27
464.27	305.44
464.708	335.87
465.145	354.59
465.583	356.93
466.021	333.53
466.459	244.59
466.897	331.19
467.334	331.19
467.772	279.69
468.209	310.12
468.647	345.23
469.084	282.03
469.522	356.93
469.959	326.5
470.396	349.91
470.833	326.5
471.271	321.82
471.708	289.06
472.145	270.33
472.582	314.8
473.019	293.74
473.456	347.57
473.892	232.88
474.329	298.42
474.766	328.85
475.202	253.95
475.639	335.87
476.076	275.01
476.512	363.95
476.949	368.63
477.385	349.91
477.821	335.87
478.258	291.4
478.694	331.19
479.13	324.16
479.566	370.97
480.002	373.32
480.438	265.65
480.874	310.12
481.31	328.85
481.746	352.25
482.181	340.55
482.617	319.48
483.053	340.55
483.488	345.23
483.924	347.57
484.36	296.08
484.795	368.63
485.23	342.89
485.666	335.87
486.101	331.19
486.536	338.21
486.971	296.08
487.407	305.44
487.842	317.14
488.277	333.53
488.712	326.5
489.146	366.29
489.581	282.03
490.016	331.19
490.451	300.76
490.885	340.55
491.32	387.36
491.755	335.87
492.189	258.63
492.624	284.38
493.058	356.93
493.492	324.16
493.927	321.82
494.361	300.76
494.795	300.76
495.229	270.33
495.663	352.25
496.097	291.4
496.531	307.78
496.965	368.63
497.399	331.19
497.833	296.08
498.266	335.87
498.7	312.46
499.134	319.48
499.567	347.57
500.001	361.61
500.434	345.23
500.868	333.53
501.301	303.1
501.734	303.1
502.168	352.25
502.601	237.56
503.034	333.53
503.467	314.8
503.9	286.72
504.333	328.85
504.766	356.93
505.199	403.74
505.632	314.8
506.064	277.35
506.497	349.91
506.93	289.06
507.362	289.06
507.795	328.85
508.227	258.63
508.66	338.21
509.092	349.91
509.524	340.55
509.956	321.82
510.389	328.85
510.821	293.74
511.253	413.1
511.685	370.97
512.117	277.35
512.549	284.38
512.981	230.54
513.412	284.38
513.844	356.93
514.276	347.57
514.707	300.76
515.139	272.67
515.571	319.48
516.002	335.87
516.433	279.69
516.865	335.87
517.296	298.42
517.727	307.78
518.159	349.91
518.59	317.14
519.021	349.91
519.452	345.23
519.883	260.97
520.314	342.89
520.744	307.78
521.175	394.38
521.606	331.19
522.037	410.76
522.467	324.16
522.898	312.46
523.328	363.95
523.759	413.1
524.189	326.5
524.62	258.63
525.05	314.8
525.48	275.01
525.91	340.55
526.341	284.38
526.771	296.08
527.201	324.16
527.631	347.57
528.061	408.42
528.49	300.76
528.92	328.85
529.35	342.89
529.78	293.74
530.209	352.25
530.639	331.19
531.068	312.46
531.498	342.89
531.927	338.21
532.357	324.16
532.786	361.61
533.215	394.38
533.644	366.29
534.074	260.97
534.503	319.48
534.932	300.76
535.361	349.91
535.79	275.01
536.218	246.93
536.647	321.82
537.076	317.14
537.505	296.08
537.933	300.76
538.362	305.44
538.79	352.25
539.219	317.14
539.647	300.76
540.076	359.27
540.504	277.35
540.932	352.25
541.36	326.5
541.788	321.82
542.217	342.89
542.645	305.44
543.073	253.95
543.5	335.87
543.928	314.8
544.356	333.53
544.784	347.57
545.211	354.59
545.639	354.59
546.067	305.44
546.494	300.76
546.922	331.19
547.349	317.14
547.776	270.33
548.204	286.72
548.631	312.46
549.058	263.31
549.485	293.74
549.912	326.5
550.339	328.85
550.766	282.03
551.193	359.27
551.62	324.16
552.047	363.95
552.474	307.78
552.9	317.14
553.327	352.25
553.754	347.57
554.18	349.91
554.607	279.69
555.033	307.78
555.459	338.21
555.886	378
556.312	338.21
556.738	251.61
557.164	321.82
557.59	340.55
558.016	310.12
558.442	368.63
558.868	368.63
559.294	244.59
559.72	286.72
560.145	326.5
560.571	328.85
560.997	347.57
561.422	378
561.848	385.02
562.273	326.5
562.699	373.32
563.124	284.38
563.549	338.21
563.974	289.06
564.4	275.01
564.825	270.33
565.25	347.57
565.675	312.46
566.1	331.19
566.525	333.53
566.95	298.42
567.374	303.1
567.799	370.97
568.224	249.27
568.648	296.08
569.073	293.74
569.497	338.21
569.922	249.27
570.346	403.74
570.771	319.48
571.195	296.08
571.619	321.82
572.043	338.21
572.467	335.87
572.891	349.91
573.315	389.7
573.739	342.89
574.163	293.74
574.587	312.46
575.011	370.97
575.435	300.76
575.858	244.59
576.282	366.29
576.705	333.53
577.129	249.27
577.552	373.32
577.976	246.93
578.399	303.1
578.822	328.85
579.245	352.25
579.669	326.5
580.092	305.44
580.515	342.89
580.938	279.69
581.361	342.89
581.784	335.87
582.206	333.53
582.629	347.57
583.052	326.5
583.474	305.44
583.897	303.1
584.32	370.97
584.742	354.59
585.165	382.68
585.587	375.66
586.009	347.57
586.431	300.76
586.854	378
587.276	303.1
587.698	293.74
588.12	303.1
588.542	387.36
588.964	310.12
589.386	310.12
589.807	277.35
590.229	314.8
590.651	305.44
591.073	298.42
591.494	363.95
591.916	366.29
592.337	389.7
592.759	333.53
593.18	363.95
593.601	345.23
594.022	354.59
594.444	366.29
594.865	328.85
595.286	321.82
595.707	312.46
596.128	401.4
596.549	317.14
596.97	345.23
597.39	361.61
597.811	352.25
598.232	363.95
598.652	298.42
599.073	406.08
599.494	263.31
599.914	328.85
600.334	307.78
600.755	279.69
601.175	300.76
601.595	279.69
602.015	317.14
602.436	303.1
602.856	438.85
603.276	345.23
603.696	293.74
604.115	321.82
604.535	366.29
604.955	382.68
605.375	284.38
605.794	319.48
606.214	310.12
606.634	232.88
607.053	335.87
607.473	333.53
607.892	363.95
608.311	312.46
608.731	303.1
609.15	303.1
609.569	310.12
609.988	275.01
610.407	296.08
610.826	314.8
611.245	399.06
611.664	326.5
612.083	314.8
612.501	380.34
612.92	314.8
613.339	356.93
613.757	349.91
614.176	272.67
614.594	314.8
615.013	314.8
615.431	340.55
615.85	338.21
616.268	340.55
616.686	347.57
617.104	296.08
617.522	282.03
617.94	340.55
618.358	347.57
618.776	335.87
619.194	342.89
619.612	321.82
620.03	272.67
620.447	359.27
620.865	317.14
621.282	267.99
621.7	361.61
622.117	317.14
622.535	310.12
622.952	331.19
623.369	310.12
623.787	338.21
624.204	275.01
624.621	307.78
625.038	272.67
625.455	349.91
625.872	317.14
626.289	282.03
626.706	326.5
627.123	317.14
627.539	300.76
627.956	359.27
628.373	312.46
628.789	298.42
629.206	303.1
629.622	312.46
630.038	291.4
630.455	338.21
630.871	378
631.287	361.61
631.703	300.76
632.12	349.91
632.536	321.82
632.952	324.16
633.368	305.44
633.783	303.1
634.199	296.08
634.615	314.8
635.031	267.99
635.446	277.35
635.862	263.31
636.277	352.25
636.693	305.44
637.108	338.21
637.524	338.21
637.939	378
638.354	324.16
638.77	333.53
639.185	349.91
639.6	363.95
640.015	286.72
640.43	319.48
640.845	324.16
641.259	267.99
641.674	321.82
642.089	328.85
642.504	303.1
642.918	352.25
643.333	314.8
643.747	314.8
644.162	265.65
644.576	333.53
644.991	338.21
645.405	333.53
645.819	258.63
646.233	352.25
646.647	319.48
647.061	312.46
647.475	356.93
647.889	253.95
648.303	296.08
648.717	335.87
649.131	296.08
649.545	363.95
649.958	326.5
650.372	296.08
650.785	260.97
651.199	282.03
651.612	293.74
652.026	349.91
652.439	319.48
652.852	359.27
653.266	284.38
653.679	370.97
654.092	310.12
654.505	359.27
654.918	324.16
655.331	356.93
655.744	282.03
656.156	321.82
656.569	338.21
656.982	361.61
657.394	378
657.807	340.55
658.22	263.31
658.632	317.14
659.044	361.61
659.457	249.27
659.869	342.89
660.281	303.1
660.693	368.63
661.106	319.48
661.518	305.44
661.93	314.8
662.342	267.99
662.754	300.76
663.165	307.78
663.577	352.25
663.989	305.44
664.401	352.25
664.812	335.87
665.224	368.63
665.635	305.44
666.047	338.21
666.458	305.44
666.869	317.14
667.281	300.76
667.692	356.93
668.103	303.1
668.514	319.48
668.925	345.23
669.336	265.65
669.747	237.56
670.158	319.48
670.569	331.19
670.979	293.74
671.39	291.4
671.801	282.03
672.211	317.14
672.622	333.53
673.032	300.76
673.443	345.23
673.853	373.32
674.263	331.19
674.674	380.34
675.084	284.38
675.494	312.46
675.904	420.13
676.314	342.89
676.724	319.48
677.134	310.12
677.544	324.16
677.953	331.19
678.363	286.72
678.773	317.14
679.182	349.91
679.592	286.72
680.001	286.72
680.411	324.16
680.82	289.06
681.23	235.22
681.639	300.76
682.048	333.53
682.457	324.16
682.866	345.23
683.275	270.33
683.684	335.87
684.093	282.03
684.502	333.53
684.911	345.23
685.32	275.01
685.728	289.06
686.137	275.01
686.546	389.7
686.954	307.78
687.363	291.4
687.771	317.14
688.179	314.8
688.588	314.8
688.996	354.59
689.404	368.63
689.812	326.5
690.22	366.29
690.628	282.03
691.036	317.14
691.444	319.48
691.852	284.38
692.26	317.14
692.667	279.69
693.075	349.91
693.483	298.42
693.89	305.44
694.298	298.42
694.705	289.06
695.112	300.76
695.52	368.63
695.927	342.89
696.334	289.06
696.741	326.5
697.148	335.87
697.555	300.76
697.962	314.8
698.369	321.82
698.776	204.8
699.183	321.82
699.59	345.23
699.996	342.89
700.403	333.53
700.81	345.23
701.216	305.44
701.623	303.1
702.029	314.8
702.435	230.54
702.842	363.95
703.248	319.48
703.654	267.99
704.06	310.12
704.466	319.48
704.872	289.06
705.278	331.19
705.684	300.76
706.09	307.78
706.496	321.82
706.901	354.59
707.307	310.12
707.712	359.27
708.118	303.1
708.523	291.4
708.929	279.69
709.334	359.27
709.74	352.25
710.145	296.08
710.55	275.01
710.955	279.69
711.36	305.44
711.765	310.12
712.17	338.21
712.575	296.08
712.98	789.93
713.385	333.53
713.789	307.78
714.194	298.42
714.599	296.08
715.003	211.82
715.408	380.34
715.812	321.82
716.217	378
716.621	352.25
717.025	338.21
717.429	324.16
717.833	347.57
718.238	352.25
718.642	328.85
719.046	270.33
719.449	380.34
719.853	382.68
720.257	305.44
720.661	326.5
721.065	359.27
721.468	361.61
721.872	317.14
722.275	253.95
722.679	354.59
723.082	300.76
723.485	286.72
723.889	289.06
724.292	326.5
724.695	265.65
725.098	378
725.501	314.8
725.904	317.14
726.307	312.46
726.71	319.48
727.113	319.48
727.516	319.48
727.918	275.01
728.321	333.53
728.724	275.01
729.126	279.69
729.529	382.68
729.931	347.57
730.333	305.44
730.736	267.99
731.138	345.23
731.54	307.78
731.942	321.82
732.344	328.85
732.746	333.53
733.148	312.46
733.55	265.65
733.952	366.29
734.354	298.42
734.756	328.85
735.157	324.16
735.559	235.22
735.96	293.74
736.362	382.68
736.763	289.06
737.165	347.57
737.566	289.06
737.967	319.48
738.368	345.23
738.77	260.97
739.171	345.23
739.572	289.06
739.973	331.19
740.374	317.14
740.774	387.36
741.175	340.55
741.576	298.42
741.977	380.34
742.377	326.5
742.778	356.93
743.178	300.76
743.579	317.14
743.979	375.66
744.379	368.63
744.78	345.23
745.18	298.42
745.58	340.55
745.98	326.5
746.38	239.9
746.78	275.01
747.18	331.19
747.58	324.16
747.98	359.27
748.38	324.16
748.779	338.21
749.179	296.08
749.578	347.57
749.978	305.44
750.377	333.53
750.777	340.55
751.176	291.4
751.575	312.46
751.975	272.67
752.374	277.35
752.773	370.97
753.172	279.69
753.571	333.53
753.97	284.38
754.369	333.53
754.768	342.89
755.166	298.42
755.565	314.8
755.964	338.21
756.362	314.8
756.761	267.99
757.159	349.91
757.558	338.21
757.956	349.91
758.354	300.76
758.753	310.12
759.151	333.53
759.549	260.97
759.947	300.76
760.345	246.93
760.743	363.95
761.141	347.57
761.539	275.01
761.936	359.27
762.334	352.25
762.732	321.82
763.129	317.14
763.527	324.16
763.924	282.03
764.322	305.44
764.719	282.03
765.117	345.23
765.514	324.16
