Data from Al_FLMS009871__1007__16-22-54-617.txt Node

Date: Fri Mar 08 16:22:54 CST 2024
User: pe5414po
Spectrometer: FLMS00987
Trigger mode: 0
Integration Time (sec): 1.000000E-1
Scans to average: 1
Electric dark correction enabled: true
Nonlinearity correction enabled: false
Boxcar width: 0
XAxis mode: Wavelengths
Number of Pixels in Spectrum: 2048
>>>>>Begin Spectral Data<<<<<
188.938	-80.16
189.409	-80.16
189.879	-80.16
190.349	-96.55
190.819	-103.57
191.29	-110.59
191.76	-89.53
192.23	-108.25
192.7	-108.25
193.17	-94.21
193.64	6.44
194.109	-49.74
194.579	15.8
195.049	-77.82
195.519	8.78
195.988	41.54
196.458	22.82
196.927	93.04
197.397	139.85
197.866	130.48
198.336	179.64
198.805	132.83
199.274	219.43
199.744	163.25
200.213	205.38
200.682	263.9
201.151	184.32
201.62	254.53
202.089	254.53
202.558	294.32
203.027	240.49
203.495	294.32
203.964	301.34
204.433	254.53
204.902	259.21
205.37	252.19
205.839	362.2
206.307	273.26
206.776	329.43
207.244	336.45
207.712	284.96
208.181	284.96
208.649	245.17
209.117	310.71
209.585	256.87
210.053	334.11
210.521	254.53
210.989	315.39
211.457	338.79
211.925	245.17
212.393	289.64
212.861	338.79
213.328	256.87
213.796	259.21
214.264	306.03
214.731	219.43
215.199	273.26
215.666	291.98
216.133	275.6
216.601	256.87
217.068	263.9
217.535	287.3
218.003	249.85
218.47	221.77
218.937	263.9
219.404	259.21
219.871	270.92
220.338	247.51
220.805	252.19
221.271	291.98
221.738	238.15
222.205	233.47
222.671	259.21
223.138	252.19
223.605	221.77
224.071	287.3
224.538	256.87
225.004	308.37
225.47	238.15
225.937	341.13
226.403	270.92
226.869	249.85
227.335	327.09
227.801	245.17
228.267	235.81
228.733	294.32
229.199	219.43
229.665	233.47
230.131	268.58
230.597	259.21
231.062	249.85
231.528	254.53
231.994	299
232.459	242.83
232.925	256.87
233.39	266.24
233.856	221.77
234.321	242.83
234.786	256.87
235.252	240.49
235.717	273.26
236.182	280.28
236.647	289.64
237.112	329.43
237.577	275.6
238.042	235.81
238.507	284.96
238.972	256.87
239.436	287.3
239.901	263.9
240.366	291.98
240.83	245.17
241.295	240.49
241.76	219.43
242.224	231.13
242.688	277.94
243.153	268.58
243.617	256.87
244.081	277.94
244.545	313.05
245.01	308.37
245.474	289.64
245.938	273.26
246.402	284.96
246.866	296.66
247.33	327.09
247.793	275.6
248.257	301.34
248.721	277.94
249.185	233.47
249.648	313.05
250.112	315.39
250.575	240.49
251.039	303.68
251.502	238.15
251.965	240.49
252.429	294.32
252.892	280.28
253.355	329.43
253.818	282.62
254.281	345.81
254.744	291.98
255.207	275.6
255.67	240.49
256.133	249.85
256.596	247.51
257.059	296.66
257.522	282.62
257.984	289.64
258.447	294.32
258.909	277.94
259.372	266.24
259.834	306.03
260.297	252.19
260.759	259.21
261.221	299
261.684	254.53
262.146	280.28
262.608	261.55
263.07	228.79
263.532	275.6
263.994	287.3
264.456	252.19
264.918	233.47
265.38	268.58
265.842	277.94
266.303	266.24
266.765	252.19
267.227	214.74
267.688	266.24
268.15	266.24
268.611	348.15
269.072	322.41
269.534	247.51
269.995	310.71
270.456	259.21
270.918	254.53
271.379	268.58
271.84	320.07
272.301	221.77
272.762	233.47
273.223	343.47
273.684	200.7
274.144	259.21
274.605	284.96
275.066	322.41
275.527	317.73
275.987	231.13
276.448	191.34
276.908	231.13
277.369	296.66
277.829	317.73
278.289	294.32
278.75	273.26
279.21	327.09
279.67	270.92
280.13	289.64
280.59	338.79
281.05	306.03
281.51	313.05
281.97	313.05
282.43	266.24
282.89	296.66
283.35	303.68
283.809	273.26
284.269	296.66
284.729	282.62
285.188	345.81
285.648	324.75
286.107	310.71
286.567	364.54
287.026	306.03
287.485	280.28
287.944	266.24
288.404	320.07
288.863	322.41
289.322	270.92
289.781	322.41
290.24	282.62
290.699	282.62
291.158	259.21
291.616	331.77
292.075	352.84
292.534	329.43
292.992	320.07
293.451	317.73
293.91	306.03
294.368	317.73
294.827	315.39
295.285	263.9
295.743	233.47
296.202	289.64
296.66	270.92
297.118	233.47
297.576	320.07
298.034	256.87
298.492	238.15
298.95	294.32
299.408	387.94
299.866	240.49
300.324	287.3
300.781	282.62
301.239	282.62
301.697	249.85
302.154	284.96
302.612	322.41
303.069	268.58
303.527	287.3
303.984	303.68
304.441	235.81
304.899	334.11
305.356	238.15
305.813	336.45
306.27	324.75
306.727	273.26
307.184	299
307.641	273.26
308.098	284.96
308.555	294.32
309.012	324.75
309.468	317.73
309.925	310.71
310.382	282.62
310.838	277.94
311.295	294.32
311.751	317.73
312.208	249.85
312.664	259.21
313.12	299
313.577	301.34
314.033	270.92
314.489	275.6
314.945	261.55
315.401	345.81
315.857	320.07
316.313	299
316.769	334.11
317.225	345.81
317.681	313.05
318.136	315.39
318.592	322.41
319.048	294.32
319.503	303.68
319.959	259.21
320.414	322.41
320.869	315.39
321.325	306.03
321.78	273.26
322.235	336.45
322.691	338.79
323.146	355.18
323.601	275.6
324.056	343.47
324.511	275.6
324.966	226.45
325.421	224.11
325.875	277.94
326.33	317.73
326.785	287.3
327.24	235.81
327.694	322.41
328.149	308.37
328.603	275.6
329.058	373.9
329.512	320.07
329.966	273.26
330.421	317.73
330.875	320.07
331.329	317.73
331.783	277.94
332.237	287.3
332.691	313.05
333.145	329.43
333.599	303.68
334.053	275.6
334.507	275.6
334.96	296.66
335.414	371.56
335.868	348.15
336.321	282.62
336.775	324.75
337.228	275.6
337.682	331.77
338.135	352.84
338.588	324.75
339.042	313.05
339.495	282.62
339.948	306.03
340.401	345.81
340.854	317.73
341.307	366.88
341.76	334.11
342.213	322.41
342.666	284.96
343.119	303.68
343.571	263.9
344.024	345.81
344.477	268.58
344.929	310.71
345.382	338.79
345.834	352.84
346.287	313.05
346.739	299
347.191	287.3
347.644	268.58
348.096	299
348.548	310.71
349	308.37
349.452	294.32
349.904	308.37
350.356	266.24
350.808	329.43
351.26	313.05
351.711	362.2
352.163	331.77
352.615	268.58
353.066	348.15
353.518	334.11
353.969	275.6
354.421	263.9
354.872	280.28
355.324	291.98
355.775	280.28
356.226	362.2
356.677	320.07
357.128	336.45
357.579	310.71
358.03	289.64
358.481	275.6
358.932	277.94
359.383	284.96
359.834	320.07
360.285	294.32
360.735	324.75
361.186	322.41
361.637	291.98
362.087	315.39
362.538	291.98
362.988	238.15
363.438	301.34
363.889	338.79
364.339	345.81
364.789	315.39
365.239	296.66
365.689	310.71
366.139	249.85
366.589	289.64
367.039	299
367.489	406.67
367.939	310.71
368.389	331.77
368.839	331.77
369.288	350.5
369.738	315.39
370.187	357.52
370.637	245.17
371.086	277.94
371.536	343.47
371.985	289.64
372.434	268.58
372.884	231.13
373.333	322.41
373.782	317.73
374.231	303.68
374.68	322.41
375.129	359.86
375.578	291.98
376.027	299
376.475	315.39
376.924	291.98
377.373	320.07
377.822	338.79
378.27	238.15
378.719	252.19
379.167	334.11
379.616	301.34
380.064	315.39
380.512	296.66
380.961	317.73
381.409	256.87
381.857	320.07
382.305	355.18
382.753	308.37
383.201	266.24
383.649	287.3
384.097	235.81
384.545	242.83
384.992	247.51
385.44	315.39
385.888	313.05
386.335	348.15
386.783	270.92
387.231	338.79
387.678	313.05
388.125	324.75
388.573	273.26
389.02	294.32
389.467	324.75
389.914	277.94
390.362	299
390.809	320.07
391.256	357.52
391.703	322.41
392.15	289.64
392.596	284.96
393.043	287.3
393.49	277.94
393.937	366.88
394.383	341.13
394.83	291.98
395.276	284.96
395.723	284.96
396.169	306.03
396.616	287.3
397.062	315.39
397.508	371.56
397.954	268.58
398.401	289.64
398.847	317.73
399.293	373.9
399.739	341.13
400.185	369.22
400.631	331.77
401.076	294.32
401.522	313.05
401.968	291.98
402.414	380.92
402.859	245.17
403.305	296.66
403.75	324.75
404.196	338.79
404.641	313.05
405.086	306.03
405.532	270.92
405.977	331.77
406.422	263.9
406.867	366.88
407.312	280.28
407.757	336.45
408.202	352.84
408.647	259.21
409.092	306.03
409.537	266.24
409.982	331.77
410.426	294.32
410.871	317.73
411.316	299
411.76	249.85
412.205	348.15
412.649	324.75
413.093	303.68
413.538	299
413.982	308.37
414.426	348.15
414.87	289.64
415.314	376.24
415.758	336.45
416.202	275.6
416.646	301.34
417.09	369.22
417.534	338.79
417.978	247.51
418.421	315.39
418.865	277.94
419.309	320.07
419.752	320.07
420.196	338.79
420.639	341.13
421.083	284.96
421.526	348.15
421.969	357.52
422.412	315.39
422.856	338.79
423.299	338.79
423.742	306.03
424.185	315.39
424.628	364.54
425.071	310.71
425.513	310.71
425.956	266.24
426.399	336.45
426.842	322.41
427.284	315.39
427.727	268.58
428.169	320.07
428.612	275.6
429.054	343.47
429.497	284.96
429.939	322.41
430.381	287.3
430.823	287.3
431.265	280.28
431.707	306.03
432.149	320.07
432.591	280.28
433.033	308.37
433.475	317.73
433.917	313.05
434.359	348.15
434.8	331.77
435.242	247.51
435.684	397.31
436.125	329.43
436.567	324.75
437.008	273.26
437.449	343.47
437.891	315.39
438.332	338.79
438.773	327.09
439.214	306.03
439.656	289.64
440.097	336.45
440.538	291.98
440.978	266.24
441.419	261.55
441.86	275.6
442.301	317.73
442.742	277.94
443.182	320.07
443.623	369.22
444.063	254.53
444.504	331.77
444.944	261.55
445.385	306.03
445.825	315.39
446.265	301.34
446.706	268.58
447.146	303.68
447.586	270.92
448.026	308.37
448.466	296.66
448.906	289.64
449.346	348.15
449.786	345.81
450.225	350.5
450.665	331.77
451.105	299
451.544	334.11
451.984	275.6
452.424	362.2
452.863	324.75
453.302	284.96
453.742	350.5
454.181	343.47
454.62	294.32
455.059	256.87
455.499	301.34
455.938	301.34
456.377	299
456.816	245.17
457.254	291.98
457.693	315.39
458.132	254.53
458.571	355.18
459.01	273.26
459.448	324.75
459.887	294.32
460.325	268.58
460.764	299
461.202	366.88
461.641	327.09
462.079	324.75
462.517	233.47
462.955	355.18
463.393	301.34
463.832	364.54
464.27	299
464.708	345.81
465.145	341.13
465.583	315.39
466.021	294.32
466.459	299
466.897	373.9
467.334	287.3
467.772	252.19
468.209	329.43
468.647	350.5
469.084	331.77
469.522	313.05
469.959	341.13
470.396	306.03
470.833	249.85
471.271	352.84
471.708	277.94
472.145	310.71
472.582	327.09
473.019	322.41
473.456	336.45
473.892	308.37
474.329	301.34
474.766	322.41
475.202	362.2
475.639	387.94
476.076	284.96
476.512	315.39
476.949	338.79
477.385	336.45
477.821	301.34
478.258	263.9
478.694	284.96
479.13	352.84
479.566	327.09
480.002	235.81
480.438	301.34
480.874	329.43
481.31	261.55
481.746	247.51
482.181	315.39
482.617	310.71
483.053	320.07
483.488	355.18
483.924	306.03
484.36	341.13
484.795	343.47
485.23	334.11
485.666	355.18
486.101	308.37
486.536	315.39
486.971	294.32
487.407	294.32
487.842	280.28
488.277	341.13
488.712	219.43
489.146	320.07
489.581	334.11
490.016	266.24
490.451	320.07
490.885	235.81
491.32	315.39
491.755	322.41
492.189	245.17
492.624	306.03
493.058	343.47
493.492	369.22
493.927	277.94
494.361	296.66
494.795	317.73
495.229	313.05
495.663	324.75
496.097	299
496.531	331.77
496.965	369.22
497.399	352.84
497.833	336.45
498.266	327.09
498.7	254.53
499.134	301.34
499.567	317.73
500.001	327.09
500.434	331.77
500.868	291.98
501.301	343.47
501.734	270.92
502.168	317.73
502.601	366.88
503.034	324.75
503.467	289.64
503.9	308.37
504.333	303.68
504.766	329.43
505.199	336.45
505.632	270.92
506.064	280.28
506.497	357.52
506.93	306.03
507.362	284.96
507.795	322.41
508.227	359.86
508.66	357.52
509.092	383.26
509.524	282.62
509.956	343.47
510.389	291.98
510.821	296.66
511.253	284.96
511.685	291.98
512.117	256.87
512.549	306.03
512.981	289.64
513.412	310.71
513.844	366.88
514.276	291.98
514.707	336.45
515.139	341.13
515.571	329.43
516.002	348.15
516.433	324.75
516.865	303.68
517.296	296.66
517.727	329.43
518.159	343.47
518.59	331.77
519.021	287.3
519.452	331.77
519.883	320.07
520.314	331.77
520.744	310.71
521.175	289.64
521.606	291.98
522.037	329.43
522.467	310.71
522.898	296.66
523.328	266.24
523.759	338.79
524.189	320.07
524.62	240.49
525.05	270.92
525.48	348.15
525.91	320.07
526.341	296.66
526.771	322.41
527.201	313.05
527.631	263.9
528.061	301.34
528.49	341.13
528.92	301.34
529.35	315.39
529.78	385.6
530.209	352.84
530.639	320.07
531.068	277.94
531.498	233.47
531.927	338.79
532.357	341.13
532.786	362.2
533.215	355.18
533.644	294.32
534.074	282.62
534.503	301.34
534.932	289.64
535.361	256.87
535.79	324.75
536.218	268.58
536.647	334.11
537.076	266.24
537.505	362.2
537.933	345.81
538.362	364.54
538.79	256.87
539.219	352.84
539.647	341.13
540.076	294.32
540.504	331.77
540.932	268.58
541.36	308.37
541.788	320.07
542.217	259.21
542.645	263.9
543.073	317.73
543.5	294.32
543.928	245.17
544.356	284.96
544.784	334.11
545.211	313.05
545.639	287.3
546.067	310.71
546.494	320.07
546.922	355.18
547.349	287.3
547.776	247.51
548.204	226.45
548.631	315.39
549.058	247.51
549.485	280.28
549.912	348.15
550.339	329.43
550.766	359.86
551.193	315.39
551.62	261.55
552.047	263.9
552.474	320.07
552.9	273.26
553.327	289.64
553.754	331.77
554.18	282.62
554.607	315.39
555.033	291.98
555.459	313.05
555.886	352.84
556.312	390.28
556.738	322.41
557.164	306.03
557.59	320.07
558.016	289.64
558.442	261.55
558.868	329.43
559.294	313.05
559.72	277.94
560.145	350.5
560.571	331.77
560.997	366.88
561.422	306.03
561.848	275.6
562.273	320.07
562.699	291.98
563.124	352.84
563.549	317.73
563.974	306.03
564.4	380.92
564.825	352.84
565.25	336.45
565.675	341.13
566.1	373.9
566.525	280.28
566.95	284.96
567.374	294.32
567.799	287.3
568.224	373.9
568.648	369.22
569.073	259.21
569.497	203.04
569.922	327.09
570.346	313.05
570.771	320.07
571.195	270.92
571.619	336.45
572.043	256.87
572.467	301.34
572.891	357.52
573.315	331.77
573.739	280.28
574.163	334.11
574.587	334.11
575.011	282.62
575.435	315.39
575.858	317.73
576.282	299
576.705	322.41
577.129	287.3
577.552	303.68
577.976	289.64
578.399	336.45
578.822	296.66
579.245	313.05
579.669	245.17
580.092	284.96
580.515	336.45
580.938	303.68
581.361	296.66
581.784	338.79
582.206	301.34
582.629	289.64
583.052	357.52
583.474	378.58
583.897	338.79
584.32	357.52
584.742	299
585.165	259.21
585.587	282.62
586.009	348.15
586.431	287.3
586.854	275.6
587.276	331.77
587.698	334.11
588.12	366.88
588.542	331.77
588.964	348.15
589.386	301.34
589.807	322.41
590.229	362.2
590.651	301.34
591.073	282.62
591.494	259.21
591.916	306.03
592.337	308.37
592.759	306.03
593.18	357.52
593.601	280.28
594.022	313.05
594.444	275.6
594.865	280.28
595.286	273.26
595.707	336.45
596.128	352.84
596.549	240.49
596.97	308.37
597.39	352.84
597.811	336.45
598.232	387.94
598.652	317.73
599.073	355.18
599.494	359.86
599.914	270.92
600.334	296.66
600.755	336.45
601.175	322.41
601.595	301.34
602.015	364.54
602.436	341.13
602.856	420.71
603.276	282.62
603.696	334.11
604.115	280.28
604.535	315.39
604.955	387.94
605.375	268.58
605.794	313.05
606.214	317.73
606.634	327.09
607.053	352.84
607.473	350.5
607.892	334.11
608.311	336.45
608.731	280.28
609.15	336.45
609.569	352.84
609.988	294.32
610.407	341.13
610.826	341.13
611.245	317.73
611.664	317.73
612.083	291.98
612.501	329.43
612.92	320.07
613.339	214.74
613.757	359.86
614.176	348.15
614.594	306.03
615.013	310.71
615.431	303.68
615.85	352.84
616.268	291.98
616.686	294.32
617.104	334.11
617.522	306.03
617.94	322.41
618.358	306.03
618.776	296.66
619.194	294.32
619.612	350.5
620.03	348.15
620.447	266.24
620.865	284.96
621.282	221.77
621.7	320.07
622.117	291.98
622.535	310.71
622.952	306.03
623.369	280.28
623.787	334.11
624.204	306.03
624.621	306.03
625.038	280.28
625.455	345.81
625.872	280.28
626.289	270.92
626.706	322.41
627.123	289.64
627.539	261.55
627.956	327.09
628.373	355.18
628.789	291.98
629.206	378.58
629.622	327.09
630.038	289.64
630.455	313.05
630.871	259.21
631.287	296.66
631.703	256.87
632.12	303.68
632.536	291.98
632.952	303.68
633.368	252.19
633.783	362.2
634.199	287.3
634.615	315.39
635.031	306.03
635.446	345.81
635.862	331.77
636.277	364.54
636.693	345.81
637.108	294.32
637.524	336.45
637.939	310.71
638.354	313.05
638.77	345.81
639.185	329.43
639.6	317.73
640.015	390.28
640.43	334.11
640.845	355.18
641.259	291.98
641.674	294.32
642.089	299
642.504	331.77
642.918	303.68
643.333	301.34
643.747	334.11
644.162	289.64
644.576	287.3
644.991	320.07
645.405	277.94
645.819	317.73
646.233	299
646.647	299
647.061	320.07
647.475	299
647.889	289.64
648.303	373.9
648.717	359.86
649.131	371.56
649.545	284.96
649.958	327.09
650.372	294.32
650.785	301.34
651.199	289.64
651.612	259.21
652.026	308.37
652.439	376.24
652.852	273.26
653.266	331.77
653.679	313.05
654.092	313.05
654.505	277.94
654.918	296.66
655.331	348.15
655.744	315.39
656.156	320.07
656.569	327.09
656.982	224.11
657.394	254.53
657.807	331.77
658.22	240.49
658.632	266.24
659.044	266.24
659.457	366.88
659.869	362.2
660.281	355.18
660.693	320.07
661.106	329.43
661.518	329.43
661.93	359.86
662.342	284.96
662.754	287.3
663.165	277.94
663.577	320.07
663.989	310.71
664.401	352.84
664.812	336.45
665.224	256.87
665.635	301.34
666.047	324.75
666.458	317.73
666.869	341.13
667.281	334.11
667.692	334.11
668.103	280.28
668.514	294.32
668.925	310.71
669.336	284.96
669.747	261.55
670.158	303.68
670.569	273.26
670.979	296.66
671.39	352.84
671.801	266.24
672.211	320.07
672.622	296.66
673.032	303.68
673.443	317.73
673.853	291.98
674.263	306.03
674.674	322.41
675.084	277.94
675.494	350.5
675.904	268.58
676.314	270.92
676.724	277.94
677.134	313.05
677.544	273.26
677.953	331.77
678.363	294.32
678.773	350.5
679.182	315.39
679.592	268.58
680.001	352.84
680.411	263.9
680.82	324.75
681.23	303.68
681.639	308.37
682.048	345.81
682.457	310.71
682.866	341.13
683.275	291.98
683.684	294.32
684.093	369.22
684.502	338.79
684.911	329.43
685.32	324.75
685.728	320.07
686.137	338.79
686.546	301.34
686.954	263.9
687.363	289.64
687.771	371.56
688.179	394.97
688.588	310.71
688.996	310.71
689.404	294.32
689.812	336.45
690.22	291.98
690.628	366.88
691.036	343.47
691.444	296.66
691.852	350.5
692.26	310.71
692.667	352.84
693.075	280.28
693.483	299
693.89	259.21
694.298	273.26
694.705	280.28
695.112	383.26
695.52	303.68
695.927	289.64
696.334	320.07
696.741	322.41
697.148	327.09
697.555	282.62
697.962	228.79
698.369	249.85
698.776	291.98
699.183	308.37
699.59	343.47
699.996	315.39
700.403	256.87
700.81	315.39
701.216	284.96
701.623	299
702.029	322.41
702.435	235.81
702.842	289.64
703.248	282.62
703.654	270.92
704.06	324.75
704.466	352.84
704.872	261.55
705.278	357.52
705.684	299
706.09	355.18
706.496	299
706.901	327.09
707.307	315.39
707.712	280.28
708.118	322.41
708.523	336.45
708.929	331.77
709.334	369.22
709.74	289.64
710.145	245.17
710.55	313.05
710.955	329.43
711.36	306.03
711.765	336.45
712.17	277.94
712.575	320.07
712.98	774.13
713.385	313.05
713.789	280.28
714.194	369.22
714.599	306.03
715.003	373.9
715.408	320.07
715.812	270.92
716.217	296.66
716.621	261.55
717.025	350.5
717.429	343.47
717.833	294.32
718.238	308.37
718.642	336.45
719.046	390.28
719.449	355.18
719.853	291.98
720.257	341.13
720.661	331.77
721.065	359.86
721.468	313.05
721.872	324.75
722.275	357.52
722.679	385.6
723.082	310.71
723.485	320.07
723.889	336.45
724.292	324.75
724.695	277.94
725.098	343.47
725.501	217.08
725.904	266.24
726.307	270.92
726.71	341.13
727.113	256.87
727.516	343.47
727.918	273.26
728.321	289.64
728.724	263.9
729.126	291.98
729.529	313.05
729.931	362.2
730.333	299
730.736	291.98
731.138	315.39
731.54	268.58
731.942	275.6
732.344	355.18
732.746	226.45
733.148	275.6
733.55	341.13
733.952	362.2
734.354	313.05
734.756	329.43
735.157	249.85
735.559	306.03
735.96	299
736.362	362.2
736.763	277.94
737.165	284.96
737.566	303.68
737.967	308.37
738.368	256.87
738.77	303.68
739.171	291.98
739.572	268.58
739.973	270.92
740.374	334.11
740.774	277.94
741.175	315.39
741.576	313.05
741.977	289.64
742.377	303.68
742.778	284.96
743.178	345.81
743.579	343.47
743.979	289.64
744.379	385.6
744.78	320.07
745.18	270.92
745.58	299
745.98	313.05
746.38	329.43
746.78	259.21
747.18	261.55
747.58	299
747.98	254.53
748.38	357.52
748.779	313.05
749.179	359.86
749.578	289.64
749.978	324.75
750.377	301.34
750.777	315.39
751.176	310.71
751.575	299
751.975	289.64
752.374	291.98
752.773	219.43
753.172	301.34
753.571	275.6
753.97	261.55
754.369	357.52
754.768	315.39
755.166	301.34
755.565	324.75
755.964	350.5
756.362	273.26
756.761	387.94
757.159	357.52
757.558	284.96
757.956	380.92
758.354	348.15
758.753	329.43
759.151	277.94
759.549	315.39
759.947	331.77
760.345	310.71
760.743	315.39
761.141	364.54
761.539	238.15
761.936	320.07
762.334	268.58
762.732	266.24
763.129	299
763.527	376.24
763.924	282.62
764.322	303.68
764.719	385.6
765.117	299
765.514	357.52
765.911	296.66
766.308	343.47
766.705	348.15
767.102	383.26
