Data from Al_FLMS009871__1013__16-22-55-218.txt Node

Date: Fri Mar 08 16:22:55 CST 2024
User: pe5414po
Spectrometer: FLMS00987
Trigger mode: 0
Integration Time (sec): 1.000000E-1
Scans to average: 1
Electric dark correction enabled: true
Nonlinearity correction enabled: false
Boxcar width: 0
XAxis mode: Wavelengths
Number of Pixels in Spectrum: 2048
>>>>>Begin Spectral Data<<<<<
188.938	-125.07
189.409	-125.07
189.879	-125.07
190.349	-99.33
190.819	-38.47
191.29	-73.58
191.76	-118.05
192.23	-160.18
192.7	-96.99
193.17	-99.33
193.64	-19.75
194.109	-8.05
194.579	22.38
195.049	24.72
195.519	43.45
195.988	22.38
196.458	3.66
196.927	132.39
197.397	132.39
197.866	108.98
198.336	85.58
198.805	90.26
199.274	120.68
199.744	87.92
200.213	221.33
200.682	218.99
201.151	108.98
201.62	247.07
202.089	258.78
202.558	286.86
203.027	235.37
203.495	211.96
203.964	286.86
204.433	272.82
204.902	286.86
205.37	251.75
205.839	291.54
206.307	296.22
206.776	237.71
207.244	291.54
207.712	270.48
208.181	350.06
208.649	286.86
209.117	282.18
209.585	307.93
210.053	270.48
210.521	258.78
210.989	263.46
211.457	228.35
211.925	350.06
212.393	256.43
212.861	296.22
213.328	289.2
213.796	286.86
214.264	305.59
214.731	277.5
215.199	249.41
215.666	251.75
216.133	258.78
216.601	277.5
217.068	272.82
217.535	277.5
218.003	298.56
218.47	249.41
218.937	272.82
219.404	265.8
219.871	282.18
220.338	326.65
220.805	226.01
221.271	181.54
221.738	254.09
222.205	181.54
222.671	270.48
223.138	265.8
223.605	226.01
224.071	200.26
224.538	296.22
225.004	233.03
225.47	202.6
225.937	186.22
226.403	240.05
226.869	240.05
227.335	256.43
227.801	296.22
228.267	298.56
228.733	282.18
229.199	244.73
229.665	235.37
230.131	244.73
230.597	228.35
231.062	223.67
231.528	214.31
231.994	247.07
232.459	270.48
232.925	188.56
233.39	242.39
233.856	251.75
234.321	216.65
234.786	190.9
235.252	265.8
235.717	218.99
236.182	242.39
236.647	233.03
237.112	343.03
237.577	254.09
238.042	258.78
238.507	242.39
238.972	223.67
239.436	291.54
239.901	218.99
240.366	211.96
240.83	261.12
241.295	303.25
241.76	303.25
242.224	249.41
242.688	258.78
243.153	293.88
243.617	291.54
244.081	296.22
244.545	305.59
245.01	272.82
245.474	282.18
245.938	279.84
246.402	226.01
246.866	300.91
247.33	237.71
247.793	237.71
248.257	307.93
248.721	279.84
249.185	275.16
249.648	263.46
250.112	235.37
250.575	279.84
251.039	303.25
251.502	277.5
251.965	237.71
252.429	336.01
252.892	265.8
253.355	202.6
253.818	263.46
254.281	240.05
254.744	331.33
255.207	249.41
255.67	291.54
256.133	233.03
256.596	277.5
257.059	258.78
257.522	282.18
257.984	261.12
258.447	293.88
258.909	282.18
259.372	258.78
259.834	265.8
260.297	218.99
260.759	235.37
261.221	307.93
261.684	282.18
262.146	291.54
262.608	282.18
263.07	265.8
263.532	284.52
263.994	209.62
264.456	247.07
264.918	284.52
265.38	291.54
265.842	263.46
266.303	300.91
266.765	268.14
267.227	282.18
267.688	312.61
268.15	251.75
268.611	284.52
269.072	314.95
269.534	261.12
269.995	249.41
270.456	242.39
270.918	282.18
271.379	263.46
271.84	214.31
272.301	286.86
272.762	303.25
273.223	289.2
273.684	214.31
274.144	270.48
274.605	314.95
275.066	277.5
275.527	336.01
275.987	279.84
276.448	289.2
276.908	254.09
277.369	352.4
277.829	214.31
278.289	289.2
278.75	233.03
279.21	247.07
279.67	258.78
280.13	293.88
280.59	326.65
281.05	321.97
281.51	282.18
281.97	324.31
282.43	291.54
282.89	279.84
283.35	249.41
283.809	298.56
284.269	272.82
284.729	223.67
285.188	261.12
285.648	277.5
286.107	298.56
286.567	270.48
287.026	321.97
287.485	279.84
287.944	286.86
288.404	247.07
288.863	354.74
289.322	300.91
289.781	307.93
290.24	272.82
290.699	272.82
291.158	293.88
291.616	242.39
292.075	326.65
292.534	251.75
292.992	303.25
293.451	305.59
293.91	340.69
294.368	284.52
294.827	326.65
295.285	268.14
295.743	263.46
296.202	258.78
296.66	268.14
297.118	331.33
297.576	361.76
298.034	345.38
298.492	333.67
298.95	305.59
299.408	310.27
299.866	282.18
300.324	284.52
300.781	249.41
301.239	291.54
301.697	359.42
302.154	265.8
302.612	263.46
303.069	272.82
303.527	251.75
303.984	310.27
304.441	286.86
304.899	354.74
305.356	303.25
305.813	354.74
306.27	270.48
306.727	268.14
307.184	251.75
307.641	268.14
308.098	289.2
308.555	312.61
309.012	286.86
309.468	340.69
309.925	310.27
310.382	275.16
310.838	291.54
311.295	249.41
311.751	268.14
312.208	218.99
312.664	314.95
313.12	270.48
313.577	263.46
314.033	314.95
314.489	300.91
314.945	314.95
315.401	298.56
315.857	289.2
316.313	352.4
316.769	284.52
317.225	296.22
317.681	364.1
318.136	251.75
318.592	263.46
319.048	343.03
319.503	291.54
319.959	298.56
320.414	293.88
320.869	261.12
321.325	263.46
321.78	331.33
322.235	261.12
322.691	258.78
323.146	326.65
323.601	261.12
324.056	333.67
324.511	293.88
324.966	282.18
325.421	307.93
325.875	275.16
326.33	343.03
326.785	235.37
327.24	345.38
327.694	261.12
328.149	347.72
328.603	291.54
329.058	251.75
329.512	284.52
329.966	312.61
330.421	256.43
330.875	284.52
331.329	265.8
331.783	333.67
332.237	305.59
332.691	328.99
333.145	328.99
333.599	352.4
334.053	296.22
334.507	328.99
334.96	284.52
335.414	345.38
335.868	361.76
336.321	310.27
336.775	331.33
337.228	254.09
337.682	279.84
338.135	286.86
338.588	321.97
339.042	324.31
339.495	307.93
339.948	326.65
340.401	357.08
340.854	258.78
341.307	258.78
341.76	321.97
342.213	275.16
342.666	251.75
343.119	319.63
343.571	277.5
344.024	300.91
344.477	230.69
344.929	265.8
345.382	354.74
345.834	319.63
346.287	354.74
346.739	291.54
347.191	272.82
347.644	368.78
348.096	293.88
348.548	354.74
349	298.56
349.452	279.84
349.904	347.72
350.356	235.37
350.808	298.56
351.26	289.2
351.711	261.12
352.163	293.88
352.615	307.93
353.066	382.82
353.518	293.88
353.969	312.61
354.421	328.99
354.872	312.61
355.324	293.88
355.775	319.63
356.226	300.91
356.677	321.97
357.128	286.86
357.579	282.18
358.03	279.84
358.481	312.61
358.932	347.72
359.383	300.91
359.834	293.88
360.285	275.16
360.735	277.5
361.186	350.06
361.637	321.97
362.087	300.91
362.538	240.05
362.988	277.5
363.438	258.78
363.889	310.27
364.339	312.61
364.789	305.59
365.239	314.95
365.689	333.67
366.139	289.2
366.589	286.86
367.039	328.99
367.489	343.03
367.939	282.18
368.389	378.14
368.839	333.67
369.288	303.25
369.738	296.22
370.187	317.29
370.637	319.63
371.086	296.22
371.536	296.22
371.985	319.63
372.434	293.88
372.884	284.52
373.333	310.27
373.782	272.82
374.231	331.33
374.68	352.4
375.129	347.72
375.578	275.16
376.027	326.65
376.475	333.67
376.924	310.27
377.373	279.84
377.822	291.54
378.27	270.48
378.719	296.22
379.167	289.2
379.616	359.42
380.064	251.75
380.512	270.48
380.961	296.22
381.409	298.56
381.857	343.03
382.305	218.99
382.753	321.97
383.201	296.22
383.649	317.29
384.097	333.67
384.545	300.91
384.992	286.86
385.44	305.59
385.888	307.93
386.335	254.09
386.783	289.2
387.231	343.03
387.678	338.35
388.125	293.88
388.573	270.48
389.02	312.61
389.467	263.46
389.914	289.2
390.362	314.95
390.809	275.16
391.256	305.59
391.703	336.01
392.15	303.25
392.596	319.63
393.043	277.5
393.49	319.63
393.937	293.88
394.383	310.27
394.83	289.2
395.276	314.95
395.723	350.06
396.169	347.72
396.616	307.93
397.062	307.93
397.508	221.33
397.954	272.82
398.401	289.2
398.847	261.12
399.293	298.56
399.739	314.95
400.185	237.71
400.631	336.01
401.076	298.56
401.522	317.29
401.968	324.31
402.414	291.54
402.859	345.38
403.305	307.93
403.75	270.48
404.196	272.82
404.641	321.97
405.086	396.87
405.532	298.56
405.977	293.88
406.422	279.84
406.867	413.25
407.312	291.54
407.757	321.97
408.202	258.78
408.647	345.38
409.092	247.07
409.537	298.56
409.982	310.27
410.426	268.14
410.871	317.29
411.316	338.35
411.76	279.84
412.205	284.52
412.649	305.59
413.093	270.48
413.538	256.43
413.982	247.07
414.426	310.27
414.87	310.27
415.314	284.52
415.758	352.4
416.202	291.54
416.646	368.78
417.09	345.38
417.534	319.63
417.978	319.63
418.421	237.71
418.865	258.78
419.309	317.29
419.752	284.52
420.196	312.61
420.639	333.67
421.083	324.31
421.526	270.48
421.969	347.72
422.412	338.35
422.856	305.59
423.299	361.76
423.742	331.33
424.185	340.69
424.628	279.84
425.071	343.03
425.513	291.54
425.956	305.59
426.399	324.31
426.842	270.48
427.284	240.05
427.727	326.65
428.169	291.54
428.612	291.54
429.054	331.33
429.497	249.41
429.939	350.06
430.381	345.38
430.823	321.97
431.265	310.27
431.707	319.63
432.149	272.82
432.591	307.93
433.033	338.35
433.475	326.65
433.917	350.06
434.359	326.65
434.8	284.52
435.242	354.74
435.684	364.1
436.125	352.4
436.567	359.42
437.008	305.59
437.449	307.93
437.891	303.25
438.332	291.54
438.773	291.54
439.214	291.54
439.656	364.1
440.097	338.35
440.538	265.8
440.978	298.56
441.419	284.52
441.86	317.29
442.301	350.06
442.742	314.95
443.182	321.97
443.623	319.63
444.063	321.97
444.504	319.63
444.944	282.18
445.385	277.5
445.825	321.97
446.265	282.18
446.706	354.74
447.146	279.84
447.586	258.78
448.026	357.08
448.466	312.61
448.906	307.93
449.346	321.97
449.786	286.86
450.225	307.93
450.665	333.67
451.105	261.12
451.544	272.82
451.984	300.91
452.424	275.16
452.863	291.54
453.302	242.39
453.742	331.33
454.181	336.01
454.62	305.59
455.059	340.69
455.499	326.65
455.938	324.31
456.377	317.29
456.816	235.37
457.254	366.44
457.693	340.69
458.132	310.27
458.571	317.29
459.01	317.29
459.448	368.78
459.887	352.4
460.325	378.14
460.764	364.1
461.202	331.33
461.641	347.72
462.079	272.82
462.517	286.86
462.955	275.16
463.393	305.59
463.832	247.07
464.27	298.56
464.708	324.31
465.145	286.86
465.583	333.67
466.021	357.08
466.459	331.33
466.897	338.35
467.334	310.27
467.772	296.22
468.209	312.61
468.647	310.27
469.084	270.48
469.522	204.94
469.959	357.08
470.396	347.72
470.833	321.97
471.271	326.65
471.708	331.33
472.145	340.69
472.582	382.82
473.019	347.72
473.456	275.16
473.892	272.82
474.329	296.22
474.766	265.8
475.202	336.01
475.639	328.99
476.076	331.33
476.512	319.63
476.949	371.12
477.385	265.8
477.821	354.74
478.258	268.14
478.694	279.84
479.13	300.91
479.566	277.5
480.002	275.16
480.438	338.35
480.874	209.62
481.31	261.12
481.746	352.4
482.181	305.59
482.617	364.1
483.053	230.69
483.488	312.61
483.924	310.27
484.36	286.86
484.795	293.88
485.23	338.35
485.666	296.22
486.101	293.88
486.536	328.99
486.971	343.03
487.407	350.06
487.842	221.33
488.277	254.09
488.712	284.52
489.146	333.67
489.581	272.82
490.016	258.78
490.451	293.88
490.885	282.18
491.32	338.35
491.755	350.06
492.189	324.31
492.624	314.95
493.058	237.71
493.492	359.42
493.927	361.76
494.361	277.5
494.795	333.67
495.229	268.14
495.663	277.5
496.097	230.69
496.531	343.03
496.965	361.76
497.399	300.91
497.833	244.73
498.266	286.86
498.7	352.4
499.134	389.85
499.567	303.25
500.001	378.14
500.434	277.5
500.868	338.35
501.301	286.86
501.734	291.54
502.168	319.63
502.601	305.59
503.034	303.25
503.467	240.05
503.9	303.25
504.333	331.33
504.766	324.31
505.199	286.86
505.632	305.59
506.064	314.95
506.497	286.86
506.93	300.91
507.362	272.82
507.795	240.05
508.227	328.99
508.66	338.35
509.092	275.16
509.524	331.33
509.956	324.31
510.389	279.84
510.821	303.25
511.253	291.54
511.685	296.22
512.117	268.14
512.549	317.29
512.981	338.35
513.412	321.97
513.844	296.22
514.276	305.59
514.707	303.25
515.139	387.5
515.571	333.67
516.002	343.03
516.433	319.63
516.865	282.18
517.296	277.5
517.727	305.59
518.159	417.93
518.59	303.25
519.021	326.65
519.452	282.18
519.883	282.18
520.314	324.31
520.744	300.91
521.175	289.2
521.606	312.61
522.037	256.43
522.467	291.54
522.898	275.16
523.328	317.29
523.759	282.18
524.189	305.59
524.62	284.52
525.05	333.67
525.48	312.61
525.91	270.48
526.341	272.82
526.771	240.05
527.201	357.08
527.631	291.54
528.061	312.61
528.49	345.38
528.92	282.18
529.35	289.2
529.78	336.01
530.209	286.86
530.639	284.52
531.068	275.16
531.498	317.29
531.927	256.43
532.357	324.31
532.786	300.91
533.215	268.14
533.644	312.61
534.074	310.27
534.503	319.63
534.932	340.69
535.361	347.72
535.79	263.46
536.218	312.61
536.647	331.33
537.076	361.76
537.505	275.16
537.933	321.97
538.362	305.59
538.79	282.18
539.219	314.95
539.647	263.46
540.076	272.82
540.504	366.44
540.932	279.84
541.36	333.67
541.788	303.25
542.217	321.97
542.645	275.16
543.073	387.5
543.5	305.59
543.928	300.91
544.356	249.41
544.784	333.67
545.211	277.5
545.639	305.59
546.067	289.2
546.494	291.54
546.922	277.5
547.349	296.22
547.776	361.76
548.204	242.39
548.631	275.16
549.058	216.65
549.485	268.14
549.912	319.63
550.339	350.06
550.766	310.27
551.193	289.2
551.62	357.08
552.047	396.87
552.474	286.86
552.9	284.52
553.327	382.82
553.754	312.61
554.18	324.31
554.607	291.54
555.033	296.22
555.459	251.75
555.886	328.99
556.312	286.86
556.738	270.48
557.164	310.27
557.59	345.38
558.016	331.33
558.442	310.27
558.868	354.74
559.294	317.29
559.72	289.2
560.145	291.54
560.571	293.88
560.997	279.84
561.422	298.56
561.848	317.29
562.273	298.56
562.699	272.82
563.124	284.52
563.549	228.35
563.974	265.8
564.4	312.61
564.825	326.65
565.25	380.48
565.675	286.86
566.1	277.5
566.525	314.95
566.95	326.65
567.374	291.54
567.799	324.31
568.224	324.31
568.648	235.37
569.073	265.8
569.497	312.61
569.922	282.18
570.346	277.5
570.771	247.07
571.195	328.99
571.619	296.22
572.043	359.42
572.467	385.16
572.891	347.72
573.315	317.29
573.739	324.31
574.163	197.92
574.587	321.97
575.011	284.52
575.435	336.01
575.858	296.22
576.282	289.2
576.705	244.73
577.129	305.59
577.552	298.56
577.976	277.5
578.399	312.61
578.822	218.99
579.245	352.4
579.669	256.43
580.092	268.14
580.515	305.59
580.938	305.59
581.361	277.5
581.784	324.31
582.206	347.72
582.629	282.18
583.052	263.46
583.474	296.22
583.897	328.99
584.32	284.52
584.742	331.33
585.165	321.97
585.587	291.54
586.009	303.25
586.431	268.14
586.854	380.48
587.276	310.27
587.698	303.25
588.12	338.35
588.542	324.31
588.964	268.14
589.386	293.88
589.807	352.4
590.229	368.78
590.651	314.95
591.073	286.86
591.494	338.35
591.916	310.27
592.337	375.8
592.759	366.44
593.18	361.76
593.601	336.01
594.022	312.61
594.444	373.46
594.865	336.01
595.286	343.03
595.707	303.25
596.128	310.27
596.549	307.93
596.97	293.88
597.39	272.82
597.811	272.82
598.232	275.16
598.652	307.93
599.073	296.22
599.494	293.88
599.914	331.33
600.334	305.59
600.755	270.48
601.175	291.54
601.595	319.63
602.015	324.31
602.436	319.63
602.856	434.32
603.276	242.39
603.696	289.2
604.115	296.22
604.535	331.33
604.955	347.72
605.375	293.88
605.794	317.29
606.214	240.05
606.634	324.31
607.053	312.61
607.473	268.14
607.892	312.61
608.311	338.35
608.731	277.5
609.15	319.63
609.569	361.76
609.988	328.99
610.407	270.48
610.826	319.63
611.245	345.38
611.664	286.86
612.083	326.65
612.501	336.01
612.92	293.88
613.339	293.88
613.757	272.82
614.176	303.25
614.594	256.43
615.013	197.92
615.431	272.82
615.85	209.62
616.268	291.54
616.686	352.4
617.104	368.78
617.522	242.39
617.94	277.5
618.358	317.29
618.776	347.72
619.194	338.35
619.612	350.06
620.03	347.72
620.447	321.97
620.865	364.1
621.282	303.25
621.7	296.22
622.117	293.88
622.535	254.09
622.952	331.33
623.369	296.22
623.787	305.59
624.204	296.22
624.621	298.56
625.038	286.86
625.455	296.22
625.872	291.54
626.289	333.67
626.706	284.52
627.123	296.22
627.539	310.27
627.956	312.61
628.373	319.63
628.789	300.91
629.206	305.59
629.622	307.93
630.038	291.54
630.455	261.12
630.871	303.25
631.287	282.18
631.703	279.84
632.12	275.16
632.536	350.06
632.952	310.27
633.368	331.33
633.783	336.01
634.199	258.78
634.615	324.31
635.031	303.25
635.446	324.31
635.862	256.43
636.277	328.99
636.693	357.08
637.108	333.67
637.524	319.63
637.939	324.31
638.354	237.71
638.77	265.8
639.185	352.4
639.6	345.38
640.015	282.18
640.43	324.31
640.845	361.76
641.259	314.95
641.674	317.29
642.089	321.97
642.504	296.22
642.918	328.99
643.333	226.01
643.747	303.25
644.162	319.63
644.576	343.03
644.991	284.52
645.405	279.84
645.819	310.27
646.233	350.06
646.647	333.67
647.061	300.91
647.475	368.78
647.889	345.38
648.303	333.67
648.717	366.44
649.131	326.65
649.545	343.03
649.958	279.84
650.372	319.63
650.785	326.65
651.199	359.42
651.612	314.95
652.026	321.97
652.439	251.75
652.852	275.16
653.266	343.03
653.679	263.46
654.092	277.5
654.505	303.25
654.918	310.27
655.331	371.12
655.744	317.29
656.156	361.76
656.569	305.59
656.982	326.65
657.394	347.72
657.807	298.56
658.22	352.4
658.632	333.67
659.044	350.06
659.457	265.8
659.869	317.29
660.281	347.72
660.693	328.99
661.106	310.27
661.518	291.54
661.93	359.42
662.342	275.16
662.754	321.97
663.165	303.25
663.577	359.42
663.989	296.22
664.401	296.22
664.812	291.54
665.224	319.63
665.635	314.95
666.047	305.59
666.458	263.46
666.869	307.93
667.281	345.38
667.692	300.91
668.103	319.63
668.514	265.8
668.925	317.29
669.336	298.56
669.747	279.84
670.158	247.07
670.569	305.59
670.979	307.93
671.39	279.84
671.801	298.56
672.211	277.5
672.622	202.6
673.032	284.52
673.443	275.16
673.853	336.01
674.263	310.27
674.674	258.78
675.084	244.73
675.494	314.95
675.904	354.74
676.314	307.93
676.724	314.95
677.134	340.69
677.544	319.63
677.953	359.42
678.363	265.8
678.773	300.91
679.182	300.91
679.592	317.29
680.001	352.4
680.411	300.91
680.82	289.2
681.23	289.2
681.639	279.84
682.048	319.63
682.457	303.25
682.866	317.29
683.275	270.48
683.684	312.61
684.093	275.16
684.502	272.82
684.911	289.2
685.32	331.33
685.728	268.14
686.137	282.18
686.546	265.8
686.954	321.97
687.363	314.95
687.771	277.5
688.179	317.29
688.588	319.63
688.996	338.35
689.404	314.95
689.812	314.95
690.22	307.93
690.628	275.16
691.036	293.88
691.444	385.16
691.852	380.48
692.26	293.88
692.667	343.03
693.075	272.82
693.483	303.25
693.89	291.54
694.298	277.5
694.705	263.46
695.112	331.33
695.52	324.31
695.927	284.52
696.334	226.01
696.741	284.52
697.148	328.99
697.555	254.09
697.962	300.91
698.369	233.03
698.776	254.09
699.183	321.97
699.59	312.61
699.996	340.69
700.403	331.33
700.81	350.06
701.216	361.76
701.623	347.72
702.029	310.27
702.435	249.41
702.842	272.82
703.248	328.99
703.654	364.1
704.06	364.1
704.466	333.67
704.872	298.56
705.278	307.93
705.684	293.88
706.09	317.29
706.496	305.59
706.901	326.65
707.307	321.97
707.712	268.14
708.118	251.75
708.523	328.99
708.929	317.29
709.334	286.86
709.74	286.86
710.145	293.88
710.55	279.84
710.955	279.84
711.36	221.33
711.765	268.14
712.17	371.12
712.575	298.56
712.98	874.34
713.385	291.54
713.789	221.33
714.194	277.5
714.599	293.88
715.003	277.5
715.408	307.93
715.812	244.73
716.217	366.44
716.621	296.22
717.025	333.67
717.429	317.29
717.833	279.84
718.238	242.39
718.642	300.91
719.046	272.82
719.449	270.48
719.853	317.29
720.257	293.88
720.661	345.38
721.065	307.93
721.468	298.56
721.872	247.07
722.275	328.99
722.679	298.56
723.082	275.16
723.485	279.84
723.889	324.31
724.292	251.75
724.695	317.29
725.098	282.18
725.501	307.93
725.904	328.99
726.307	321.97
726.71	242.39
727.113	298.56
727.516	293.88
727.918	303.25
728.321	343.03
728.724	303.25
729.126	298.56
729.529	296.22
729.931	314.95
730.333	328.99
730.736	282.18
731.138	275.16
731.54	361.76
731.942	286.86
732.344	312.61
732.746	270.48
733.148	263.46
733.55	305.59
733.952	310.27
734.354	277.5
734.756	293.88
735.157	270.48
735.559	286.86
735.96	275.16
736.362	343.03
736.763	291.54
737.165	354.74
737.566	296.22
737.967	291.54
738.368	296.22
738.77	284.52
739.171	321.97
739.572	300.91
739.973	265.8
740.374	244.73
740.774	328.99
741.175	314.95
741.576	270.48
741.977	263.46
742.377	284.52
742.778	350.06
743.178	338.35
743.579	340.69
743.979	265.8
744.379	258.78
744.78	286.86
745.18	289.2
745.58	272.82
745.98	338.35
746.38	286.86
746.78	296.22
747.18	270.48
747.58	284.52
747.98	289.2
748.38	300.91
748.779	361.76
749.179	336.01
749.578	333.67
749.978	350.06
750.377	321.97
750.777	343.03
751.176	256.43
751.575	272.82
751.975	296.22
752.374	296.22
752.773	314.95
753.172	300.91
753.571	331.33
753.97	347.72
754.369	263.46
754.768	366.44
755.166	289.2
755.565	375.8
755.964	321.97
756.362	265.8
756.761	279.84
757.159	303.25
757.558	256.43
757.956	286.86
758.354	310.27
758.753	331.33
759.151	300.91
759.549	296.22
759.947	343.03
760.345	270.48
760.743	296.22
761.141	275.16
761.539	291.54
761.936	291.54
762.334	303.25
762.732	244.73
763.129	268.14
763.527	279.84
763.924	415.59
764.322	240.05
