Data from Al_FLMS009871__945__16-20-01-021.txt Node

Date: Fri Mar 08 16:20:01 CST 2024
User: pe5414po
Spectrometer: FLMS00987
Trigger mode: 0
Integration Time (sec): 1.000000E-1
Scans to average: 1
Electric dark correction enabled: true
Nonlinearity correction enabled: false
Boxcar width: 0
XAxis mode: Wavelengths
Number of Pixels in Spectrum: 2048
>>>>>Begin Spectral Data<<<<<
188.938	-41.84
189.409	-41.84
189.879	-41.84
190.349	-102.69
190.819	-67.58
191.29	-53.54
191.76	-55.88
192.23	-116.73
192.7	-112.05
193.17	-102.69
193.64	-62.9
194.109	-37.16
194.579	-25.45
195.049	-4.39
195.519	23.7
195.988	21.36
196.458	65.83
196.927	-2.05
197.397	129.02
197.866	194.56
198.336	138.38
198.805	192.22
199.274	93.91
199.744	178.17
200.213	164.13
200.682	229.67
201.151	185.19
201.62	267.11
202.089	253.07
202.558	217.96
203.027	236.69
203.495	196.9
203.964	288.18
204.433	262.43
204.902	330.31
205.37	306.9
205.839	248.39
206.307	262.43
206.776	285.84
207.244	320.95
207.712	323.29
208.181	250.73
208.649	215.62
209.117	349.03
209.585	297.54
210.053	288.18
210.521	262.43
210.989	192.22
211.457	353.71
211.925	327.97
212.393	276.48
212.861	313.92
213.328	232.01
213.796	290.52
214.264	248.39
214.731	274.14
215.199	246.05
215.666	271.79
216.133	267.11
216.601	274.14
217.068	283.5
217.535	306.9
218.003	248.39
218.47	246.05
218.937	274.14
219.404	316.26
219.871	243.71
220.338	316.26
220.805	320.95
221.271	283.5
221.738	215.62
222.205	234.35
222.671	281.16
223.138	255.41
223.605	203.92
224.071	285.84
224.538	234.35
225.004	257.75
225.47	264.77
225.937	220.3
226.403	213.28
226.869	262.43
227.335	292.86
227.801	255.41
228.267	250.73
228.733	281.16
229.199	304.56
229.665	283.5
230.131	217.96
230.597	323.29
231.062	295.2
231.528	283.5
231.994	232.01
232.459	330.31
232.925	264.77
233.39	264.77
233.856	278.82
234.321	257.75
234.786	302.22
235.252	311.58
235.717	344.35
236.182	313.92
236.647	274.14
237.112	330.31
237.577	241.37
238.042	248.39
238.507	250.73
238.972	255.41
239.436	213.28
239.901	313.92
240.366	292.86
240.83	271.79
241.295	222.64
241.76	253.07
242.224	264.77
242.688	269.45
243.153	290.52
243.617	210.94
244.081	267.11
244.545	260.09
245.01	337.33
245.474	313.92
245.938	264.77
246.402	260.09
246.866	243.71
247.33	220.3
247.793	302.22
248.257	316.26
248.721	323.29
249.185	323.29
249.648	302.22
250.112	236.69
250.575	187.54
251.039	278.82
251.502	274.14
251.965	292.86
252.429	302.22
252.892	299.88
253.355	234.35
253.818	297.54
254.281	330.31
254.744	278.82
255.207	295.2
255.67	281.16
256.133	285.84
256.596	288.18
257.059	285.84
257.522	288.18
257.984	313.92
258.447	269.45
258.909	253.07
259.372	316.26
259.834	267.11
260.297	306.9
260.759	239.03
261.221	248.39
261.684	243.71
262.146	208.6
262.608	342.01
263.07	283.5
263.532	358.39
263.994	285.84
264.456	311.58
264.918	250.73
265.38	311.58
265.842	302.22
266.303	236.69
266.765	320.95
267.227	313.92
267.688	302.22
268.15	283.5
268.611	311.58
269.072	297.54
269.534	283.5
269.995	208.6
270.456	297.54
270.918	330.31
271.379	281.16
271.84	306.9
272.301	260.09
272.762	253.07
273.223	292.86
273.684	243.71
274.144	281.16
274.605	262.43
275.066	276.48
275.527	241.37
275.987	318.61
276.448	267.11
276.908	309.24
277.369	306.9
277.829	262.43
278.289	309.24
278.75	297.54
279.21	267.11
279.67	346.69
280.13	243.71
280.59	271.79
281.05	327.97
281.51	255.41
281.97	374.78
282.43	295.2
282.89	299.88
283.35	201.58
283.809	334.99
284.269	318.61
284.729	330.31
285.188	313.92
285.648	297.54
286.107	337.33
286.567	365.42
287.026	297.54
287.485	297.54
287.944	295.2
288.404	309.24
288.863	262.43
289.322	295.2
289.781	262.43
290.24	278.82
290.699	285.84
291.158	299.88
291.616	320.95
292.075	290.52
292.534	285.84
292.992	274.14
293.451	295.2
293.91	264.77
294.368	299.88
294.827	297.54
295.285	339.67
295.743	288.18
296.202	292.86
296.66	248.39
297.118	318.61
297.576	353.71
298.034	323.29
298.492	306.9
298.95	325.63
299.408	299.88
299.866	281.16
300.324	278.82
300.781	346.69
301.239	290.52
301.697	285.84
302.154	267.11
302.612	239.03
303.069	215.62
303.527	295.2
303.984	297.54
304.441	274.14
304.899	292.86
305.356	318.61
305.813	288.18
306.27	332.65
306.727	334.99
307.184	353.71
307.641	257.75
308.098	327.97
308.555	334.99
309.012	290.52
309.468	276.48
309.925	306.9
310.382	318.61
310.838	253.07
311.295	299.88
311.751	339.67
312.208	313.92
312.664	342.01
313.12	248.39
313.577	318.61
314.033	349.03
314.489	330.31
314.945	297.54
315.401	372.44
315.857	332.65
316.313	306.9
316.769	325.63
317.225	290.52
317.681	356.05
318.136	316.26
318.592	309.24
319.048	304.56
319.503	267.11
319.959	309.24
320.414	271.79
320.869	304.56
321.325	334.99
321.78	302.22
322.235	313.92
322.691	360.74
323.146	288.18
323.601	257.75
324.056	325.63
324.511	297.54
324.966	232.01
325.421	285.84
325.875	316.26
326.33	309.24
326.785	318.61
327.24	285.84
327.694	325.63
328.149	262.43
328.603	290.52
329.058	342.01
329.512	330.31
329.966	337.33
330.421	313.92
330.875	327.97
331.329	353.71
331.783	283.5
332.237	271.79
332.691	349.03
333.145	323.29
333.599	299.88
334.053	358.39
334.507	309.24
334.96	292.86
335.414	246.05
335.868	299.88
336.321	278.82
336.775	323.29
337.228	320.95
337.682	325.63
338.135	356.05
338.588	285.84
339.042	330.31
339.495	283.5
339.948	290.52
340.401	337.33
340.854	339.67
341.307	306.9
341.76	344.35
342.213	365.42
342.666	257.75
343.119	325.63
343.571	337.33
344.024	318.61
344.477	323.29
344.929	339.67
345.382	309.24
345.834	271.79
346.287	295.2
346.739	306.9
347.191	283.5
347.644	299.88
348.096	342.01
348.548	316.26
349	304.56
349.452	283.5
349.904	285.84
350.356	311.58
350.808	299.88
351.26	288.18
351.711	288.18
352.163	283.5
352.615	292.86
353.066	318.61
353.518	346.69
353.969	257.75
354.421	236.69
354.872	358.39
355.324	318.61
355.775	210.94
356.226	306.9
356.677	260.09
357.128	292.86
357.579	351.37
358.03	358.39
358.481	342.01
358.932	323.29
359.383	316.26
359.834	302.22
360.285	297.54
360.735	358.39
361.186	311.58
361.637	304.56
362.087	311.58
362.538	267.11
362.988	269.45
363.438	292.86
363.889	278.82
364.339	311.58
364.789	311.58
365.239	285.84
365.689	334.99
366.139	323.29
366.589	222.64
367.039	316.26
367.489	283.5
367.939	285.84
368.389	353.71
368.839	253.07
369.288	313.92
369.738	344.35
370.187	302.22
370.637	295.2
371.086	337.33
371.536	264.77
371.985	327.97
372.434	334.99
372.884	274.14
373.333	290.52
373.782	330.31
374.231	257.75
374.68	327.97
375.129	311.58
375.578	332.65
376.027	278.82
376.475	320.95
376.924	299.88
377.373	353.71
377.822	330.31
378.27	262.43
378.719	292.86
379.167	299.88
379.616	309.24
380.064	283.5
380.512	290.52
380.961	325.63
381.409	365.42
381.857	332.65
382.305	260.09
382.753	309.24
383.201	281.16
383.649	285.84
384.097	306.9
384.545	365.42
384.992	327.97
385.44	318.61
385.888	372.44
386.335	346.69
386.783	276.48
387.231	299.88
387.678	299.88
388.125	337.33
388.573	332.65
389.02	274.14
389.467	337.33
389.914	309.24
390.362	365.42
390.809	334.99
391.256	358.39
391.703	304.56
392.15	253.07
392.596	299.88
393.043	313.92
393.49	292.86
393.937	288.18
394.383	393.5
394.83	342.01
395.276	306.9
395.723	241.37
396.169	299.88
396.616	285.84
397.062	278.82
397.508	299.88
397.954	276.48
398.401	342.01
398.847	311.58
399.293	365.42
399.739	342.01
400.185	246.05
400.631	325.63
401.076	283.5
401.522	342.01
401.968	297.54
402.414	330.31
402.859	337.33
403.305	311.58
403.75	241.37
404.196	285.84
404.641	306.9
405.086	318.61
405.532	297.54
405.977	360.74
406.422	246.05
406.867	262.43
407.312	243.71
407.757	299.88
408.202	320.95
408.647	320.95
409.092	304.56
409.537	299.88
409.982	327.97
410.426	306.9
410.871	334.99
411.316	306.9
411.76	271.79
412.205	374.78
412.649	332.65
413.093	388.82
413.538	313.92
413.982	370.1
414.426	313.92
414.87	269.45
415.314	320.95
415.758	358.39
416.202	302.22
416.646	288.18
417.09	342.01
417.534	292.86
417.978	274.14
418.421	339.67
418.865	323.29
419.309	330.31
419.752	302.22
420.196	311.58
420.639	325.63
421.083	353.71
421.526	334.99
421.969	344.35
422.412	292.86
422.856	370.1
423.299	370.1
423.742	309.24
424.185	309.24
424.628	367.76
425.071	316.26
425.513	325.63
425.956	323.29
426.399	313.92
426.842	381.8
427.284	346.69
427.727	304.56
428.169	297.54
428.612	288.18
429.054	327.97
429.497	309.24
429.939	344.35
430.381	267.11
430.823	332.65
431.265	257.75
431.707	337.33
432.149	313.92
432.591	274.14
433.033	302.22
433.475	339.67
433.917	332.65
434.359	334.99
434.8	325.63
435.242	278.82
435.684	325.63
436.125	386.48
436.567	337.33
437.008	370.1
437.449	337.33
437.891	356.05
438.332	306.9
438.773	285.84
439.214	297.54
439.656	327.97
440.097	248.39
440.538	313.92
440.978	292.86
441.419	276.48
441.86	271.79
442.301	260.09
442.742	339.67
443.182	316.26
443.623	353.71
444.063	295.2
444.504	267.11
444.944	367.76
445.385	318.61
445.825	332.65
446.265	306.9
446.706	302.22
447.146	311.58
447.586	346.69
448.026	292.86
448.466	285.84
448.906	325.63
449.346	278.82
449.786	271.79
450.225	330.31
450.665	339.67
451.105	281.16
451.544	342.01
451.984	285.84
452.424	325.63
452.863	334.99
453.302	337.33
453.742	344.35
454.181	358.39
454.62	304.56
455.059	295.2
455.499	327.97
455.938	379.46
456.377	302.22
456.816	297.54
457.254	316.26
457.693	327.97
458.132	316.26
458.571	334.99
459.01	360.74
459.448	285.84
459.887	295.2
460.325	295.2
460.764	309.24
461.202	260.09
461.641	391.16
462.079	316.26
462.517	302.22
462.955	295.2
463.393	253.07
463.832	304.56
464.27	342.01
464.708	349.03
465.145	311.58
465.583	281.16
466.021	316.26
466.459	288.18
466.897	274.14
467.334	283.5
467.772	327.97
468.209	318.61
468.647	295.2
469.084	349.03
469.522	358.39
469.959	337.33
470.396	332.65
470.833	292.86
471.271	358.39
471.708	297.54
472.145	360.74
472.582	274.14
473.019	288.18
473.456	316.26
473.892	309.24
474.329	349.03
474.766	381.8
475.202	351.37
475.639	285.84
476.076	332.65
476.512	311.58
476.949	398.18
477.385	306.9
477.821	330.31
478.258	334.99
478.694	302.22
479.13	302.22
479.566	285.84
480.002	353.71
480.438	402.86
480.874	367.76
481.31	339.67
481.746	297.54
482.181	327.97
482.617	309.24
483.053	330.31
483.488	330.31
483.924	342.01
484.36	309.24
484.795	332.65
485.23	269.45
485.666	349.03
486.101	363.08
486.536	318.61
486.971	339.67
487.407	224.98
487.842	320.95
488.277	342.01
488.712	318.61
489.146	302.22
489.581	295.2
490.016	349.03
490.451	334.99
490.885	323.29
491.32	363.08
491.755	283.5
492.189	292.86
492.624	351.37
493.058	358.39
493.492	248.39
493.927	302.22
494.361	391.16
494.795	283.5
495.229	358.39
495.663	283.5
496.097	334.99
496.531	253.07
496.965	325.63
497.399	283.5
497.833	260.09
498.266	309.24
498.7	253.07
499.134	318.61
499.567	311.58
500.001	360.74
500.434	271.79
500.868	313.92
501.301	295.2
501.734	381.8
502.168	311.58
502.601	299.88
503.034	269.45
503.467	325.63
503.9	351.37
504.333	325.63
504.766	281.16
505.199	360.74
505.632	313.92
506.064	320.95
506.497	267.11
506.93	248.39
507.362	297.54
507.795	278.82
508.227	358.39
508.66	288.18
509.092	311.58
509.524	351.37
509.956	318.61
510.389	363.08
510.821	290.52
511.253	269.45
511.685	306.9
512.117	285.84
512.549	262.43
512.981	313.92
513.412	351.37
513.844	299.88
514.276	316.26
514.707	309.24
515.139	302.22
515.571	302.22
516.002	318.61
516.433	281.16
516.865	351.37
517.296	236.69
517.727	363.08
518.159	290.52
518.59	304.56
519.021	278.82
519.452	297.54
519.883	304.56
520.314	351.37
520.744	316.26
521.175	299.88
521.606	295.2
522.037	297.54
522.467	311.58
522.898	309.24
523.328	281.16
523.759	255.41
524.189	304.56
524.62	377.12
525.05	360.74
525.48	281.16
525.91	274.14
526.341	325.63
526.771	320.95
527.201	334.99
527.631	285.84
528.061	372.44
528.49	365.42
528.92	306.9
529.35	243.71
529.78	274.14
530.209	309.24
530.639	313.92
531.068	262.43
531.498	299.88
531.927	386.48
532.357	332.65
532.786	316.26
533.215	412.23
533.644	313.92
534.074	264.77
534.503	325.63
534.932	323.29
535.361	337.33
535.79	311.58
536.218	330.31
536.647	313.92
537.076	311.58
537.505	360.74
537.933	278.82
538.362	283.5
538.79	306.9
539.219	302.22
539.647	269.45
540.076	257.75
540.504	274.14
540.932	327.97
541.36	353.71
541.788	304.56
542.217	278.82
542.645	302.22
543.073	271.79
543.5	332.65
543.928	288.18
544.356	253.07
544.784	358.39
545.211	285.84
545.639	306.9
546.067	276.48
546.494	346.69
546.922	241.37
547.349	320.95
547.776	346.69
548.204	283.5
548.631	342.01
549.058	276.48
549.485	311.58
549.912	327.97
550.339	344.35
550.766	377.12
551.193	381.8
551.62	316.26
552.047	342.01
552.474	332.65
552.9	255.41
553.327	379.46
553.754	356.05
554.18	316.26
554.607	330.31
555.033	297.54
555.459	316.26
555.886	342.01
556.312	318.61
556.738	306.9
557.164	290.52
557.59	267.11
558.016	297.54
558.442	342.01
558.868	281.16
559.294	276.48
559.72	292.86
560.145	365.42
560.571	334.99
560.997	327.97
561.422	260.09
561.848	264.77
562.273	323.29
562.699	281.16
563.124	323.29
563.549	295.2
563.974	278.82
564.4	306.9
564.825	299.88
565.25	269.45
565.675	334.99
566.1	318.61
566.525	342.01
566.95	304.56
567.374	253.07
567.799	323.29
568.224	276.48
568.648	292.86
569.073	316.26
569.497	384.14
569.922	320.95
570.346	311.58
570.771	306.9
571.195	360.74
571.619	313.92
572.043	316.26
572.467	316.26
572.891	346.69
573.315	400.52
573.739	283.5
574.163	342.01
574.587	290.52
575.011	234.35
575.435	271.79
575.858	358.39
576.282	320.95
576.705	271.79
577.129	337.33
577.552	299.88
577.976	367.76
578.399	358.39
578.822	342.01
579.245	234.35
579.669	276.48
580.092	306.9
580.515	344.35
580.938	344.35
581.361	281.16
581.784	292.86
582.206	360.74
582.629	337.33
583.052	323.29
583.474	342.01
583.897	325.63
584.32	320.95
584.742	332.65
585.165	283.5
585.587	264.77
586.009	299.88
586.431	274.14
586.854	292.86
587.276	283.5
587.698	330.31
588.12	295.2
588.542	302.22
588.964	269.45
589.386	283.5
589.807	288.18
590.229	320.95
590.651	288.18
591.073	313.92
591.494	311.58
591.916	281.16
592.337	288.18
592.759	299.88
593.18	344.35
593.601	316.26
594.022	271.79
594.444	332.65
594.865	384.14
595.286	360.74
595.707	309.24
596.128	271.79
596.549	330.31
596.97	327.97
597.39	372.44
597.811	290.52
598.232	304.56
598.652	363.08
599.073	239.03
599.494	313.92
599.914	267.11
600.334	302.22
600.755	271.79
601.175	297.54
601.595	358.39
602.015	264.77
602.436	316.26
602.856	393.5
603.276	327.97
603.696	311.58
604.115	344.35
604.535	360.74
604.955	313.92
605.375	384.14
605.794	400.52
606.214	318.61
606.634	316.26
607.053	264.77
607.473	304.56
607.892	290.52
608.311	248.39
608.731	290.52
609.15	320.95
609.569	316.26
609.988	257.75
610.407	292.86
610.826	281.16
611.245	302.22
611.664	337.33
612.083	349.03
612.501	311.58
612.92	239.03
613.339	344.35
613.757	295.2
614.176	334.99
614.594	250.73
615.013	255.41
615.431	285.84
615.85	325.63
616.268	267.11
616.686	360.74
617.104	325.63
617.522	344.35
617.94	332.65
618.358	283.5
618.776	292.86
619.194	332.65
619.612	318.61
620.03	325.63
620.447	278.82
620.865	339.67
621.282	283.5
621.7	318.61
622.117	360.74
622.535	267.11
622.952	325.63
623.369	311.58
623.787	243.71
624.204	391.16
624.621	311.58
625.038	243.71
625.455	250.73
625.872	337.33
626.289	309.24
626.706	274.14
627.123	327.97
627.539	323.29
627.956	342.01
628.373	318.61
628.789	330.31
629.206	285.84
629.622	302.22
630.038	292.86
630.455	342.01
630.871	269.45
631.287	316.26
631.703	316.26
632.12	316.26
632.536	297.54
632.952	313.92
633.368	271.79
633.783	253.07
634.199	318.61
634.615	281.16
635.031	339.67
635.446	327.97
635.862	323.29
636.277	337.33
636.693	370.1
637.108	372.44
637.524	337.33
637.939	306.9
638.354	309.24
638.77	292.86
639.185	393.5
639.6	271.79
640.015	248.39
640.43	323.29
640.845	339.67
641.259	262.43
641.674	271.79
642.089	367.76
642.504	306.9
642.918	334.99
643.333	295.2
643.747	281.16
644.162	255.41
644.576	290.52
644.991	370.1
645.405	255.41
645.819	276.48
646.233	292.86
646.647	327.97
647.061	264.77
647.475	325.63
647.889	255.41
648.303	297.54
648.717	281.16
649.131	325.63
649.545	304.56
649.958	330.31
650.372	332.65
650.785	342.01
651.199	309.24
651.612	288.18
652.026	325.63
652.439	381.8
652.852	306.9
653.266	304.56
653.679	332.65
654.092	370.1
654.505	290.52
654.918	351.37
655.331	409.89
655.744	264.77
656.156	334.99
656.569	304.56
656.982	339.67
657.394	379.46
657.807	260.09
658.22	332.65
658.632	349.03
659.044	246.05
659.457	358.39
659.869	346.69
660.281	349.03
660.693	302.22
661.106	367.76
661.518	334.99
661.93	281.16
662.342	255.41
662.754	330.31
663.165	330.31
663.577	295.2
663.989	318.61
664.401	320.95
664.812	311.58
665.224	264.77
665.635	320.95
666.047	309.24
666.458	311.58
666.869	320.95
667.281	325.63
667.692	334.99
668.103	257.75
668.514	288.18
668.925	302.22
669.336	327.97
669.747	253.07
670.158	349.03
670.569	351.37
670.979	311.58
671.39	318.61
671.801	285.84
672.211	283.5
672.622	353.71
673.032	339.67
673.443	346.69
673.853	278.82
674.263	349.03
674.674	234.35
675.084	283.5
675.494	271.79
675.904	318.61
676.314	372.44
676.724	332.65
677.134	316.26
677.544	281.16
677.953	360.74
678.363	323.29
678.773	372.44
679.182	271.79
679.592	313.92
680.001	320.95
680.411	311.58
680.82	337.33
681.23	346.69
681.639	278.82
682.048	334.99
682.457	302.22
682.866	309.24
683.275	271.79
683.684	290.52
684.093	313.92
684.502	339.67
684.911	337.33
685.32	285.84
685.728	313.92
686.137	278.82
686.546	297.54
686.954	290.52
687.363	274.14
687.771	297.54
688.179	276.48
688.588	318.61
688.996	342.01
689.404	283.5
689.812	304.56
690.22	274.14
690.628	257.75
691.036	297.54
691.444	367.76
691.852	250.73
692.26	334.99
692.667	302.22
693.075	304.56
693.483	311.58
693.89	365.42
694.298	299.88
694.705	306.9
695.112	297.54
695.52	349.03
695.927	304.56
696.334	332.65
696.741	281.16
697.148	267.11
697.555	311.58
697.962	255.41
698.369	344.35
698.776	285.84
699.183	344.35
699.59	269.45
699.996	302.22
700.403	262.43
700.81	302.22
701.216	374.78
701.623	346.69
702.029	255.41
702.435	342.01
702.842	349.03
703.248	313.92
703.654	323.29
704.06	232.01
704.466	386.48
704.872	292.86
705.278	283.5
705.684	283.5
706.09	281.16
706.496	316.26
706.901	302.22
707.307	274.14
707.712	241.37
708.118	304.56
708.523	253.07
708.929	297.54
709.334	306.9
709.74	295.2
710.145	311.58
710.55	299.88
710.955	309.24
711.36	285.84
711.765	330.31
712.17	372.44
712.575	309.24
712.98	866.29
713.385	325.63
713.789	334.99
714.194	332.65
714.599	281.16
715.003	292.86
715.408	304.56
715.812	290.52
716.217	320.95
716.621	337.33
717.025	316.26
717.429	349.03
717.833	318.61
718.238	311.58
718.642	388.82
719.046	267.11
719.449	269.45
719.853	267.11
720.257	325.63
720.661	274.14
721.065	316.26
721.468	285.84
721.872	363.08
722.275	299.88
722.679	241.37
723.082	327.97
723.485	334.99
723.889	360.74
724.292	309.24
724.695	262.43
725.098	318.61
725.501	323.29
725.904	306.9
726.307	337.33
726.71	356.05
727.113	276.48
727.516	316.26
727.918	295.2
728.321	295.2
728.724	318.61
729.126	311.58
729.529	285.84
729.931	292.86
730.333	236.69
730.736	323.29
731.138	325.63
731.54	311.58
731.942	316.26
732.344	325.63
732.746	292.86
733.148	346.69
733.55	297.54
733.952	295.2
734.354	351.37
734.756	278.82
735.157	337.33
735.559	342.01
735.96	311.58
736.362	381.8
736.763	360.74
737.165	281.16
737.566	316.26
737.967	288.18
738.368	262.43
738.77	283.5
739.171	299.88
739.572	327.97
739.973	276.48
740.374	318.61
740.774	320.95
741.175	327.97
741.576	290.52
741.977	344.35
742.377	318.61
742.778	297.54
743.178	304.56
743.579	253.07
743.979	313.92
744.379	299.88
744.78	304.56
745.18	325.63
745.58	290.52
745.98	330.31
746.38	327.97
746.78	330.31
747.18	356.05
747.58	332.65
747.98	288.18
748.38	262.43
748.779	260.09
749.179	365.42
749.578	330.31
749.978	323.29
750.377	318.61
750.777	276.48
751.176	346.69
751.575	316.26
751.975	358.39
752.374	384.14
752.773	349.03
753.172	323.29
753.571	257.75
753.97	386.48
754.369	327.97
754.768	260.09
755.166	260.09
755.565	283.5
755.964	311.58
756.362	276.48
756.761	313.92
757.159	262.43
757.558	302.22
757.956	316.26
758.354	358.39
758.753	339.67
759.151	327.97
759.549	316.26
759.947	295.2
760.345	325.63
760.743	381.8
761.141	318.61
761.539	342.01
761.936	316.26
762.334	323.29
762.732	281.16
763.129	332.65
763.527	311.58
763.924	304.56
764.322	358.39
764.719	295.2
