Data from Al_FLMS009871__940__16-20-00-521.txt Node

Date: Fri Mar 08 16:20:00 CST 2024
User: pe5414po
Spectrometer: FLMS00987
Trigger mode: 0
Integration Time (sec): 1.000000E-1
Scans to average: 1
Electric dark correction enabled: true
Nonlinearity correction enabled: false
Boxcar width: 0
XAxis mode: Wavelengths
Number of Pixels in Spectrum: 2048
>>>>>Begin Spectral Data<<<<<
188.938	-38.62
189.409	-38.62
189.879	-38.62
190.349	-127.56
190.819	-169.69
191.29	-134.58
191.76	-108.83
192.23	-57.34
192.7	-90.11
193.17	-31.6
193.64	-55
194.109	-19.89
194.579	-31.6
195.049	8.19
195.519	5.85
195.988	45.64
196.458	43.3
196.927	94.79
197.397	85.43
197.866	76.07
198.336	169.69
198.805	136.92
199.274	218.84
199.744	181.39
200.213	190.75
200.682	214.16
201.151	221.18
201.62	232.88
202.089	228.2
202.558	265.65
203.027	277.35
203.495	277.35
203.964	258.63
204.433	260.97
204.902	265.65
205.37	267.99
205.839	300.76
206.307	272.67
206.776	300.76
207.244	326.5
207.712	296.08
208.181	298.42
208.649	275.01
209.117	279.69
209.585	263.31
210.053	282.03
210.521	342.89
210.989	232.88
211.457	258.63
211.925	298.42
212.393	279.69
212.861	333.53
213.328	338.21
213.796	230.54
214.264	221.18
214.731	282.03
215.199	267.99
215.666	218.84
216.133	267.99
216.601	291.4
217.068	289.06
217.535	314.8
218.003	279.69
218.47	249.27
218.937	317.14
219.404	253.95
219.871	314.8
220.338	207.14
220.805	291.4
221.271	239.9
221.738	214.16
222.205	282.03
222.671	284.38
223.138	284.38
223.605	258.63
224.071	253.95
224.538	293.74
225.004	396.72
225.47	312.46
225.937	202.46
226.403	270.33
226.869	242.25
227.335	223.52
227.801	218.84
228.267	249.27
228.733	282.03
229.199	328.85
229.665	314.8
230.131	256.29
230.597	230.54
231.062	228.2
231.528	237.56
231.994	230.54
232.459	293.74
232.925	249.27
233.39	270.33
233.856	298.42
234.321	291.4
234.786	181.39
235.252	267.99
235.717	253.95
236.182	267.99
236.647	232.88
237.112	204.8
237.577	310.12
238.042	307.78
238.507	310.12
238.972	267.99
239.436	253.95
239.901	237.56
240.366	338.21
240.83	298.42
241.295	324.16
241.76	303.1
242.224	246.93
242.688	275.01
243.153	249.27
243.617	310.12
244.081	298.42
244.545	270.33
245.01	232.88
245.474	338.21
245.938	246.93
246.402	305.44
246.866	235.22
247.33	314.8
247.793	298.42
248.257	303.1
248.721	314.8
249.185	251.61
249.648	221.18
250.112	300.76
250.575	317.14
251.039	305.44
251.502	258.63
251.965	263.31
252.429	307.78
252.892	305.44
253.355	314.8
253.818	282.03
254.281	317.14
254.744	291.4
255.207	258.63
255.67	305.44
256.133	270.33
256.596	291.4
257.059	265.65
257.522	286.72
257.984	272.67
258.447	263.31
258.909	312.46
259.372	284.38
259.834	305.44
260.297	251.61
260.759	321.82
261.221	293.74
261.684	270.33
262.146	342.89
262.608	282.03
263.07	265.65
263.532	317.14
263.994	305.44
264.456	216.5
264.918	317.14
265.38	289.06
265.842	263.31
266.303	296.08
266.765	232.88
267.227	296.08
267.688	282.03
268.15	340.55
268.611	338.21
269.072	296.08
269.534	300.76
269.995	317.14
270.456	326.5
270.918	228.2
271.379	267.99
271.84	256.29
272.301	267.99
272.762	328.85
273.223	289.06
273.684	253.95
274.144	260.97
274.605	207.14
275.066	331.19
275.527	263.31
275.987	275.01
276.448	328.85
276.908	293.74
277.369	307.78
277.829	307.78
278.289	289.06
278.75	242.25
279.21	317.14
279.67	310.12
280.13	258.63
280.59	291.4
281.05	291.4
281.51	272.67
281.97	326.5
282.43	342.89
282.89	307.78
283.35	326.5
283.809	307.78
284.269	249.27
284.729	183.73
285.188	338.21
285.648	314.8
286.107	310.12
286.567	282.03
287.026	338.21
287.485	317.14
287.944	296.08
288.404	335.87
288.863	293.74
289.322	321.82
289.781	239.9
290.24	282.03
290.699	314.8
291.158	293.74
291.616	289.06
292.075	249.27
292.534	363.95
292.992	324.16
293.451	303.1
293.91	319.48
294.368	347.57
294.827	235.22
295.285	324.16
295.743	246.93
296.202	307.78
296.66	284.38
297.118	289.06
297.576	314.8
298.034	354.59
298.492	267.99
298.95	260.97
299.408	249.27
299.866	338.21
300.324	310.12
300.781	352.25
301.239	305.44
301.697	277.35
302.154	284.38
302.612	307.78
303.069	291.4
303.527	267.99
303.984	249.27
304.441	270.33
304.899	356.93
305.356	307.78
305.813	356.93
306.27	305.44
306.727	296.08
307.184	373.32
307.641	272.67
308.098	307.78
308.555	272.67
309.012	244.59
309.468	319.48
309.925	270.33
310.382	333.53
310.838	312.46
311.295	317.14
311.751	307.78
312.208	277.35
312.664	244.59
313.12	251.61
313.577	314.8
314.033	291.4
314.489	239.9
314.945	251.61
315.401	356.93
315.857	267.99
316.313	363.95
316.769	291.4
317.225	324.16
317.681	289.06
318.136	375.66
318.592	249.27
319.048	275.01
319.503	277.35
319.959	305.44
320.414	298.42
320.869	253.95
321.325	275.01
321.78	338.21
322.235	305.44
322.691	305.44
323.146	237.56
323.601	284.38
324.056	321.82
324.511	272.67
324.966	375.66
325.421	331.19
325.875	256.29
326.33	246.93
326.785	312.46
327.24	303.1
327.694	312.46
328.149	321.82
328.603	378
329.058	270.33
329.512	335.87
329.966	293.74
330.421	317.14
330.875	317.14
331.329	305.44
331.783	286.72
332.237	401.4
332.691	361.61
333.145	291.4
333.599	277.35
334.053	305.44
334.507	263.31
334.96	328.85
335.414	312.46
335.868	338.21
336.321	347.57
336.775	256.29
337.228	265.65
337.682	321.82
338.135	303.1
338.588	256.29
339.042	260.97
339.495	270.33
339.948	303.1
340.401	284.38
340.854	331.19
341.307	333.53
341.76	291.4
342.213	303.1
342.666	331.19
343.119	317.14
343.571	338.21
344.024	321.82
344.477	303.1
344.929	279.69
345.382	277.35
345.834	246.93
346.287	349.91
346.739	321.82
347.191	253.95
347.644	310.12
348.096	284.38
348.548	284.38
349	279.69
349.452	345.23
349.904	321.82
350.356	298.42
350.808	345.23
351.26	324.16
351.711	300.76
352.163	284.38
352.615	314.8
353.066	277.35
353.518	263.31
353.969	331.19
354.421	345.23
354.872	370.97
355.324	296.08
355.775	303.1
356.226	373.32
356.677	296.08
357.128	310.12
357.579	272.67
358.03	293.74
358.481	319.48
358.932	324.16
359.383	270.33
359.834	321.82
360.285	293.74
360.735	349.91
361.186	352.25
361.637	324.16
362.087	289.06
362.538	303.1
362.988	326.5
363.438	328.85
363.889	399.06
364.339	328.85
364.789	335.87
365.239	333.53
365.689	345.23
366.139	291.4
366.589	359.27
367.039	272.67
367.489	267.99
367.939	230.54
368.389	340.55
368.839	260.97
369.288	307.78
369.738	300.76
370.187	342.89
370.637	373.32
371.086	305.44
371.536	305.44
371.985	307.78
372.434	342.89
372.884	366.29
373.333	305.44
373.782	296.08
374.231	249.27
374.68	333.53
375.129	265.65
375.578	286.72
376.027	286.72
376.475	286.72
376.924	314.8
377.373	326.5
377.822	324.16
378.27	263.31
378.719	310.12
379.167	291.4
379.616	263.31
380.064	291.4
380.512	331.19
380.961	251.61
381.409	340.55
381.857	368.63
382.305	275.01
382.753	307.78
383.201	272.67
383.649	321.82
384.097	307.78
384.545	265.65
384.992	361.61
385.44	284.38
385.888	293.74
386.335	305.44
386.783	256.29
387.231	319.48
387.678	303.1
388.125	307.78
388.573	389.7
389.02	298.42
389.467	349.91
389.914	349.91
390.362	291.4
390.809	324.16
391.256	263.31
391.703	256.29
392.15	354.59
392.596	326.5
393.043	347.57
393.49	340.55
393.937	303.1
394.383	338.21
394.83	342.89
395.276	345.23
395.723	303.1
396.169	312.46
396.616	321.82
397.062	300.76
397.508	314.8
397.954	326.5
398.401	298.42
398.847	251.61
399.293	270.33
399.739	239.9
400.185	296.08
400.631	324.16
401.076	338.21
401.522	338.21
401.968	310.12
402.414	314.8
402.859	300.76
403.305	317.14
403.75	317.14
404.196	340.55
404.641	333.53
405.086	307.78
405.532	328.85
405.977	277.35
406.422	345.23
406.867	235.22
407.312	314.8
407.757	326.5
408.202	314.8
408.647	356.93
409.092	312.46
409.537	291.4
409.982	319.48
410.426	263.31
410.871	298.42
411.316	270.33
411.76	279.69
412.205	260.97
412.649	312.46
413.093	399.06
413.538	300.76
413.982	328.85
414.426	310.12
414.87	293.74
415.314	356.93
415.758	349.91
416.202	284.38
416.646	321.82
417.09	284.38
417.534	331.19
417.978	260.97
418.421	289.06
418.865	307.78
419.309	326.5
419.752	321.82
420.196	310.12
420.639	296.08
421.083	277.35
421.526	305.44
421.969	275.01
422.412	298.42
422.856	310.12
423.299	267.99
423.742	319.48
424.185	307.78
424.628	300.76
425.071	275.01
425.513	328.85
425.956	256.29
426.399	347.57
426.842	237.56
427.284	275.01
427.727	373.32
428.169	279.69
428.612	307.78
429.054	275.01
429.497	326.5
429.939	305.44
430.381	328.85
430.823	230.54
431.265	317.14
431.707	239.9
432.149	253.95
432.591	317.14
433.033	267.99
433.475	342.89
433.917	333.53
434.359	307.78
434.8	310.12
435.242	305.44
435.684	253.95
436.125	291.4
436.567	347.57
437.008	293.74
437.449	324.16
437.891	279.69
438.332	270.33
438.773	317.14
439.214	349.91
439.656	347.57
440.097	328.85
440.538	338.21
440.978	291.4
441.419	317.14
441.86	279.69
442.301	349.91
442.742	340.55
443.182	373.32
443.623	282.03
444.063	328.85
444.504	317.14
444.944	331.19
445.385	352.25
445.825	284.38
446.265	242.25
446.706	282.03
447.146	317.14
447.586	305.44
448.026	270.33
448.466	300.76
448.906	363.95
449.346	361.61
449.786	342.89
450.225	319.48
450.665	331.19
451.105	333.53
451.544	352.25
451.984	291.4
452.424	373.32
452.863	312.46
453.302	291.4
453.742	319.48
454.181	256.29
454.62	310.12
455.059	289.06
455.499	335.87
455.938	289.06
456.377	373.32
456.816	335.87
457.254	310.12
457.693	305.44
458.132	342.89
458.571	253.95
459.01	253.95
459.448	335.87
459.887	324.16
460.325	296.08
460.764	340.55
461.202	289.06
461.641	291.4
462.079	375.66
462.517	305.44
462.955	331.19
463.393	277.35
463.832	359.27
464.27	293.74
464.708	333.53
465.145	279.69
465.583	333.53
466.021	293.74
466.459	359.27
466.897	277.35
467.334	216.5
467.772	272.67
468.209	256.29
468.647	289.06
469.084	328.85
469.522	354.59
469.959	335.87
470.396	335.87
470.833	225.86
471.271	335.87
471.708	375.66
472.145	347.57
472.582	310.12
473.019	279.69
473.456	305.44
473.892	359.27
474.329	293.74
474.766	279.69
475.202	277.35
475.639	361.61
476.076	326.5
476.512	321.82
476.949	366.29
477.385	263.31
477.821	342.89
478.258	286.72
478.694	340.55
479.13	307.78
479.566	312.46
480.002	296.08
480.438	342.89
480.874	293.74
481.31	352.25
481.746	321.82
482.181	286.72
482.617	333.53
483.053	354.59
483.488	310.12
483.924	326.5
484.36	300.76
484.795	370.97
485.23	258.63
485.666	321.82
486.101	286.72
486.536	270.33
486.971	267.99
487.407	324.16
487.842	363.95
488.277	347.57
488.712	328.85
489.146	333.53
489.581	324.16
490.016	300.76
490.451	321.82
490.885	368.63
491.32	333.53
491.755	342.89
492.189	331.19
492.624	289.06
493.058	260.97
493.492	328.85
493.927	296.08
494.361	363.95
494.795	328.85
495.229	356.93
495.663	321.82
496.097	300.76
496.531	324.16
496.965	312.46
497.399	331.19
497.833	354.59
498.266	345.23
498.7	244.59
499.134	298.42
499.567	340.55
500.001	314.8
500.434	277.35
500.868	317.14
501.301	361.61
501.734	293.74
502.168	310.12
502.601	328.85
503.034	347.57
503.467	291.4
503.9	293.74
504.333	284.38
504.766	326.5
505.199	326.5
505.632	303.1
506.064	317.14
506.497	331.19
506.93	319.48
507.362	291.4
507.795	251.61
508.227	291.4
508.66	359.27
509.092	307.78
509.524	289.06
509.956	244.59
510.389	279.69
510.821	284.38
511.253	352.25
511.685	296.08
512.117	270.33
512.549	310.12
512.981	284.38
513.412	375.66
513.844	356.93
514.276	267.99
514.707	326.5
515.139	312.46
515.571	256.29
516.002	335.87
516.433	282.03
516.865	361.61
517.296	317.14
517.727	284.38
518.159	310.12
518.59	321.82
519.021	239.9
519.452	310.12
519.883	312.46
520.314	345.23
520.744	345.23
521.175	328.85
521.606	298.42
522.037	363.95
522.467	380.34
522.898	286.72
523.328	321.82
523.759	380.34
524.189	352.25
524.62	300.76
525.05	352.25
525.48	293.74
525.91	375.66
526.341	277.35
526.771	340.55
527.201	244.59
527.631	335.87
528.061	354.59
528.49	333.53
528.92	275.01
529.35	303.1
529.78	310.12
530.209	314.8
530.639	282.03
531.068	293.74
531.498	284.38
531.927	317.14
532.357	328.85
532.786	307.78
533.215	303.1
533.644	265.65
534.074	310.12
534.503	340.55
534.932	370.97
535.361	293.74
535.79	312.46
536.218	406.08
536.647	340.55
537.076	328.85
537.505	335.87
537.933	345.23
538.362	354.59
538.79	307.78
539.219	326.5
539.647	305.44
540.076	282.03
540.504	272.67
540.932	249.27
541.36	342.89
541.788	319.48
542.217	326.5
542.645	251.61
543.073	291.4
543.5	380.34
543.928	256.29
544.356	361.61
544.784	347.57
545.211	331.19
545.639	324.16
546.067	340.55
546.494	272.67
546.922	270.33
547.349	317.14
547.776	352.25
548.204	321.82
548.631	331.19
549.058	310.12
549.485	324.16
549.912	305.44
550.339	340.55
550.766	317.14
551.193	312.46
551.62	338.21
552.047	338.21
552.474	275.01
552.9	338.21
553.327	335.87
553.754	326.5
554.18	307.78
554.607	378
555.033	340.55
555.459	338.21
555.886	300.76
556.312	328.85
556.738	298.42
557.164	345.23
557.59	335.87
558.016	335.87
558.442	289.06
558.868	305.44
559.294	314.8
559.72	253.95
560.145	319.48
560.571	277.35
560.997	291.4
561.422	305.44
561.848	321.82
562.273	303.1
562.699	342.89
563.124	298.42
563.549	277.35
563.974	326.5
564.4	317.14
564.825	314.8
565.25	319.48
565.675	282.03
566.1	342.89
566.525	324.16
566.95	352.25
567.374	349.91
567.799	312.46
568.224	282.03
568.648	366.29
569.073	342.89
569.497	307.78
569.922	349.91
570.346	293.74
570.771	289.06
571.195	277.35
571.619	300.76
572.043	284.38
572.467	270.33
572.891	324.16
573.315	282.03
573.739	340.55
574.163	340.55
574.587	305.44
575.011	333.53
575.435	284.38
575.858	335.87
576.282	335.87
576.705	314.8
577.129	277.35
577.552	317.14
577.976	328.85
578.399	352.25
578.822	380.34
579.245	319.48
579.669	324.16
580.092	321.82
580.515	324.16
580.938	338.21
581.361	289.06
581.784	272.67
582.206	401.4
582.629	338.21
583.052	307.78
583.474	314.8
583.897	298.42
584.32	333.53
584.742	265.65
585.165	319.48
585.587	291.4
586.009	296.08
586.431	338.21
586.854	303.1
587.276	279.69
587.698	265.65
588.12	310.12
588.542	331.19
588.964	349.91
589.386	314.8
589.807	392.04
590.229	335.87
590.651	363.95
591.073	326.5
591.494	305.44
591.916	296.08
592.337	333.53
592.759	319.48
593.18	258.63
593.601	338.21
594.022	324.16
594.444	286.72
594.865	354.59
595.286	342.89
595.707	265.65
596.128	347.57
596.549	338.21
596.97	319.48
597.39	328.85
597.811	307.78
598.232	284.38
598.652	270.33
599.073	363.95
599.494	307.78
599.914	347.57
600.334	284.38
600.755	319.48
601.175	328.85
601.595	310.12
602.015	298.42
602.436	293.74
602.856	382.68
603.276	326.5
603.696	349.91
604.115	286.72
604.535	321.82
604.955	305.44
605.375	333.53
605.794	335.87
606.214	375.66
606.634	321.82
607.053	277.35
607.473	356.93
607.892	277.35
608.311	349.91
608.731	260.97
609.15	324.16
609.569	326.5
609.988	286.72
610.407	359.27
610.826	319.48
611.245	296.08
611.664	356.93
612.083	239.9
612.501	293.74
612.92	321.82
613.339	319.48
613.757	326.5
614.176	333.53
614.594	321.82
615.013	307.78
615.431	317.14
615.85	296.08
616.268	338.21
616.686	331.19
617.104	296.08
617.522	342.89
617.94	314.8
618.358	303.1
618.776	335.87
619.194	347.57
619.612	258.63
620.03	305.44
620.447	303.1
620.865	253.95
621.282	317.14
621.7	342.89
622.117	310.12
622.535	289.06
622.952	298.42
623.369	333.53
623.787	310.12
624.204	340.55
624.621	291.4
625.038	296.08
625.455	267.99
625.872	317.14
626.289	284.38
626.706	307.78
627.123	305.44
627.539	324.16
627.956	338.21
628.373	298.42
628.789	417.79
629.206	366.29
629.622	291.4
630.038	335.87
630.455	272.67
630.871	352.25
631.287	349.91
631.703	303.1
632.12	356.93
632.536	363.95
632.952	417.79
633.368	335.87
633.783	298.42
634.199	335.87
634.615	352.25
635.031	361.61
635.446	333.53
635.862	310.12
636.277	300.76
636.693	305.44
637.108	277.35
637.524	310.12
637.939	293.74
638.354	303.1
638.77	342.89
639.185	272.67
639.6	321.82
640.015	298.42
640.43	289.06
640.845	347.57
641.259	270.33
641.674	326.5
642.089	305.44
642.504	361.61
642.918	359.27
643.333	375.66
643.747	300.76
644.162	310.12
644.576	385.02
644.991	307.78
645.405	251.61
645.819	293.74
646.233	307.78
646.647	331.19
647.061	277.35
647.475	230.54
647.889	335.87
648.303	356.93
648.717	331.19
649.131	300.76
649.545	286.72
649.958	347.57
650.372	275.01
650.785	349.91
651.199	326.5
651.612	310.12
652.026	298.42
652.439	298.42
652.852	279.69
653.266	300.76
653.679	275.01
654.092	277.35
654.505	333.53
654.918	319.48
655.331	293.74
655.744	326.5
656.156	296.08
656.569	291.4
656.982	298.42
657.394	345.23
657.807	267.99
658.22	361.61
658.632	345.23
659.044	282.03
659.457	347.57
659.869	305.44
660.281	286.72
660.693	347.57
661.106	354.59
661.518	312.46
661.93	333.53
662.342	352.25
662.754	317.14
663.165	319.48
663.577	279.69
663.989	356.93
664.401	333.53
664.812	347.57
665.224	298.42
665.635	253.95
666.047	293.74
666.458	338.21
666.869	317.14
667.281	338.21
667.692	293.74
668.103	345.23
668.514	326.5
668.925	300.76
669.336	317.14
669.747	265.65
670.158	272.67
670.569	258.63
670.979	232.88
671.39	347.57
671.801	279.69
672.211	307.78
672.622	338.21
673.032	305.44
673.443	270.33
673.853	342.89
674.263	277.35
674.674	354.59
675.084	319.48
675.494	333.53
675.904	267.99
676.314	310.12
676.724	319.48
677.134	349.91
677.544	342.89
677.953	253.95
678.363	256.29
678.773	373.32
679.182	406.08
679.592	300.76
680.001	289.06
680.411	321.82
680.82	347.57
681.23	312.46
681.639	331.19
682.048	310.12
682.457	321.82
682.866	335.87
683.275	331.19
683.684	275.01
684.093	363.95
684.502	275.01
684.911	282.03
685.32	312.46
685.728	382.68
686.137	258.63
686.546	251.61
686.954	331.19
687.363	275.01
687.771	328.85
688.179	375.66
688.588	366.29
688.996	340.55
689.404	284.38
689.812	321.82
690.22	270.33
690.628	349.91
691.036	340.55
691.444	312.46
691.852	317.14
692.26	310.12
692.667	378
693.075	368.63
693.483	293.74
693.89	328.85
694.298	363.95
694.705	251.61
695.112	317.14
695.52	373.32
695.927	317.14
696.334	314.8
696.741	286.72
697.148	319.48
697.555	310.12
697.962	272.67
698.369	310.12
698.776	282.03
699.183	298.42
699.59	265.65
699.996	349.91
700.403	326.5
700.81	326.5
701.216	338.21
701.623	284.38
702.029	317.14
702.435	216.5
702.842	347.57
703.248	298.42
703.654	326.5
704.06	267.99
704.466	312.46
704.872	284.38
705.278	338.21
705.684	310.12
706.09	296.08
706.496	382.68
706.901	279.69
707.307	303.1
707.712	293.74
708.118	305.44
708.523	263.31
708.929	328.85
709.334	256.29
709.74	382.68
710.145	282.03
710.55	289.06
710.955	218.84
711.36	359.27
711.765	328.85
712.17	340.55
712.575	333.53
712.98	906.96
713.385	354.59
713.789	260.97
714.194	345.23
714.599	356.93
715.003	277.35
715.408	314.8
715.812	286.72
716.217	324.16
716.621	354.59
717.025	366.29
717.429	282.03
717.833	319.48
718.238	296.08
718.642	267.99
719.046	293.74
719.449	270.33
719.853	317.14
720.257	300.76
720.661	333.53
721.065	237.56
721.468	305.44
721.872	249.27
722.275	373.32
722.679	310.12
723.082	312.46
723.485	352.25
723.889	235.22
724.292	272.67
724.695	289.06
725.098	340.55
725.501	300.76
725.904	307.78
726.307	251.61
726.71	267.99
727.113	307.78
727.516	298.42
727.918	300.76
728.321	338.21
728.724	319.48
729.126	291.4
729.529	300.76
729.931	232.88
730.333	429.49
730.736	331.19
731.138	326.5
731.54	382.68
731.942	296.08
732.344	375.66
732.746	312.46
733.148	338.21
733.55	310.12
733.952	310.12
734.354	275.01
734.756	396.72
735.157	326.5
735.559	317.14
735.96	303.1
736.362	303.1
736.763	298.42
737.165	267.99
737.566	305.44
737.967	312.46
738.368	349.91
738.77	296.08
739.171	314.8
739.572	328.85
739.973	321.82
740.374	293.74
740.774	352.25
741.175	239.9
741.576	289.06
741.977	326.5
742.377	312.46
742.778	319.48
743.178	385.02
743.579	319.48
743.979	277.35
744.379	317.14
744.78	265.65
745.18	326.5
745.58	349.91
745.98	342.89
746.38	305.44
746.78	260.97
747.18	305.44
747.58	246.93
747.98	333.53
748.38	282.03
748.779	324.16
749.179	277.35
749.578	307.78
749.978	258.63
750.377	317.14
750.777	338.21
751.176	305.44
751.575	314.8
751.975	305.44
752.374	356.93
752.773	232.88
753.172	314.8
753.571	338.21
753.97	328.85
754.369	242.25
754.768	267.99
755.166	338.21
755.565	345.23
755.964	321.82
756.362	333.53
756.761	319.48
757.159	251.61
757.558	314.8
757.956	284.38
758.354	286.72
758.753	406.08
759.151	282.03
759.549	258.63
759.947	265.65
760.345	366.29
760.743	345.23
761.141	326.5
761.539	356.93
761.936	284.38
762.334	303.1
762.732	314.8
763.129	263.31
763.527	270.33
763.924	359.27
764.322	331.19
764.719	352.25
765.117	307.78
765.514	286.72
765.911	326.5
