Data from Al_FLMS009871__947__16-20-01-221.txt Node

Date: Fri Mar 08 16:20:01 CST 2024
User: pe5414po
Spectrometer: FLMS00987
Trigger mode: 0
Integration Time (sec): 1.000000E-1
Scans to average: 1
Electric dark correction enabled: true
Nonlinearity correction enabled: false
Boxcar width: 0
XAxis mode: Wavelengths
Number of Pixels in Spectrum: 2048
>>>>>Begin Spectral Data<<<<<
188.938	-62.46
189.409	-62.46
189.879	-62.46
190.349	-90.55
190.819	-104.59
191.29	-95.23
191.76	-69.48
192.23	-95.23
192.7	-90.55
193.17	-111.61
193.64	-46.08
194.109	-34.38
194.579	0.73
195.049	21.8
195.519	10.09
195.988	38.18
196.458	82.65
196.927	84.99
197.397	92.01
197.866	61.59
198.336	150.53
198.805	178.61
199.274	136.48
199.744	192.66
200.213	204.36
200.682	206.7
201.151	197.34
201.62	246.49
202.089	279.26
202.558	290.96
203.027	230.1
203.495	276.91
203.964	241.81
204.433	290.96
204.902	178.61
205.37	283.94
205.839	321.38
206.307	244.15
206.776	239.47
207.244	319.04
207.712	260.53
208.181	237.13
208.649	290.96
209.117	269.89
209.585	328.41
210.053	305
210.521	232.44
210.989	258.19
211.457	276.91
211.925	248.83
212.393	307.34
212.861	234.78
213.328	279.26
213.796	274.57
214.264	288.62
214.731	295.64
215.199	276.91
215.666	230.1
216.133	246.49
216.601	253.51
217.068	213.72
217.535	274.57
218.003	241.81
218.47	251.17
218.937	272.23
219.404	225.42
219.871	283.94
220.338	230.1
220.805	281.6
221.271	192.66
221.738	272.23
222.205	265.21
222.671	293.3
223.138	239.47
223.605	227.76
224.071	333.09
224.538	269.89
225.004	293.3
225.47	251.17
225.937	293.3
226.403	269.89
226.869	276.91
227.335	274.57
227.801	290.96
228.267	279.26
228.733	272.23
229.199	283.94
229.665	269.89
230.131	342.45
230.597	305
231.062	281.6
231.528	316.7
231.994	230.1
232.459	274.57
232.925	232.44
233.39	267.55
233.856	253.51
234.321	251.17
234.786	293.3
235.252	234.78
235.717	255.85
236.182	286.28
236.647	258.19
237.112	246.49
237.577	244.15
238.042	307.34
238.507	312.02
238.972	265.21
239.436	330.75
239.901	197.34
240.366	286.28
240.83	241.81
241.295	251.17
241.76	312.02
242.224	300.32
242.688	265.21
243.153	272.23
243.617	272.23
244.081	255.85
244.545	225.42
245.01	260.53
245.474	253.51
245.938	342.45
246.402	288.62
246.866	333.09
247.33	244.15
247.793	333.09
248.257	330.75
248.721	290.96
249.185	265.21
249.648	258.19
250.112	265.21
250.575	288.62
251.039	276.91
251.502	269.89
251.965	288.62
252.429	269.89
252.892	295.64
253.355	330.75
253.818	234.78
254.281	262.87
254.744	281.6
255.207	279.26
255.67	302.66
256.133	295.64
256.596	216.06
257.059	276.91
257.522	295.64
257.984	293.3
258.447	326.07
258.909	300.32
259.372	241.81
259.834	241.81
260.297	274.57
260.759	361.17
261.221	272.23
261.684	248.83
262.146	328.41
262.608	321.38
263.07	274.57
263.532	267.55
263.994	260.53
264.456	248.83
264.918	283.94
265.38	241.81
265.842	293.3
266.303	248.83
266.765	269.89
267.227	326.07
267.688	300.32
268.15	237.13
268.611	227.76
269.072	258.19
269.534	267.55
269.995	309.68
270.456	368.2
270.918	358.83
271.379	316.7
271.84	307.34
272.301	239.47
272.762	237.13
273.223	213.72
273.684	286.28
274.144	295.64
274.605	316.7
275.066	232.44
275.527	309.68
275.987	307.34
276.448	363.51
276.908	337.77
277.369	333.09
277.829	379.9
278.289	286.28
278.75	305
279.21	276.91
279.67	335.43
280.13	340.11
280.59	288.62
281.05	354.15
281.51	279.26
281.97	323.73
282.43	251.17
282.89	305
283.35	290.96
283.809	337.77
284.269	344.79
284.729	309.68
285.188	283.94
285.648	239.47
286.107	319.04
286.567	319.04
287.026	328.41
287.485	293.3
287.944	237.13
288.404	305
288.863	309.68
289.322	328.41
289.781	293.3
290.24	204.36
290.699	302.66
291.158	309.68
291.616	220.74
292.075	293.3
292.534	319.04
292.992	302.66
293.451	248.83
293.91	297.98
294.368	302.66
294.827	347.13
295.285	302.66
295.743	283.94
296.202	309.68
296.66	349.47
297.118	267.55
297.576	283.94
298.034	255.85
298.492	351.81
298.95	312.02
299.408	265.21
299.866	288.62
300.324	326.07
300.781	265.21
301.239	321.38
301.697	274.57
302.154	328.41
302.612	319.04
303.069	260.53
303.527	269.89
303.984	326.07
304.441	262.87
304.899	314.36
305.356	295.64
305.813	337.77
306.27	328.41
306.727	337.77
307.184	316.7
307.641	283.94
308.098	300.32
308.555	290.96
309.012	272.23
309.468	272.23
309.925	274.57
310.382	276.91
310.838	281.6
311.295	295.64
311.751	314.36
312.208	227.76
312.664	330.75
313.12	351.81
313.577	288.62
314.033	335.43
314.489	344.79
314.945	349.47
315.401	321.38
315.857	337.77
316.313	342.45
316.769	305
317.225	307.34
317.681	274.57
318.136	300.32
318.592	335.43
319.048	274.57
319.503	281.6
319.959	293.3
320.414	286.28
320.869	272.23
321.325	297.98
321.78	300.32
322.235	358.83
322.691	382.24
323.146	281.6
323.601	286.28
324.056	230.1
324.511	330.75
324.966	333.09
325.421	361.17
325.875	260.53
326.33	354.15
326.785	316.7
327.24	316.7
327.694	297.98
328.149	351.81
328.603	253.51
329.058	309.68
329.512	328.41
329.966	333.09
330.421	316.7
330.875	319.04
331.329	267.55
331.783	286.28
332.237	302.66
332.691	300.32
333.145	216.06
333.599	232.44
334.053	321.38
334.507	386.92
334.96	347.13
335.414	290.96
335.868	267.55
336.321	312.02
336.775	255.85
337.228	300.32
337.682	319.04
338.135	312.02
338.588	354.15
339.042	288.62
339.495	286.28
339.948	276.91
340.401	335.43
340.854	262.87
341.307	319.04
341.76	255.85
342.213	349.47
342.666	258.19
343.119	220.74
343.571	333.09
344.024	358.83
344.477	255.85
344.929	335.43
345.382	330.75
345.834	363.51
346.287	349.47
346.739	283.94
347.191	295.64
347.644	302.66
348.096	337.77
348.548	297.98
349	344.79
349.452	372.88
349.904	330.75
350.356	300.32
350.808	258.19
351.26	314.36
351.711	342.45
352.163	274.57
352.615	295.64
353.066	297.98
353.518	297.98
353.969	316.7
354.421	344.79
354.872	283.94
355.324	309.68
355.775	230.1
356.226	323.73
356.677	281.6
357.128	321.38
357.579	337.77
358.03	312.02
358.481	293.3
358.932	258.19
359.383	260.53
359.834	351.81
360.285	335.43
360.735	340.11
361.186	335.43
361.637	267.55
362.087	354.15
362.538	300.32
362.988	330.75
363.438	323.73
363.889	312.02
364.339	262.87
364.789	342.45
365.239	354.15
365.689	386.92
366.139	326.07
366.589	328.41
367.039	316.7
367.489	333.09
367.939	293.3
368.389	300.32
368.839	314.36
369.288	295.64
369.738	297.98
370.187	340.11
370.637	361.17
371.086	330.75
371.536	293.3
371.985	351.81
372.434	232.44
372.884	382.24
373.333	283.94
373.782	312.02
374.231	302.66
374.68	234.78
375.129	342.45
375.578	377.56
376.027	227.76
376.475	307.34
376.924	276.91
377.373	349.47
377.822	302.66
378.27	307.34
378.719	290.96
379.167	316.7
379.616	307.34
380.064	344.79
380.512	328.41
380.961	295.64
381.409	337.77
381.857	309.68
382.305	305
382.753	370.54
383.201	269.89
383.649	342.45
384.097	333.09
384.545	265.21
384.992	297.98
385.44	319.04
385.888	330.75
386.335	368.2
386.783	326.07
387.231	281.6
387.678	351.81
388.125	321.38
388.573	321.38
389.02	323.73
389.467	300.32
389.914	297.98
390.362	372.88
390.809	321.38
391.256	297.98
391.703	300.32
392.15	337.77
392.596	370.54
393.043	297.98
393.49	300.32
393.937	272.23
394.383	276.91
394.83	330.75
395.276	333.09
395.723	290.96
396.169	220.74
396.616	241.81
397.062	293.3
397.508	354.15
397.954	276.91
398.401	321.38
398.847	337.77
399.293	321.38
399.739	314.36
400.185	293.3
400.631	293.3
401.076	328.41
401.522	363.51
401.968	274.57
402.414	330.75
402.859	372.88
403.305	319.04
403.75	314.36
404.196	377.56
404.641	321.38
405.086	323.73
405.532	323.73
405.977	335.43
406.422	330.75
406.867	321.38
407.312	274.57
407.757	386.92
408.202	281.6
408.647	307.34
409.092	363.51
409.537	307.34
409.982	340.11
410.426	290.96
410.871	258.19
411.316	295.64
411.76	290.96
412.205	283.94
412.649	319.04
413.093	330.75
413.538	307.34
413.982	276.91
414.426	330.75
414.87	309.68
415.314	279.26
415.758	342.45
416.202	363.51
416.646	326.07
417.09	398.62
417.534	375.22
417.978	377.56
418.421	323.73
418.865	305
419.309	297.98
419.752	276.91
420.196	354.15
420.639	302.66
421.083	316.7
421.526	365.85
421.969	297.98
422.412	314.36
422.856	349.47
423.299	276.91
423.742	295.64
424.185	281.6
424.628	326.07
425.071	293.3
425.513	316.7
425.956	316.7
426.399	319.04
426.842	328.41
427.284	288.62
427.727	267.55
428.169	319.04
428.612	323.73
429.054	295.64
429.497	337.77
429.939	237.13
430.381	351.81
430.823	312.02
431.265	344.79
431.707	276.91
432.149	377.56
432.591	312.02
433.033	340.11
433.475	356.49
433.917	330.75
434.359	358.83
434.8	288.62
435.242	269.89
435.684	300.32
436.125	237.13
436.567	326.07
437.008	290.96
437.449	295.64
437.891	319.04
438.332	265.21
438.773	319.04
439.214	262.87
439.656	316.7
440.097	356.49
440.538	321.38
440.978	333.09
441.419	272.23
441.86	328.41
442.301	267.55
442.742	335.43
443.182	321.38
443.623	319.04
444.063	309.68
444.504	335.43
444.944	276.91
445.385	293.3
445.825	361.17
446.265	356.49
446.706	300.32
447.146	279.26
447.586	316.7
448.026	349.47
448.466	305
448.906	347.13
449.346	305
449.786	300.32
450.225	321.38
450.665	283.94
451.105	281.6
451.544	396.28
451.984	319.04
452.424	344.79
452.863	293.3
453.302	314.36
453.742	307.34
454.181	267.55
454.62	305
455.059	302.66
455.499	274.57
455.938	361.17
456.377	302.66
456.816	377.56
457.254	297.98
457.693	340.11
458.132	340.11
458.571	260.53
459.01	279.26
459.448	305
459.887	312.02
460.325	307.34
460.764	319.04
461.202	337.77
461.641	368.2
462.079	316.7
462.517	319.04
462.955	314.36
463.393	328.41
463.832	344.79
464.27	281.6
464.708	305
465.145	335.43
465.583	262.87
466.021	300.32
466.459	309.68
466.897	321.38
467.334	272.23
467.772	309.68
468.209	365.85
468.647	295.64
469.084	400.96
469.522	361.17
469.959	347.13
470.396	333.09
470.833	312.02
471.271	267.55
471.708	335.43
472.145	309.68
472.582	288.62
473.019	316.7
473.456	316.7
473.892	286.28
474.329	286.28
474.766	337.77
475.202	300.32
475.639	323.73
476.076	316.7
476.512	321.38
476.949	319.04
477.385	309.68
477.821	302.66
478.258	314.36
478.694	307.34
479.13	276.91
479.566	351.81
480.002	283.94
480.438	326.07
480.874	295.64
481.31	283.94
481.746	330.75
482.181	377.56
482.617	319.04
483.053	335.43
483.488	227.76
483.924	340.11
484.36	326.07
484.795	305
485.23	328.41
485.666	288.62
486.101	321.38
486.536	295.64
486.971	288.62
487.407	347.13
487.842	295.64
488.277	354.15
488.712	335.43
489.146	309.68
489.581	267.55
490.016	358.83
490.451	347.13
490.885	309.68
491.32	276.91
491.755	288.62
492.189	358.83
492.624	333.09
493.058	300.32
493.492	246.49
493.927	347.13
494.361	297.98
494.795	340.11
495.229	309.68
495.663	316.7
496.097	333.09
496.531	393.94
496.965	340.11
497.399	253.51
497.833	281.6
498.266	307.34
498.7	295.64
499.134	274.57
499.567	323.73
500.001	337.77
500.434	333.09
500.868	307.34
501.301	316.7
501.734	265.21
502.168	309.68
502.601	251.17
503.034	319.04
503.467	361.17
503.9	391.6
504.333	281.6
504.766	365.85
505.199	422.03
505.632	335.43
506.064	337.77
506.497	323.73
506.93	342.45
507.362	356.49
507.795	342.45
508.227	333.09
508.66	349.47
509.092	377.56
509.524	398.62
509.956	260.53
510.389	349.47
510.821	326.07
511.253	391.6
511.685	326.07
512.117	375.22
512.549	274.57
512.981	267.55
513.412	328.41
513.844	234.78
514.276	342.45
514.707	344.79
515.139	316.7
515.571	337.77
516.002	351.81
516.433	283.94
516.865	300.32
517.296	234.78
517.727	365.85
518.159	255.85
518.59	344.79
519.021	244.15
519.452	305
519.883	337.77
520.314	368.2
520.744	319.04
521.175	276.91
521.606	363.51
522.037	314.36
522.467	321.38
522.898	319.04
523.328	340.11
523.759	347.13
524.189	326.07
524.62	344.79
525.05	323.73
525.48	274.57
525.91	305
526.341	347.13
526.771	333.09
527.201	358.83
527.631	246.49
528.061	344.79
528.49	356.49
528.92	326.07
529.35	344.79
529.78	274.57
530.209	323.73
530.639	314.36
531.068	370.54
531.498	323.73
531.927	335.43
532.357	307.34
532.786	344.79
533.215	312.02
533.644	307.34
534.074	314.36
534.503	258.19
534.932	361.17
535.361	349.47
535.79	314.36
536.218	326.07
536.647	288.62
537.076	302.66
537.505	302.66
537.933	340.11
538.362	295.64
538.79	319.04
539.219	396.28
539.647	255.85
540.076	255.85
540.504	297.98
540.932	337.77
541.36	302.66
541.788	302.66
542.217	349.47
542.645	314.36
543.073	337.77
543.5	321.38
543.928	344.79
544.356	340.11
544.784	269.89
545.211	300.32
545.639	246.49
546.067	342.45
546.494	326.07
546.922	398.62
547.349	276.91
547.776	279.26
548.204	330.75
548.631	290.96
549.058	335.43
549.485	340.11
549.912	286.28
550.339	321.38
550.766	290.96
551.193	295.64
551.62	330.75
552.047	288.62
552.474	330.75
552.9	337.77
553.327	302.66
553.754	377.56
554.18	342.45
554.607	391.6
555.033	347.13
555.459	302.66
555.886	279.26
556.312	391.6
556.738	365.85
557.164	347.13
557.59	344.79
558.016	323.73
558.442	262.87
558.868	281.6
559.294	305
559.72	258.19
560.145	321.38
560.571	319.04
560.997	356.49
561.422	288.62
561.848	335.43
562.273	368.2
562.699	351.81
563.124	337.77
563.549	305
563.974	314.36
564.4	358.83
564.825	288.62
565.25	337.77
565.675	316.7
566.1	283.94
566.525	269.89
566.95	319.04
567.374	295.64
567.799	290.96
568.224	288.62
568.648	328.41
569.073	305
569.497	349.47
569.922	295.64
570.346	314.36
570.771	314.36
571.195	335.43
571.619	321.38
572.043	293.3
572.467	335.43
572.891	307.34
573.315	347.13
573.739	274.57
574.163	312.02
574.587	267.55
575.011	361.17
575.435	286.28
575.858	391.6
576.282	372.88
576.705	288.62
577.129	307.34
577.552	316.7
577.976	314.36
578.399	342.45
578.822	342.45
579.245	379.9
579.669	337.77
580.092	335.43
580.515	349.47
580.938	326.07
581.361	279.26
581.784	281.6
582.206	305
582.629	330.75
583.052	323.73
583.474	323.73
583.897	276.91
584.32	297.98
584.742	391.6
585.165	330.75
585.587	358.83
586.009	312.02
586.431	281.6
586.854	319.04
587.276	312.02
587.698	312.02
588.12	368.2
588.542	412.67
588.964	305
589.386	293.3
589.807	297.98
590.229	316.7
590.651	262.87
591.073	312.02
591.494	349.47
591.916	286.28
592.337	379.9
592.759	300.32
593.18	269.89
593.601	340.11
594.022	265.21
594.444	316.7
594.865	333.09
595.286	379.9
595.707	302.66
596.128	293.3
596.549	319.04
596.97	283.94
597.39	265.21
597.811	312.02
598.232	335.43
598.652	262.87
599.073	335.43
599.494	340.11
599.914	321.38
600.334	295.64
600.755	342.45
601.175	276.91
601.595	260.53
602.015	302.66
602.436	330.75
602.856	466.5
603.276	321.38
603.696	337.77
604.115	372.88
604.535	307.34
604.955	305
605.375	279.26
605.794	351.81
606.214	300.32
606.634	309.68
607.053	321.38
607.473	333.09
607.892	274.57
608.311	379.9
608.731	323.73
609.15	349.47
609.569	265.21
609.988	297.98
610.407	326.07
610.826	302.66
611.245	344.79
611.664	307.34
612.083	309.68
612.501	300.32
612.92	312.02
613.339	253.51
613.757	370.54
614.176	370.54
614.594	356.49
615.013	321.38
615.431	361.17
615.85	288.62
616.268	316.7
616.686	258.19
617.104	293.3
617.522	279.26
617.94	290.96
618.358	309.68
618.776	260.53
619.194	302.66
619.612	370.54
620.03	281.6
620.447	328.41
620.865	234.78
621.282	274.57
621.7	288.62
622.117	314.36
622.535	337.77
622.952	286.28
623.369	297.98
623.787	290.96
624.204	251.17
624.621	290.96
625.038	297.98
625.455	361.17
625.872	319.04
626.289	305
626.706	347.13
627.123	286.28
627.539	293.3
627.956	234.78
628.373	312.02
628.789	295.64
629.206	344.79
629.622	321.38
630.038	333.09
630.455	358.83
630.871	363.51
631.287	333.09
631.703	321.38
632.12	312.02
632.536	293.3
632.952	290.96
633.368	293.3
633.783	307.34
634.199	326.07
634.615	312.02
635.031	347.13
635.446	302.66
635.862	323.73
636.277	305
636.693	326.07
637.108	328.41
637.524	344.79
637.939	363.51
638.354	354.15
638.77	300.32
639.185	300.32
639.6	342.45
640.015	333.09
640.43	300.32
640.845	328.41
641.259	314.36
641.674	251.17
642.089	312.02
642.504	356.49
642.918	323.73
643.333	344.79
643.747	356.49
644.162	307.34
644.576	333.09
644.991	344.79
645.405	333.09
645.819	267.55
646.233	351.81
646.647	330.75
647.061	356.49
647.475	326.07
647.889	307.34
648.303	297.98
648.717	340.11
649.131	323.73
649.545	347.13
649.958	286.28
650.372	375.22
650.785	316.7
651.199	302.66
651.612	258.19
652.026	283.94
652.439	342.45
652.852	262.87
653.266	265.21
653.679	293.3
654.092	382.24
654.505	274.57
654.918	290.96
655.331	302.66
655.744	288.62
656.156	323.73
656.569	368.2
656.982	295.64
657.394	326.07
657.807	295.64
658.22	312.02
658.632	288.62
659.044	344.79
659.457	305
659.869	269.89
660.281	223.08
660.693	351.81
661.106	323.73
661.518	354.15
661.93	305
662.342	272.23
662.754	279.26
663.165	372.88
663.577	403.3
663.989	368.2
664.401	333.09
664.812	295.64
665.224	295.64
665.635	225.42
666.047	255.85
666.458	265.21
666.869	354.15
667.281	241.81
667.692	262.87
668.103	293.3
668.514	307.34
668.925	272.23
669.336	290.96
669.747	328.41
670.158	349.47
670.569	309.68
670.979	309.68
671.39	230.1
671.801	347.13
672.211	274.57
672.622	319.04
673.032	314.36
673.443	340.11
673.853	351.81
674.263	316.7
674.674	323.73
675.084	297.98
675.494	316.7
675.904	335.43
676.314	323.73
676.724	274.57
677.134	323.73
677.544	328.41
677.953	300.32
678.363	358.83
678.773	316.7
679.182	246.49
679.592	281.6
680.001	328.41
680.411	382.24
680.82	300.32
681.23	293.3
681.639	342.45
682.048	351.81
682.457	328.41
682.866	305
683.275	330.75
683.684	307.34
684.093	340.11
684.502	262.87
684.911	283.94
685.32	255.85
685.728	314.36
686.137	330.75
686.546	295.64
686.954	368.2
687.363	316.7
687.771	335.43
688.179	312.02
688.588	283.94
688.996	344.79
689.404	276.91
689.812	328.41
690.22	293.3
690.628	265.21
691.036	295.64
691.444	340.11
691.852	347.13
692.26	344.79
692.667	288.62
693.075	297.98
693.483	265.21
693.89	323.73
694.298	290.96
694.705	314.36
695.112	309.68
695.52	391.6
695.927	372.88
696.334	333.09
696.741	302.66
697.148	356.49
697.555	314.36
697.962	309.68
698.369	372.88
698.776	330.75
699.183	286.28
699.59	288.62
699.996	351.81
700.403	290.96
700.81	293.3
701.216	237.13
701.623	276.91
702.029	326.07
702.435	323.73
702.842	330.75
703.248	279.26
703.654	307.34
704.06	314.36
704.466	288.62
704.872	293.3
705.278	276.91
705.684	276.91
706.09	363.51
706.496	384.58
706.901	321.38
707.307	326.07
707.712	354.15
708.118	276.91
708.523	319.04
708.929	279.26
709.334	342.45
709.74	323.73
710.145	326.07
710.55	286.28
710.955	267.55
711.36	326.07
711.765	307.34
712.17	328.41
712.575	302.66
712.98	747.36
713.385	319.04
713.789	314.36
714.194	319.04
714.599	358.83
715.003	333.09
715.408	258.19
715.812	251.17
716.217	328.41
716.621	316.7
717.025	307.34
717.429	316.7
717.833	290.96
718.238	328.41
718.642	305
719.046	300.32
719.449	319.04
719.853	262.87
720.257	393.94
720.661	283.94
721.065	305
721.468	342.45
721.872	300.32
722.275	281.6
722.679	344.79
723.082	372.88
723.485	396.28
723.889	244.15
724.292	342.45
724.695	314.36
725.098	305
725.501	302.66
725.904	347.13
726.307	344.79
726.71	335.43
727.113	297.98
727.516	274.57
727.918	281.6
728.321	234.78
728.724	342.45
729.126	319.04
729.529	330.75
729.931	333.09
730.333	295.64
730.736	368.2
731.138	305
731.54	377.56
731.942	297.98
732.344	274.57
732.746	326.07
733.148	283.94
733.55	307.34
733.952	276.91
734.354	297.98
734.756	351.81
735.157	358.83
735.559	286.28
735.96	391.6
736.362	342.45
736.763	344.79
737.165	307.34
737.566	316.7
737.967	347.13
738.368	283.94
738.77	319.04
739.171	258.19
739.572	347.13
739.973	328.41
740.374	307.34
740.774	276.91
741.175	288.62
741.576	305
741.977	286.28
742.377	295.64
742.778	368.2
743.178	295.64
743.579	349.47
743.979	316.7
744.379	321.38
744.78	321.38
745.18	269.89
745.58	293.3
745.98	272.23
746.38	246.49
746.78	335.43
747.18	295.64
747.58	251.17
747.98	267.55
748.38	321.38
748.779	319.04
749.179	321.38
749.578	230.1
749.978	241.81
750.377	330.75
750.777	281.6
751.176	368.2
751.575	279.26
751.975	337.77
752.374	288.62
752.773	361.17
753.172	269.89
753.571	272.23
753.97	365.85
754.369	337.77
754.768	321.38
755.166	333.09
755.565	286.28
755.964	314.36
756.362	370.54
756.761	330.75
757.159	269.89
757.558	344.79
757.956	297.98
758.354	344.79
758.753	288.62
759.151	290.96
759.549	305
759.947	351.81
760.345	305
760.743	347.13
761.141	276.91
761.539	358.83
761.936	316.7
762.334	307.34
762.732	286.28
763.129	260.53
763.527	312.02
763.924	276.91
764.322	305
764.719	354.15
765.117	356.49
765.514	354.15
765.911	321.38
766.308	321.38
766.705	276.91
767.102	328.41
767.499	244.15
767.896	251.17
