Data from Al_FLMS009871__941__16-20-00-621.txt Node

Date: Fri Mar 08 16:20:00 CST 2024
User: pe5414po
Spectrometer: FLMS00987
Trigger mode: 0
Integration Time (sec): 1.000000E-1
Scans to average: 1
Electric dark correction enabled: true
Nonlinearity correction enabled: false
Boxcar width: 0
XAxis mode: Wavelengths
Number of Pixels in Spectrum: 2048
>>>>>Begin Spectral Data<<<<<
188.938	-55.3
189.409	-55.3
189.879	-55.3
190.349	-57.64
190.819	-69.34
191.29	-59.98
191.76	-172.32
192.23	-139.55
192.7	-118.49
193.17	-62.32
193.64	-10.82
194.109	-52.95
194.579	57.05
195.049	-8.48
195.519	-31.89
195.988	59.39
196.458	66.41
196.927	80.46
197.397	103.86
197.866	92.16
198.336	197.48
198.805	220.89
199.274	129.61
199.744	197.48
200.213	223.23
200.682	225.57
201.151	237.27
201.62	246.63
202.089	174.08
202.558	265.36
203.027	291.1
203.495	244.29
203.964	178.76
204.433	251.32
204.902	211.53
205.37	328.55
205.839	244.29
206.307	258.34
206.776	335.57
207.244	307.49
207.712	248.97
208.181	328.55
208.649	284.08
209.117	256
209.585	288.76
210.053	363.66
210.521	295.79
210.989	253.66
211.457	305.15
211.925	358.98
212.393	312.17
212.861	288.76
213.328	314.51
213.796	349.62
214.264	258.34
214.731	244.29
215.199	284.08
215.666	232.59
216.133	272.38
216.601	316.85
217.068	328.55
217.535	263.02
218.003	241.95
218.47	263.02
218.937	293.44
219.404	300.47
219.871	291.1
220.338	274.72
220.805	281.74
221.271	263.02
221.738	239.61
222.205	244.29
222.671	155.35
223.138	239.61
223.605	263.02
224.071	288.76
224.538	220.89
225.004	237.27
225.47	279.4
225.937	248.97
226.403	232.59
226.869	358.98
227.335	300.47
227.801	279.4
228.267	241.95
228.733	316.85
229.199	248.97
229.665	309.83
230.131	251.32
230.597	279.4
231.062	241.95
231.528	213.87
231.994	319.19
232.459	251.32
232.925	265.36
233.39	326.21
233.856	213.87
234.321	248.97
234.786	288.76
235.252	239.61
235.717	260.68
236.182	335.57
236.647	284.08
237.112	302.81
237.577	265.36
238.042	251.32
238.507	274.72
238.972	216.21
239.436	239.61
239.901	309.83
240.366	270.04
240.83	323.87
241.295	291.1
241.76	298.13
242.224	272.38
242.688	288.76
243.153	209.19
243.617	234.93
244.081	270.04
244.545	244.29
245.01	251.32
245.474	239.61
245.938	323.87
246.402	270.04
246.866	300.47
247.33	302.81
247.793	330.89
248.257	256
248.721	270.04
249.185	211.53
249.648	239.61
250.112	267.7
250.575	291.1
251.039	307.49
251.502	232.59
251.965	298.13
252.429	246.63
252.892	263.02
253.355	293.44
253.818	251.32
254.281	279.4
254.744	295.79
255.207	281.74
255.67	239.61
256.133	265.36
256.596	316.85
257.059	218.55
257.522	319.19
257.984	274.72
258.447	239.61
258.909	284.08
259.372	309.83
259.834	300.47
260.297	239.61
260.759	265.36
261.221	230.25
261.684	202.16
262.146	291.1
262.608	274.72
263.07	272.38
263.532	293.44
263.994	284.08
264.456	225.57
264.918	244.29
265.38	328.55
265.842	277.06
266.303	263.02
266.765	300.47
267.227	291.1
267.688	248.97
268.15	265.36
268.611	244.29
269.072	239.61
269.534	248.97
269.995	358.98
270.456	225.57
270.918	295.79
271.379	274.72
271.84	279.4
272.301	305.15
272.762	347.28
273.223	265.36
273.684	323.87
274.144	288.76
274.605	279.4
275.066	286.42
275.527	267.7
275.987	218.55
276.448	270.04
276.908	298.13
277.369	265.36
277.829	246.63
278.289	258.34
278.75	316.85
279.21	382.39
279.67	225.57
280.13	267.7
280.59	284.08
281.05	279.4
281.51	288.76
281.97	244.29
282.43	232.59
282.89	267.7
283.35	256
283.809	279.4
284.269	272.38
284.729	312.17
285.188	373.02
285.648	230.25
286.107	256
286.567	323.87
287.026	286.42
287.485	326.21
287.944	293.44
288.404	305.15
288.863	265.36
289.322	321.53
289.781	284.08
290.24	314.51
290.699	340.26
291.158	300.47
291.616	267.7
292.075	230.25
292.534	288.76
292.992	323.87
293.451	277.06
293.91	279.4
294.368	284.08
294.827	344.94
295.285	307.49
295.743	293.44
296.202	298.13
296.66	314.51
297.118	298.13
297.576	321.53
298.034	216.21
298.492	307.49
298.95	274.72
299.408	363.66
299.866	300.47
300.324	272.38
300.781	279.4
301.239	333.23
301.697	326.21
302.154	272.38
302.612	319.19
303.069	344.94
303.527	307.49
303.984	326.21
304.441	272.38
304.899	305.15
305.356	288.76
305.813	260.68
306.27	298.13
306.727	342.6
307.184	284.08
307.641	274.72
308.098	256
308.555	316.85
309.012	354.3
309.468	291.1
309.925	263.02
310.382	323.87
310.838	279.4
311.295	302.81
311.751	309.83
312.208	234.93
312.664	330.89
313.12	260.68
313.577	263.02
314.033	356.64
314.489	309.83
314.945	277.06
315.401	279.4
315.857	300.47
316.313	323.87
316.769	277.06
317.225	302.81
317.681	284.08
318.136	328.55
318.592	368.34
319.048	340.26
319.503	277.06
319.959	366
320.414	361.32
320.869	337.91
321.325	314.51
321.78	321.53
322.235	337.91
322.691	326.21
323.146	291.1
323.601	270.04
324.056	314.51
324.511	319.19
324.966	284.08
325.421	356.64
325.875	316.85
326.33	270.04
326.785	333.23
327.24	342.6
327.694	337.91
328.149	358.98
328.603	279.4
329.058	279.4
329.512	246.63
329.966	305.15
330.421	272.38
330.875	265.36
331.329	330.89
331.783	291.1
332.237	326.21
332.691	305.15
333.145	370.68
333.599	216.21
334.053	305.15
334.507	326.21
334.96	302.81
335.414	274.72
335.868	384.73
336.321	312.17
336.775	321.53
337.228	351.96
337.682	319.19
338.135	300.47
338.588	333.23
339.042	234.93
339.495	354.3
339.948	295.79
340.401	291.1
340.854	279.4
341.307	319.19
341.76	307.49
342.213	321.53
342.666	347.28
343.119	274.72
343.571	347.28
344.024	326.21
344.477	305.15
344.929	305.15
345.382	291.1
345.834	263.02
346.287	298.13
346.739	241.95
347.191	321.53
347.644	305.15
348.096	267.7
348.548	288.76
349	279.4
349.452	309.83
349.904	260.68
350.356	270.04
350.808	213.87
351.26	330.89
351.711	319.19
352.163	293.44
352.615	344.94
353.066	265.36
353.518	267.7
353.969	347.28
354.421	328.55
354.872	274.72
355.324	234.93
355.775	274.72
356.226	267.7
356.677	300.47
357.128	305.15
357.579	277.06
358.03	230.25
358.481	377.7
358.932	286.42
359.383	340.26
359.834	344.94
360.285	223.23
360.735	263.02
361.186	387.07
361.637	244.29
362.087	340.26
362.538	312.17
362.988	277.06
363.438	309.83
363.889	366
364.339	277.06
364.789	272.38
365.239	307.49
365.689	248.97
366.139	347.28
366.589	260.68
367.039	272.38
367.489	288.76
367.939	340.26
368.389	300.47
368.839	270.04
369.288	281.74
369.738	302.81
370.187	333.23
370.637	258.34
371.086	284.08
371.536	328.55
371.985	305.15
372.434	232.59
372.884	265.36
373.333	258.34
373.782	295.79
374.231	298.13
374.68	298.13
375.129	263.02
375.578	344.94
376.027	270.04
376.475	298.13
376.924	265.36
377.373	281.74
377.822	358.98
378.27	288.76
378.719	279.4
379.167	295.79
379.616	286.42
380.064	370.68
380.512	284.08
380.961	316.85
381.409	246.63
381.857	344.94
382.305	321.53
382.753	258.34
383.201	391.75
383.649	258.34
384.097	265.36
384.545	314.51
384.992	321.53
385.44	354.3
385.888	260.68
386.335	309.83
386.783	424.51
387.231	263.02
387.678	302.81
388.125	312.17
388.573	234.93
389.02	281.74
389.467	314.51
389.914	314.51
390.362	337.91
390.809	286.42
391.256	319.19
391.703	274.72
392.15	358.98
392.596	272.38
393.043	260.68
393.49	328.55
393.937	366
394.383	267.7
394.83	300.47
395.276	246.63
395.723	380.04
396.169	370.68
396.616	312.17
397.062	319.19
397.508	323.87
397.954	307.49
398.401	307.49
398.847	314.51
399.293	366
399.739	330.89
400.185	344.94
400.631	326.21
401.076	340.26
401.522	323.87
401.968	347.28
402.414	288.76
402.859	284.08
403.305	295.79
403.75	288.76
404.196	361.32
404.641	288.76
405.086	305.15
405.532	307.49
405.977	330.89
406.422	298.13
406.867	358.98
407.312	251.32
407.757	293.44
408.202	291.1
408.647	354.3
409.092	375.36
409.537	274.72
409.982	286.42
410.426	347.28
410.871	298.13
411.316	333.23
411.76	291.1
412.205	340.26
412.649	347.28
413.093	302.81
413.538	298.13
413.982	356.64
414.426	277.06
414.87	323.87
415.314	305.15
415.758	284.08
416.202	286.42
416.646	330.89
417.09	349.62
417.534	340.26
417.978	342.6
418.421	326.21
418.865	323.87
419.309	305.15
419.752	286.42
420.196	316.85
420.639	340.26
421.083	288.76
421.526	298.13
421.969	312.17
422.412	368.34
422.856	295.79
423.299	274.72
423.742	354.3
424.185	253.66
424.628	239.61
425.071	312.17
425.513	319.19
425.956	298.13
426.399	291.1
426.842	288.76
427.284	253.66
427.727	272.38
428.169	321.53
428.612	253.66
429.054	354.3
429.497	314.51
429.939	267.7
430.381	337.91
430.823	333.23
431.265	316.85
431.707	335.57
432.149	284.08
432.591	295.79
433.033	298.13
433.475	274.72
433.917	302.81
434.359	281.74
434.8	312.17
435.242	326.21
435.684	305.15
436.125	380.04
436.567	337.91
437.008	347.28
437.449	316.85
437.891	284.08
438.332	232.59
438.773	319.19
439.214	328.55
439.656	256
440.097	347.28
440.538	279.4
440.978	277.06
441.419	291.1
441.86	281.74
442.301	286.42
442.742	316.85
443.182	344.94
443.623	291.1
444.063	328.55
444.504	326.21
444.944	274.72
445.385	265.36
445.825	188.12
446.265	337.91
446.706	302.81
447.146	342.6
447.586	305.15
448.026	328.55
448.466	300.47
448.906	351.96
449.346	302.81
449.786	326.21
450.225	281.74
450.665	281.74
451.105	270.04
451.544	337.91
451.984	335.57
452.424	375.36
452.863	309.83
453.302	321.53
453.742	291.1
454.181	270.04
454.62	323.87
455.059	295.79
455.499	347.28
455.938	323.87
456.377	326.21
456.816	293.44
457.254	349.62
457.693	351.96
458.132	377.7
458.571	316.85
459.01	380.04
459.448	291.1
459.887	396.43
460.325	333.23
460.764	307.49
461.202	354.3
461.641	309.83
462.079	291.1
462.517	344.94
462.955	284.08
463.393	307.49
463.832	319.19
464.27	309.83
464.708	284.08
465.145	347.28
465.583	316.85
466.021	248.97
466.459	286.42
466.897	328.55
467.334	305.15
467.772	279.4
468.209	330.89
468.647	316.85
469.084	286.42
469.522	293.44
469.959	232.59
470.396	347.28
470.833	302.81
471.271	330.89
471.708	291.1
472.145	335.57
472.582	323.87
473.019	337.91
473.456	281.74
473.892	361.32
474.329	302.81
474.766	288.76
475.202	300.47
475.639	328.55
476.076	349.62
476.512	272.38
476.949	307.49
477.385	230.25
477.821	314.51
478.258	295.79
478.694	314.51
479.13	307.49
479.566	270.04
480.002	349.62
480.438	335.57
480.874	246.63
481.31	326.21
481.746	330.89
482.181	319.19
482.617	298.13
483.053	291.1
483.488	326.21
483.924	314.51
484.36	319.19
484.795	265.36
485.23	333.23
485.666	302.81
486.101	307.49
486.536	347.28
486.971	291.1
487.407	293.44
487.842	267.7
488.277	298.13
488.712	323.87
489.146	258.34
489.581	384.73
490.016	316.85
490.451	284.08
490.885	256
491.32	321.53
491.755	323.87
492.189	316.85
492.624	305.15
493.058	347.28
493.492	323.87
493.927	354.3
494.361	368.34
494.795	288.76
495.229	277.06
495.663	284.08
496.097	321.53
496.531	267.7
496.965	387.07
497.399	284.08
497.833	366
498.266	281.74
498.7	288.76
499.134	337.91
499.567	323.87
500.001	272.38
500.434	192.8
500.868	312.17
501.301	337.91
501.734	284.08
502.168	337.91
502.601	312.17
503.034	305.15
503.467	295.79
503.9	323.87
504.333	314.51
504.766	342.6
505.199	260.68
505.632	284.08
506.064	335.57
506.497	344.94
506.93	279.4
507.362	302.81
507.795	361.32
508.227	265.36
508.66	316.85
509.092	330.89
509.524	319.19
509.956	368.34
510.389	281.74
510.821	298.13
511.253	291.1
511.685	277.06
512.117	314.51
512.549	337.91
512.981	312.17
513.412	319.19
513.844	288.76
514.276	279.4
514.707	295.79
515.139	300.47
515.571	323.87
516.002	307.49
516.433	284.08
516.865	340.26
517.296	286.42
517.727	396.43
518.159	246.63
518.59	309.83
519.021	305.15
519.452	358.98
519.883	277.06
520.314	291.1
520.744	314.51
521.175	265.36
521.606	295.79
522.037	316.85
522.467	291.1
522.898	237.27
523.328	319.19
523.759	358.98
524.189	340.26
524.62	347.28
525.05	342.6
525.48	248.97
525.91	333.23
526.341	337.91
526.771	286.42
527.201	298.13
527.631	260.68
528.061	330.89
528.49	300.47
528.92	270.04
529.35	312.17
529.78	312.17
530.209	300.47
530.639	347.28
531.068	358.98
531.498	239.61
531.927	370.68
532.357	234.93
532.786	328.55
533.215	286.42
533.644	279.4
534.074	298.13
534.503	328.55
534.932	309.83
535.361	330.89
535.79	340.26
536.218	326.21
536.647	314.51
537.076	337.91
537.505	244.29
537.933	366
538.362	335.57
538.79	232.59
539.219	361.32
539.647	347.28
540.076	277.06
540.504	288.76
540.932	302.81
541.36	330.89
541.788	333.23
542.217	274.72
542.645	326.21
543.073	366
543.5	291.1
543.928	321.53
544.356	281.74
544.784	284.08
545.211	277.06
545.639	272.38
546.067	337.91
546.494	267.7
546.922	347.28
547.349	293.44
547.776	328.55
548.204	319.19
548.631	284.08
549.058	263.02
549.485	305.15
549.912	323.87
550.339	342.6
550.766	375.36
551.193	295.79
551.62	335.57
552.047	302.81
552.474	302.81
552.9	314.51
553.327	302.81
553.754	241.95
554.18	295.79
554.607	300.47
555.033	354.3
555.459	333.23
555.886	251.32
556.312	316.85
556.738	295.79
557.164	377.7
557.59	288.76
558.016	288.76
558.442	344.94
558.868	312.17
559.294	291.1
559.72	312.17
560.145	284.08
560.571	326.21
560.997	286.42
561.422	239.61
561.848	300.47
562.273	305.15
562.699	270.04
563.124	321.53
563.549	316.85
563.974	314.51
564.4	298.13
564.825	335.57
565.25	337.91
565.675	307.49
566.1	260.68
566.525	302.81
566.95	298.13
567.374	361.32
567.799	377.7
568.224	227.91
568.648	319.19
569.073	340.26
569.497	307.49
569.922	347.28
570.346	347.28
570.771	281.74
571.195	281.74
571.619	307.49
572.043	267.7
572.467	305.15
572.891	277.06
573.315	295.79
573.739	302.81
574.163	288.76
574.587	330.89
575.011	344.94
575.435	288.76
575.858	370.68
576.282	363.66
576.705	361.32
577.129	373.02
577.552	340.26
577.976	330.89
578.399	373.02
578.822	358.98
579.245	335.57
579.669	230.25
580.092	281.74
580.515	298.13
580.938	272.38
581.361	321.53
581.784	312.17
582.206	258.34
582.629	251.32
583.052	319.19
583.474	323.87
583.897	319.19
584.32	330.89
584.742	279.4
585.165	291.1
585.587	316.85
586.009	286.42
586.431	323.87
586.854	293.44
587.276	253.66
587.698	288.76
588.12	279.4
588.542	302.81
588.964	342.6
589.386	314.51
589.807	316.85
590.229	256
590.651	323.87
591.073	293.44
591.494	330.89
591.916	330.89
592.337	277.06
592.759	241.95
593.18	328.55
593.601	351.96
594.022	342.6
594.444	288.76
594.865	349.62
595.286	323.87
595.707	312.17
596.128	330.89
596.549	330.89
596.97	351.96
597.39	302.81
597.811	286.42
598.232	295.79
598.652	342.6
599.073	284.08
599.494	309.83
599.914	307.49
600.334	302.81
600.755	373.02
601.175	291.1
601.595	281.74
602.015	340.26
602.436	314.51
602.856	410.47
603.276	295.79
603.696	281.74
604.115	300.47
604.535	232.59
604.955	274.72
605.375	288.76
605.794	300.47
606.214	347.28
606.634	288.76
607.053	337.91
607.473	410.47
607.892	337.91
608.311	319.19
608.731	274.72
609.15	342.6
609.569	307.49
609.988	300.47
610.407	319.19
610.826	333.23
611.245	302.81
611.664	293.44
612.083	328.55
612.501	366
612.92	293.44
613.339	300.47
613.757	342.6
614.176	295.79
614.594	309.83
615.013	328.55
615.431	323.87
615.85	354.3
616.268	270.04
616.686	244.29
617.104	347.28
617.522	373.02
617.94	256
618.358	274.72
618.776	253.66
619.194	305.15
619.612	312.17
620.03	305.15
620.447	314.51
620.865	305.15
621.282	284.08
621.7	277.06
622.117	307.49
622.535	279.4
622.952	358.98
623.369	328.55
623.787	391.75
624.204	312.17
624.621	316.85
625.038	263.02
625.455	347.28
625.872	330.89
626.289	300.47
626.706	429.2
627.123	230.25
627.539	239.61
627.956	337.91
628.373	291.1
628.789	288.76
629.206	284.08
629.622	307.49
630.038	337.91
630.455	272.38
630.871	298.13
631.287	295.79
631.703	340.26
632.12	337.91
632.536	244.29
632.952	326.21
633.368	307.49
633.783	309.83
634.199	337.91
634.615	323.87
635.031	302.81
635.446	298.13
635.862	281.74
636.277	309.83
636.693	293.44
637.108	291.1
637.524	293.44
637.939	323.87
638.354	277.06
638.77	309.83
639.185	291.1
639.6	286.42
640.015	298.13
640.43	302.81
640.845	286.42
641.259	319.19
641.674	284.08
642.089	368.34
642.504	319.19
642.918	335.57
643.333	272.38
643.747	351.96
644.162	267.7
644.576	319.19
644.991	330.89
645.405	333.23
645.819	358.98
646.233	326.21
646.647	333.23
647.061	319.19
647.475	340.26
647.889	305.15
648.303	312.17
648.717	298.13
649.131	337.91
649.545	342.6
649.958	335.57
650.372	291.1
650.785	401.11
651.199	319.19
651.612	279.4
652.026	312.17
652.439	277.06
652.852	330.89
653.266	258.34
653.679	307.49
654.092	281.74
654.505	326.21
654.918	361.32
655.331	312.17
655.744	288.76
656.156	333.23
656.569	293.44
656.982	288.76
657.394	370.68
657.807	302.81
658.22	293.44
658.632	319.19
659.044	298.13
659.457	241.95
659.869	361.32
660.281	244.29
660.693	300.47
661.106	302.81
661.518	302.81
661.93	218.55
662.342	272.38
662.754	333.23
663.165	286.42
663.577	305.15
663.989	333.23
664.401	323.87
664.812	288.76
665.224	316.85
665.635	307.49
666.047	382.39
666.458	288.76
666.869	326.21
667.281	274.72
667.692	284.08
668.103	312.17
668.514	377.7
668.925	293.44
669.336	366
669.747	356.64
670.158	300.47
670.569	277.06
670.979	305.15
671.39	323.87
671.801	272.38
672.211	263.02
672.622	302.81
673.032	298.13
673.443	270.04
673.853	342.6
674.263	295.79
674.674	333.23
675.084	354.3
675.494	354.3
675.904	307.49
676.314	358.98
676.724	293.44
677.134	302.81
677.544	298.13
677.953	316.85
678.363	342.6
678.773	351.96
679.182	295.79
679.592	330.89
680.001	349.62
680.411	312.17
680.82	340.26
681.23	293.44
681.639	272.38
682.048	319.19
682.457	375.36
682.866	337.91
683.275	323.87
683.684	277.06
684.093	323.87
684.502	202.16
684.911	323.87
685.32	274.72
685.728	312.17
686.137	349.62
686.546	321.53
686.954	330.89
687.363	300.47
687.771	333.23
688.179	342.6
688.588	319.19
688.996	263.02
689.404	337.91
689.812	382.39
690.22	363.66
690.628	323.87
691.036	295.79
691.444	295.79
691.852	316.85
692.26	330.89
692.667	265.36
693.075	312.17
693.483	260.68
693.89	335.57
694.298	356.64
694.705	300.47
695.112	328.55
695.52	326.21
695.927	344.94
696.334	267.7
696.741	272.38
697.148	225.57
697.555	288.76
697.962	312.17
698.369	330.89
698.776	347.28
699.183	253.66
699.59	368.34
699.996	333.23
700.403	351.96
700.81	342.6
701.216	309.83
701.623	328.55
702.029	321.53
702.435	330.89
702.842	349.62
703.248	333.23
703.654	291.1
704.06	328.55
704.466	309.83
704.872	375.36
705.278	302.81
705.684	412.81
706.09	347.28
706.496	342.6
706.901	277.06
707.307	277.06
707.712	225.57
708.118	305.15
708.523	363.66
708.929	358.98
709.334	312.17
709.74	272.38
710.145	340.26
710.55	330.89
710.955	328.55
711.36	305.15
711.765	351.96
712.17	309.83
712.575	342.6
712.98	782.62
713.385	340.26
713.789	316.85
714.194	333.23
714.599	307.49
715.003	326.21
715.408	347.28
715.812	284.08
716.217	340.26
716.621	312.17
717.025	270.04
717.429	342.6
717.833	380.04
718.238	309.83
718.642	300.47
719.046	344.94
719.449	326.21
719.853	363.66
720.257	253.66
720.661	272.38
721.065	316.85
721.468	260.68
721.872	344.94
722.275	267.7
722.679	305.15
723.082	241.95
723.485	321.53
723.889	307.49
724.292	330.89
724.695	330.89
725.098	340.26
725.501	342.6
725.904	274.72
726.307	319.19
726.71	300.47
727.113	272.38
727.516	330.89
727.918	295.79
728.321	272.38
728.724	272.38
729.126	281.74
729.529	272.38
729.931	326.21
730.333	309.83
730.736	225.57
731.138	323.87
731.54	286.42
731.942	307.49
732.344	263.02
732.746	277.06
733.148	284.08
733.55	279.4
733.952	330.89
734.354	356.64
734.756	335.57
735.157	258.34
735.559	302.81
735.96	389.41
736.362	370.68
736.763	396.43
737.165	270.04
737.566	305.15
737.967	302.81
738.368	344.94
738.77	272.38
739.171	316.85
739.572	316.85
739.973	361.32
740.374	368.34
740.774	309.83
741.175	312.17
741.576	316.85
741.977	274.72
742.377	300.47
742.778	328.55
743.178	295.79
743.579	270.04
743.979	347.28
744.379	305.15
744.78	342.6
745.18	335.57
745.58	316.85
745.98	305.15
746.38	316.85
746.78	344.94
747.18	316.85
747.58	312.17
747.98	312.17
748.38	270.04
748.779	312.17
749.179	321.53
749.578	309.83
749.978	328.55
750.377	340.26
750.777	295.79
751.176	323.87
751.575	375.36
751.975	309.83
752.374	309.83
752.773	288.76
753.172	307.49
753.571	323.87
753.97	319.19
754.369	305.15
754.768	260.68
755.166	326.21
755.565	354.3
755.964	286.42
756.362	284.08
756.761	302.81
757.159	316.85
757.558	279.4
757.956	316.85
758.354	375.36
758.753	258.34
759.151	298.13
759.549	330.89
759.947	265.36
760.345	286.42
760.743	340.26
761.141	312.17
761.539	291.1
761.936	309.83
762.334	330.89
762.732	281.74
763.129	305.15
763.527	267.7
763.924	403.45
764.322	286.42
764.719	267.7
765.117	302.81
765.514	274.72
765.911	333.23
766.308	321.53
