Data from Al_FLMS009871__944__16-20-00-921.txt Node

Date: Fri Mar 08 16:20:00 CST 2024
User: pe5414po
Spectrometer: FLMS00987
Trigger mode: 0
Integration Time (sec): 1.000000E-1
Scans to average: 1
Electric dark correction enabled: true
Nonlinearity correction enabled: false
Boxcar width: 0
XAxis mode: Wavelengths
Number of Pixels in Spectrum: 2048
>>>>>Begin Spectral Data<<<<<
188.938	-47.54
189.409	-47.54
189.879	-47.54
190.349	-159.89
190.819	-127.12
191.29	-59.24
191.76	-99.03
192.23	-33.5
192.7	-73.29
193.17	-70.95
193.64	-63.93
194.109	-24.14
194.579	-42.86
195.049	3.95
195.519	-5.41
195.988	22.67
196.458	60.12
196.927	88.21
197.397	78.85
197.866	130.34
198.336	88.21
198.805	88.21
199.274	191.19
199.744	135.02
200.213	170.13
200.682	163.11
201.151	266.09
201.62	223.96
202.089	233.32
202.558	228.64
203.027	261.41
203.495	256.73
203.964	263.75
204.433	273.11
204.902	294.18
205.37	254.39
205.839	284.81
206.307	275.45
206.776	191.19
207.244	266.09
207.712	322.26
208.181	252.05
208.649	266.09
209.117	256.73
209.585	261.41
210.053	322.26
210.521	291.84
210.989	238
211.457	284.81
211.925	277.79
212.393	364.39
212.861	294.18
213.328	247.37
213.796	261.41
214.264	226.3
214.731	221.62
215.199	275.45
215.666	275.45
216.133	301.2
216.601	247.37
217.068	198.21
217.535	266.09
218.003	256.73
218.47	270.77
218.937	228.64
219.404	181.83
219.871	294.18
220.338	256.73
220.805	319.92
221.271	223.96
221.738	219.28
222.205	326.94
222.671	233.32
223.138	256.73
223.605	230.98
224.071	228.64
224.538	226.3
225.004	240.34
225.47	270.77
225.937	263.75
226.403	261.41
226.869	303.54
227.335	226.3
227.801	254.39
228.267	266.09
228.733	212.26
229.199	238
229.665	247.37
230.131	270.77
230.597	303.54
231.062	263.75
231.528	233.32
231.994	238
232.459	296.52
232.925	294.18
233.39	284.81
233.856	245.02
234.321	280.13
234.786	226.3
235.252	284.81
235.717	289.5
236.182	284.81
236.647	263.75
237.112	186.51
237.577	266.09
238.042	333.97
238.507	247.37
238.972	298.86
239.436	254.39
239.901	247.37
240.366	282.47
240.83	238
241.295	319.92
241.76	247.37
242.224	284.81
242.688	252.05
243.153	298.86
243.617	266.09
244.081	233.32
244.545	242.68
245.01	291.84
245.474	329.28
245.938	303.54
246.402	291.84
246.866	245.02
247.33	238
247.793	266.09
248.257	270.77
248.721	261.41
249.185	252.05
249.648	317.58
250.112	275.45
250.575	240.34
251.039	245.02
251.502	263.75
251.965	254.39
252.429	294.18
252.892	259.07
253.355	233.32
253.818	275.45
254.281	275.45
254.744	331.62
255.207	216.94
255.67	212.26
256.133	205.24
256.596	247.37
257.059	238
257.522	312.9
257.984	319.92
258.447	268.43
258.909	289.5
259.372	233.32
259.834	238
260.297	270.77
260.759	207.58
261.221	249.71
261.684	319.92
262.146	261.41
262.608	216.94
263.07	214.6
263.532	230.98
263.994	303.54
264.456	333.97
264.918	280.13
265.38	254.39
265.842	230.98
266.303	289.5
266.765	291.84
267.227	296.52
267.688	289.5
268.15	319.92
268.611	259.07
269.072	317.58
269.534	315.24
269.995	277.79
270.456	303.54
270.918	287.15
271.379	240.34
271.84	240.34
272.301	296.52
272.762	355.03
273.223	296.52
273.684	245.02
274.144	216.94
274.605	329.28
275.066	319.92
275.527	301.2
275.987	256.73
276.448	303.54
276.908	294.18
277.369	266.09
277.829	275.45
278.289	312.9
278.75	284.81
279.21	275.45
279.67	298.86
280.13	256.73
280.59	252.05
281.05	284.81
281.51	238
281.97	315.24
282.43	284.81
282.89	338.65
283.35	303.54
283.809	298.86
284.269	305.88
284.729	289.5
285.188	228.64
285.648	275.45
286.107	263.75
286.567	310.56
287.026	291.84
287.485	312.9
287.944	275.45
288.404	266.09
288.863	247.37
289.322	284.81
289.781	289.5
290.24	284.81
290.699	270.77
291.158	280.13
291.616	331.62
292.075	273.11
292.534	238
292.992	310.56
293.451	296.52
293.91	280.13
294.368	355.03
294.827	355.03
295.285	261.41
295.743	324.6
296.202	277.79
296.66	273.11
297.118	301.2
297.576	291.84
298.034	254.39
298.492	291.84
298.95	312.9
299.408	303.54
299.866	289.5
300.324	275.45
300.781	317.58
301.239	266.09
301.697	247.37
302.154	296.52
302.612	345.67
303.069	310.56
303.527	289.5
303.984	308.22
304.441	296.52
304.899	291.84
305.356	312.9
305.813	310.56
306.27	301.2
306.727	296.52
307.184	242.68
307.641	270.77
308.098	322.26
308.555	322.26
309.012	282.47
309.468	291.84
309.925	315.24
310.382	303.54
310.838	308.22
311.295	308.22
311.751	238
312.208	319.92
312.664	261.41
313.12	282.47
313.577	338.65
314.033	312.9
314.489	298.86
314.945	259.07
315.401	242.68
315.857	298.86
316.313	275.45
316.769	221.62
317.225	296.52
317.681	277.79
318.136	296.52
318.592	298.86
319.048	240.34
319.503	235.66
319.959	287.15
320.414	329.28
320.869	333.97
321.325	291.84
321.78	256.73
322.235	305.88
322.691	331.62
323.146	310.56
323.601	247.37
324.056	270.77
324.511	305.88
324.966	336.31
325.421	345.67
325.875	369.07
326.33	287.15
326.785	310.56
327.24	273.11
327.694	296.52
328.149	359.71
328.603	282.47
329.058	303.54
329.512	252.05
329.966	319.92
330.421	336.31
330.875	280.13
331.329	326.94
331.783	245.02
332.237	275.45
332.691	301.2
333.145	282.47
333.599	408.86
334.053	326.94
334.507	298.86
334.96	336.31
335.414	322.26
335.868	315.24
336.321	319.92
336.775	315.24
337.228	291.84
337.682	266.09
338.135	310.56
338.588	266.09
339.042	305.88
339.495	270.77
339.948	294.18
340.401	289.5
340.854	331.62
341.307	324.6
341.76	324.6
342.213	298.86
342.666	287.15
343.119	275.45
343.571	268.43
344.024	305.88
344.477	324.6
344.929	376.09
345.382	270.77
345.834	245.02
346.287	324.6
346.739	268.43
347.191	317.58
347.644	254.39
348.096	270.77
348.548	263.75
349	399.5
349.452	324.6
349.904	256.73
350.356	235.66
350.808	298.86
351.26	333.97
351.711	263.75
352.163	289.5
352.615	359.71
353.066	305.88
353.518	273.11
353.969	331.62
354.421	315.24
354.872	270.77
355.324	348.01
355.775	345.67
356.226	317.58
356.677	301.2
357.128	296.52
357.579	336.31
358.03	273.11
358.481	305.88
358.932	261.41
359.383	254.39
359.834	338.65
360.285	308.22
360.735	273.11
361.186	324.6
361.637	303.54
362.087	284.81
362.538	305.88
362.988	233.32
363.438	305.88
363.889	303.54
364.339	303.54
364.789	249.71
365.239	273.11
365.689	319.92
366.139	331.62
366.589	238
367.039	301.2
367.489	256.73
367.939	294.18
368.389	238
368.839	238
369.288	312.9
369.738	233.32
370.187	247.37
370.637	312.9
371.086	261.41
371.536	289.5
371.985	301.2
372.434	312.9
372.884	280.13
373.333	343.33
373.782	333.97
374.231	298.86
374.68	303.54
375.129	301.2
375.578	310.56
376.027	296.52
376.475	348.01
376.924	294.18
377.373	378.44
377.822	275.45
378.27	338.65
378.719	312.9
379.167	340.99
379.616	364.39
380.064	331.62
380.512	331.62
380.961	303.54
381.409	308.22
381.857	319.92
382.305	317.58
382.753	284.81
383.201	298.86
383.649	324.6
384.097	266.09
384.545	259.07
384.992	308.22
385.44	324.6
385.888	277.79
386.335	284.81
386.783	301.2
387.231	333.97
387.678	329.28
388.125	301.2
388.573	303.54
389.02	350.35
389.467	287.15
389.914	294.18
390.362	312.9
390.809	326.94
391.256	270.77
391.703	338.65
392.15	298.86
392.596	280.13
393.043	259.07
393.49	273.11
393.937	340.99
394.383	291.84
394.83	366.73
395.276	333.97
395.723	350.35
396.169	317.58
396.616	270.77
397.062	331.62
397.508	376.09
397.954	256.73
398.401	371.41
398.847	273.11
399.293	308.22
399.739	331.62
400.185	331.62
400.631	310.56
401.076	355.03
401.522	263.75
401.968	312.9
402.414	350.35
402.859	252.05
403.305	268.43
403.75	336.31
404.196	336.31
404.641	256.73
405.086	352.69
405.532	291.84
405.977	380.78
406.422	301.2
406.867	275.45
407.312	259.07
407.757	326.94
408.202	277.79
408.647	256.73
409.092	270.77
409.537	333.97
409.982	357.37
410.426	343.33
410.871	373.75
411.316	329.28
411.76	348.01
412.205	317.58
412.649	352.69
413.093	287.15
413.538	345.67
413.982	331.62
414.426	221.62
414.87	329.28
415.314	324.6
415.758	287.15
416.202	270.77
416.646	310.56
417.09	228.64
417.534	362.05
417.978	287.15
418.421	324.6
418.865	284.81
419.309	256.73
419.752	273.11
420.196	329.28
420.639	273.11
421.083	331.62
421.526	308.22
421.969	312.9
422.412	298.86
422.856	261.41
423.299	303.54
423.742	315.24
424.185	294.18
424.628	315.24
425.071	249.71
425.513	312.9
425.956	268.43
426.399	280.13
426.842	277.79
427.284	291.84
427.727	298.86
428.169	287.15
428.612	259.07
429.054	305.88
429.497	261.41
429.939	319.92
430.381	282.47
430.823	273.11
431.265	333.97
431.707	338.65
432.149	242.68
432.591	275.45
433.033	350.35
433.475	348.01
433.917	326.94
434.359	324.6
434.8	350.35
435.242	303.54
435.684	340.99
436.125	338.65
436.567	277.79
437.008	383.12
437.449	331.62
437.891	247.37
438.332	280.13
438.773	329.28
439.214	263.75
439.656	289.5
440.097	364.39
440.538	333.97
440.978	345.67
441.419	275.45
441.86	221.62
442.301	343.33
442.742	338.65
443.182	333.97
443.623	317.58
444.063	287.15
444.504	291.84
444.944	242.68
445.385	296.52
445.825	357.37
446.265	287.15
446.706	364.39
447.146	329.28
447.586	305.88
448.026	369.07
448.466	348.01
448.906	357.37
449.346	340.99
449.786	324.6
450.225	280.13
450.665	322.26
451.105	308.22
451.544	294.18
451.984	301.2
452.424	310.56
452.863	256.73
453.302	310.56
453.742	308.22
454.181	345.67
454.62	284.81
455.059	350.35
455.499	303.54
455.938	301.2
456.377	329.28
456.816	312.9
457.254	340.99
457.693	308.22
458.132	340.99
458.571	280.13
459.01	312.9
459.448	298.86
459.887	343.33
460.325	331.62
460.764	329.28
461.202	355.03
461.641	329.28
462.079	305.88
462.517	294.18
462.955	284.81
463.393	305.88
463.832	242.68
464.27	254.39
464.708	242.68
465.145	289.5
465.583	301.2
466.021	235.66
466.459	350.35
466.897	310.56
467.334	249.71
467.772	340.99
468.209	308.22
468.647	336.31
469.084	289.5
469.522	301.2
469.959	387.8
470.396	352.69
470.833	291.84
471.271	263.75
471.708	298.86
472.145	364.39
472.582	319.92
473.019	322.26
473.456	326.94
473.892	263.75
474.329	301.2
474.766	340.99
475.202	303.54
475.639	287.15
476.076	270.77
476.512	275.45
476.949	242.68
477.385	294.18
477.821	287.15
478.258	338.65
478.694	317.58
479.13	324.6
479.566	280.13
480.002	291.84
480.438	266.09
480.874	310.56
481.31	263.75
481.746	259.07
482.181	247.37
482.617	345.67
483.053	275.45
483.488	331.62
483.924	263.75
484.36	308.22
484.795	329.28
485.23	317.58
485.666	364.39
486.101	340.99
486.536	329.28
486.971	242.68
487.407	305.88
487.842	315.24
488.277	289.5
488.712	303.54
489.146	296.52
489.581	343.33
490.016	324.6
490.451	352.69
490.885	322.26
491.32	287.15
491.755	319.92
492.189	324.6
492.624	315.24
493.058	312.9
493.492	352.69
493.927	252.05
494.361	338.65
494.795	333.97
495.229	294.18
495.663	310.56
496.097	287.15
496.531	303.54
496.965	296.52
497.399	336.31
497.833	275.45
498.266	259.07
498.7	331.62
499.134	319.92
499.567	277.79
500.001	256.73
500.434	315.24
500.868	312.9
501.301	261.41
501.734	230.98
502.168	284.81
502.601	245.02
503.034	350.35
503.467	338.65
503.9	245.02
504.333	294.18
504.766	373.75
505.199	340.99
505.632	322.26
506.064	256.73
506.497	308.22
506.93	301.2
507.362	322.26
507.795	303.54
508.227	308.22
508.66	310.56
509.092	340.99
509.524	350.35
509.956	280.13
510.389	296.52
510.821	336.31
511.253	275.45
511.685	247.37
512.117	352.69
512.549	324.6
512.981	366.73
513.412	303.54
513.844	340.99
514.276	324.6
514.707	291.84
515.139	275.45
515.571	289.5
516.002	308.22
516.433	319.92
516.865	369.07
517.296	336.31
517.727	296.52
518.159	273.11
518.59	331.62
519.021	270.77
519.452	296.52
519.883	305.88
520.314	308.22
520.744	317.58
521.175	333.97
521.606	291.84
522.037	352.69
522.467	301.2
522.898	362.05
523.328	371.41
523.759	373.75
524.189	366.73
524.62	284.81
525.05	245.02
525.48	324.6
525.91	301.2
526.341	308.22
526.771	275.45
527.201	280.13
527.631	310.56
528.061	326.94
528.49	235.66
528.92	308.22
529.35	249.71
529.78	294.18
530.209	291.84
530.639	284.81
531.068	277.79
531.498	291.84
531.927	298.86
532.357	317.58
532.786	312.9
533.215	277.79
533.644	270.77
534.074	305.88
534.503	305.88
534.932	261.41
535.361	348.01
535.79	315.24
536.218	305.88
536.647	399.5
537.076	296.52
537.505	355.03
537.933	315.24
538.362	324.6
538.79	348.01
539.219	348.01
539.647	362.05
540.076	371.41
540.504	305.88
540.932	275.45
541.36	298.86
541.788	301.2
542.217	282.47
542.645	245.02
543.073	303.54
543.5	333.97
543.928	359.71
544.356	312.9
544.784	298.86
545.211	247.37
545.639	310.56
546.067	308.22
546.494	266.09
546.922	338.65
547.349	350.35
547.776	284.81
548.204	268.43
548.631	308.22
549.058	303.54
549.485	336.31
549.912	326.94
550.339	287.15
550.766	226.3
551.193	326.94
551.62	263.75
552.047	324.6
552.474	282.47
552.9	308.22
553.327	319.92
553.754	331.62
554.18	263.75
554.607	340.99
555.033	273.11
555.459	256.73
555.886	303.54
556.312	284.81
556.738	326.94
557.164	284.81
557.59	308.22
558.016	308.22
558.442	284.81
558.868	329.28
559.294	266.09
559.72	287.15
560.145	296.52
560.571	359.71
560.997	364.39
561.422	270.77
561.848	333.97
562.273	352.69
562.699	317.58
563.124	329.28
563.549	296.52
563.974	319.92
564.4	263.75
564.825	273.11
565.25	312.9
565.675	216.94
566.1	270.77
566.525	247.37
566.95	345.67
567.374	303.54
567.799	312.9
568.224	380.78
568.648	223.96
569.073	259.07
569.497	289.5
569.922	322.26
570.346	291.84
570.771	301.2
571.195	287.15
571.619	216.94
572.043	284.81
572.467	298.86
572.891	331.62
573.315	324.6
573.739	312.9
574.163	289.5
574.587	254.39
575.011	275.45
575.435	315.24
575.858	275.45
576.282	324.6
576.705	280.13
577.129	284.81
577.552	291.84
577.976	214.6
578.399	277.79
578.822	310.56
579.245	289.5
579.669	289.5
580.092	333.97
580.515	343.33
580.938	350.35
581.361	357.37
581.784	310.56
582.206	273.11
582.629	259.07
583.052	289.5
583.474	345.67
583.897	308.22
584.32	340.99
584.742	319.92
585.165	282.47
585.587	343.33
586.009	319.92
586.431	284.81
586.854	289.5
587.276	331.62
587.698	296.52
588.12	284.81
588.542	275.45
588.964	310.56
589.386	289.5
589.807	263.75
590.229	205.24
590.651	326.94
591.073	308.22
591.494	310.56
591.916	261.41
592.337	324.6
592.759	315.24
593.18	282.47
593.601	289.5
594.022	277.79
594.444	324.6
594.865	333.97
595.286	303.54
595.707	319.92
596.128	366.73
596.549	291.84
596.97	362.05
597.39	280.13
597.811	284.81
598.232	308.22
598.652	252.05
599.073	348.01
599.494	333.97
599.914	312.9
600.334	296.52
600.755	268.43
601.175	294.18
601.595	245.02
602.015	345.67
602.436	240.34
602.856	441.63
603.276	266.09
603.696	280.13
604.115	357.37
604.535	305.88
604.955	345.67
605.375	308.22
605.794	338.65
606.214	289.5
606.634	315.24
607.053	282.47
607.473	319.92
607.892	266.09
608.311	319.92
608.731	385.46
609.15	261.41
609.569	345.67
609.988	322.26
610.407	331.62
610.826	280.13
611.245	301.2
611.664	333.97
612.083	266.09
612.501	364.39
612.92	301.2
613.339	312.9
613.757	277.79
614.176	322.26
614.594	371.41
615.013	336.31
615.431	303.54
615.85	357.37
616.268	294.18
616.686	296.52
617.104	249.71
617.522	275.45
617.94	350.35
618.358	317.58
618.776	315.24
619.194	366.73
619.612	298.86
620.03	294.18
620.447	338.65
620.865	240.34
621.282	233.32
621.7	352.69
622.117	270.77
622.535	284.81
622.952	301.2
623.369	301.2
623.787	333.97
624.204	329.28
624.621	294.18
625.038	317.58
625.455	298.86
625.872	287.15
626.289	326.94
626.706	303.54
627.123	277.79
627.539	301.2
627.956	324.6
628.373	338.65
628.789	256.73
629.206	324.6
629.622	312.9
630.038	348.01
630.455	355.03
630.871	261.41
631.287	348.01
631.703	317.58
632.12	364.39
632.536	305.88
632.952	324.6
633.368	247.37
633.783	291.84
634.199	282.47
634.615	268.43
635.031	240.34
635.446	284.81
635.862	317.58
636.277	294.18
636.693	352.69
637.108	287.15
637.524	289.5
637.939	301.2
638.354	303.54
638.77	329.28
639.185	301.2
639.6	357.37
640.015	270.77
640.43	340.99
640.845	228.64
641.259	303.54
641.674	280.13
642.089	310.56
642.504	289.5
642.918	308.22
643.333	336.31
643.747	352.69
644.162	289.5
644.576	301.2
644.991	235.66
645.405	296.52
645.819	296.52
646.233	376.09
646.647	298.86
647.061	308.22
647.475	324.6
647.889	268.43
648.303	312.9
648.717	432.27
649.131	305.88
649.545	348.01
649.958	348.01
650.372	345.67
650.785	298.86
651.199	282.47
651.612	289.5
652.026	294.18
652.439	259.07
652.852	329.28
653.266	294.18
653.679	305.88
654.092	289.5
654.505	357.37
654.918	326.94
655.331	284.81
655.744	291.84
656.156	319.92
656.569	355.03
656.982	310.56
657.394	280.13
657.807	252.05
658.22	266.09
658.632	301.2
659.044	284.81
659.457	348.01
659.869	268.43
660.281	284.81
660.693	294.18
661.106	336.31
661.518	289.5
661.93	259.07
662.342	294.18
662.754	331.62
663.165	230.98
663.577	273.11
663.989	273.11
664.401	242.68
664.812	359.71
665.224	305.88
665.635	280.13
666.047	294.18
666.458	399.5
666.869	340.99
667.281	263.75
667.692	249.71
668.103	317.58
668.514	301.2
668.925	289.5
669.336	256.73
669.747	282.47
670.158	291.84
670.569	336.31
670.979	268.43
671.39	289.5
671.801	261.41
672.211	228.64
672.622	291.84
673.032	319.92
673.443	329.28
673.853	301.2
674.263	298.86
674.674	284.81
675.084	228.64
675.494	312.9
675.904	242.68
676.314	366.73
676.724	340.99
677.134	289.5
677.544	359.71
677.953	329.28
678.363	308.22
678.773	275.45
679.182	333.97
679.592	298.86
680.001	317.58
680.411	287.15
680.82	238
681.23	315.24
681.639	249.71
682.048	277.79
682.457	301.2
682.866	303.54
683.275	315.24
683.684	310.56
684.093	301.2
684.502	317.58
684.911	308.22
685.32	254.39
685.728	331.62
686.137	322.26
686.546	282.47
686.954	254.39
687.363	275.45
687.771	303.54
688.179	336.31
688.588	303.54
688.996	326.94
689.404	247.37
689.812	252.05
690.22	245.02
690.628	238
691.036	371.41
691.444	252.05
691.852	305.88
692.26	312.9
692.667	312.9
693.075	338.65
693.483	282.47
693.89	296.52
694.298	312.9
694.705	280.13
695.112	345.67
695.52	266.09
695.927	263.75
696.334	387.8
696.741	319.92
697.148	268.43
697.555	275.45
697.962	317.58
698.369	336.31
698.776	298.86
699.183	315.24
699.59	266.09
699.996	338.65
700.403	343.33
700.81	296.52
701.216	240.34
701.623	355.03
702.029	355.03
702.435	338.65
702.842	305.88
703.248	273.11
703.654	324.6
704.06	319.92
704.466	340.99
704.872	324.6
705.278	326.94
705.684	245.02
706.09	317.58
706.496	284.81
706.901	277.79
707.307	310.56
707.712	345.67
708.118	291.84
708.523	364.39
708.929	296.52
709.334	256.73
709.74	371.41
710.145	280.13
710.55	263.75
710.955	263.75
711.36	336.31
711.765	310.56
712.17	315.24
712.575	270.77
712.98	832.5
713.385	329.28
713.789	284.81
714.194	333.97
714.599	254.39
715.003	198.21
715.408	252.05
715.812	317.58
716.217	333.97
716.621	298.86
717.025	261.41
717.429	315.24
717.833	329.28
718.238	245.02
718.642	319.92
719.046	329.28
719.449	291.84
719.853	270.77
720.257	284.81
720.661	294.18
721.065	326.94
721.468	415.88
721.872	277.79
722.275	364.39
722.679	298.86
723.082	310.56
723.485	340.99
723.889	319.92
724.292	338.65
724.695	287.15
725.098	317.58
725.501	294.18
725.904	256.73
726.307	331.62
726.71	333.97
727.113	259.07
727.516	289.5
727.918	266.09
728.321	266.09
728.724	287.15
729.126	263.75
729.529	273.11
729.931	303.54
730.333	331.62
730.736	305.88
731.138	284.81
731.54	270.77
731.942	270.77
732.344	326.94
732.746	324.6
733.148	275.45
733.55	362.05
733.952	315.24
734.354	366.73
734.756	315.24
735.157	355.03
735.559	277.79
735.96	268.43
736.362	355.03
736.763	324.6
737.165	249.71
737.566	263.75
737.967	291.84
738.368	235.66
738.77	259.07
739.171	263.75
739.572	326.94
739.973	303.54
740.374	308.22
740.774	282.47
741.175	289.5
741.576	273.11
741.977	308.22
742.377	263.75
742.778	340.99
743.178	319.92
743.579	284.81
743.979	291.84
744.379	336.31
744.78	284.81
745.18	331.62
745.58	284.81
745.98	294.18
746.38	333.97
746.78	252.05
747.18	326.94
747.58	308.22
747.98	303.54
748.38	305.88
748.779	296.52
749.179	268.43
749.578	268.43
749.978	308.22
750.377	352.69
750.777	305.88
751.176	277.79
751.575	273.11
751.975	343.33
752.374	273.11
752.773	329.28
753.172	305.88
753.571	350.35
753.97	291.84
754.369	364.39
754.768	340.99
755.166	305.88
755.565	326.94
755.964	289.5
756.362	357.37
756.761	317.58
757.159	207.58
757.558	348.01
757.956	352.69
758.354	322.26
758.753	329.28
759.151	256.73
759.549	331.62
759.947	310.56
760.345	317.58
760.743	303.54
761.141	261.41
761.539	284.81
761.936	247.37
762.334	348.01
762.732	294.18
763.129	310.56
763.527	303.54
763.924	308.22
764.322	294.18
764.719	308.22
765.117	317.58
765.514	275.45
765.911	249.71
766.308	303.54
766.705	301.2
