Data from Al_FLMS009871__421__14-25-12-247.txt Node

Date: Fri Mar 08 14:25:12 CST 2024
User: pe5414po
Spectrometer: FLMS00987
Trigger mode: 0
Integration Time (sec): 1.000000E-1
Scans to average: 1
Electric dark correction enabled: true
Nonlinearity correction enabled: false
Boxcar width: 0
XAxis mode: Wavelengths
Number of Pixels in Spectrum: 2048
>>>>>Begin Spectral Data<<<<<
188.938	-49.44
189.409	-49.44
189.879	-49.44
190.349	-117.32
190.819	-84.55
191.29	-133.7
191.76	-56.47
192.23	-42.42
192.7	-75.19
193.17	-82.21
193.64	-35.4
194.109	-72.85
194.579	27.79
195.049	-26.04
195.519	9.07
195.988	-0.29
196.458	98.01
196.927	76.95
197.397	51.2
197.866	123.76
198.336	137.8
198.805	126.1
199.274	186.95
199.744	182.27
200.213	257.17
200.682	184.61
201.151	252.49
201.62	212.7
202.089	271.21
202.558	261.85
203.027	292.27
203.495	343.77
203.964	282.91
204.433	278.23
204.902	334.4
205.37	322.7
205.839	268.87
206.307	303.98
206.776	301.64
207.244	409.3
207.712	346.11
208.181	226.74
208.649	327.38
209.117	322.7
209.585	306.32
210.053	222.06
210.521	247.8
210.989	292.27
211.457	280.57
211.925	343.77
212.393	254.83
212.861	238.44
213.328	271.21
213.796	273.55
214.264	296.96
214.731	299.3
215.199	275.89
215.666	292.27
216.133	275.89
216.601	250.14
217.068	320.36
217.535	303.98
218.003	289.93
218.47	378.87
218.937	292.27
219.404	299.3
219.871	215.04
220.338	329.72
220.805	322.7
221.271	336.74
221.738	273.55
222.205	259.51
222.671	285.25
223.138	299.3
223.605	329.72
224.071	294.61
224.538	203.33
225.004	238.44
225.47	282.91
225.937	289.93
226.403	336.74
226.869	287.59
227.335	332.06
227.801	266.53
228.267	254.83
228.733	357.81
229.199	282.91
229.665	332.06
230.131	411.64
230.597	275.89
231.062	327.38
231.528	322.7
231.994	285.25
232.459	278.23
232.925	336.74
233.39	296.96
233.856	289.93
234.321	322.7
234.786	376.53
235.252	348.45
235.717	357.81
236.182	329.72
236.647	449.09
237.112	308.66
237.577	299.3
238.042	346.11
238.507	318.02
238.972	301.64
239.436	320.36
239.901	292.27
240.366	325.04
240.83	367.17
241.295	318.02
241.76	289.93
242.224	303.98
242.688	301.64
243.153	299.3
243.617	268.87
244.081	311
244.545	271.21
245.01	280.57
245.474	306.32
245.938	348.45
246.402	341.43
246.866	306.32
247.33	325.04
247.793	381.21
248.257	285.25
248.721	313.34
249.185	287.59
249.648	325.04
250.112	381.21
250.575	299.3
251.039	266.53
251.502	325.04
251.965	311
252.429	292.27
252.892	296.96
253.355	369.51
253.818	353.13
254.281	378.87
254.744	275.89
255.207	339.09
255.67	402.28
256.133	353.13
256.596	346.11
257.059	332.06
257.522	355.47
257.984	287.59
258.447	371.85
258.909	353.13
259.372	275.89
259.834	306.32
260.297	399.94
260.759	329.72
261.221	306.32
261.684	360.15
262.146	343.77
262.608	329.72
263.07	285.25
263.532	273.55
263.994	374.19
264.456	371.85
264.918	360.15
265.38	336.74
265.842	299.3
266.303	362.49
266.765	306.32
267.227	318.02
267.688	339.09
268.15	320.36
268.611	315.68
269.072	273.55
269.534	306.32
269.995	341.43
270.456	285.25
270.918	320.36
271.379	275.89
271.84	325.04
272.301	364.83
272.762	336.74
273.223	322.7
273.684	233.76
274.144	278.23
274.605	381.21
275.066	339.09
275.527	332.06
275.987	282.91
276.448	334.4
276.908	395.26
277.369	360.15
277.829	421
278.289	449.09
278.75	479.52
279.21	528.67
279.67	449.09
280.13	456.11
280.59	376.53
281.05	364.83
281.51	388.24
281.97	353.13
282.43	353.13
282.89	318.02
283.35	334.4
283.809	369.51
284.269	339.09
284.729	437.39
285.188	334.4
285.648	306.32
286.107	364.83
286.567	355.47
287.026	320.36
287.485	264.19
287.944	292.27
288.404	353.13
288.863	339.09
289.322	327.38
289.781	303.98
290.24	336.74
290.699	301.64
291.158	378.87
291.616	306.32
292.075	336.74
292.534	329.72
292.992	364.83
293.451	388.24
293.91	371.85
294.368	343.77
294.827	341.43
295.285	343.77
295.743	318.02
296.202	292.27
296.66	311
297.118	318.02
297.576	343.77
298.034	296.96
298.492	271.21
298.95	322.7
299.408	343.77
299.866	334.4
300.324	362.49
300.781	334.4
301.239	350.79
301.697	320.36
302.154	334.4
302.612	329.72
303.069	320.36
303.527	299.3
303.984	364.83
304.441	348.45
304.899	332.06
305.356	388.24
305.813	367.17
306.27	376.53
306.727	467.81
307.184	378.87
307.641	449.09
308.098	505.26
308.555	444.41
309.012	493.56
309.468	463.13
309.925	376.53
310.382	343.77
310.838	303.98
311.295	371.85
311.751	327.38
312.208	369.51
312.664	339.09
313.12	341.43
313.577	339.09
314.033	325.04
314.489	369.51
314.945	364.83
315.401	327.38
315.857	341.43
316.313	311
316.769	336.74
317.225	329.72
317.681	334.4
318.136	313.34
318.592	322.7
319.048	339.09
319.503	355.47
319.959	254.83
320.414	294.61
320.869	350.79
321.325	336.74
321.78	395.26
322.235	350.79
322.691	346.11
323.146	346.11
323.601	357.81
324.056	374.19
324.511	332.06
324.966	296.96
325.421	292.27
325.875	313.34
326.33	371.85
326.785	294.61
327.24	329.72
327.694	289.93
328.149	289.93
328.603	311
329.058	374.19
329.512	346.11
329.966	367.17
330.421	348.45
330.875	336.74
331.329	287.59
331.783	254.83
332.237	313.34
332.691	247.8
333.145	353.13
333.599	357.81
334.053	360.15
334.507	318.02
334.96	336.74
335.414	296.96
335.868	332.06
336.321	266.53
336.775	320.36
337.228	273.55
337.682	367.17
338.135	392.92
338.588	322.7
339.042	397.6
339.495	350.79
339.948	350.79
340.401	381.21
340.854	341.43
341.307	336.74
341.76	313.34
342.213	318.02
342.666	315.68
343.119	280.57
343.571	385.9
344.024	397.6
344.477	311
344.929	381.21
345.382	334.4
345.834	308.66
346.287	318.02
346.739	299.3
347.191	376.53
347.644	348.45
348.096	296.96
348.548	292.27
349	292.27
349.452	383.56
349.904	322.7
350.356	334.4
350.808	360.15
351.26	327.38
351.711	296.96
352.163	327.38
352.615	329.72
353.066	327.38
353.518	362.49
353.969	409.3
354.421	362.49
354.872	327.38
355.324	371.85
355.775	287.59
356.226	301.64
356.677	395.26
357.128	362.49
357.579	362.49
358.03	348.45
358.481	369.51
358.932	303.98
359.383	339.09
359.834	423.34
360.285	308.66
360.735	383.56
361.186	318.02
361.637	369.51
362.087	299.3
362.538	343.77
362.988	320.36
363.438	385.9
363.889	346.11
364.339	395.26
364.789	395.26
365.239	378.87
365.689	332.06
366.139	306.32
366.589	299.3
367.039	294.61
367.489	364.83
367.939	294.61
368.389	334.4
368.839	381.21
369.288	266.53
369.738	339.09
370.187	346.11
370.637	296.96
371.086	315.68
371.536	318.02
371.985	397.6
372.434	301.64
372.884	311
373.333	343.77
373.782	282.91
374.231	285.25
374.68	275.89
375.129	289.93
375.578	339.09
376.027	355.47
376.475	327.38
376.924	341.43
377.373	357.81
377.822	346.11
378.27	306.32
378.719	320.36
379.167	332.06
379.616	252.49
380.064	292.27
380.512	343.77
380.961	299.3
381.409	313.34
381.857	334.4
382.305	336.74
382.753	390.58
383.201	287.59
383.649	416.32
384.097	395.26
384.545	278.23
384.992	325.04
385.44	320.36
385.888	308.66
386.335	350.79
386.783	329.72
387.231	334.4
387.678	341.43
388.125	353.13
388.573	313.34
389.02	402.28
389.467	348.45
389.914	322.7
390.362	371.85
390.809	397.6
391.256	273.55
391.703	341.43
392.15	341.43
392.596	362.49
393.043	378.87
393.49	439.73
393.937	430.37
394.383	481.86
394.83	465.47
395.276	472.5
395.723	488.88
396.169	428.03
396.616	509.94
397.062	451.43
397.508	388.24
397.954	430.37
398.401	371.85
398.847	336.74
399.293	308.66
399.739	313.34
400.185	385.9
400.631	329.72
401.076	320.36
401.522	325.04
401.968	388.24
402.414	308.66
402.859	369.51
403.305	355.47
403.75	329.72
404.196	332.06
404.641	339.09
405.086	308.66
405.532	339.09
405.977	350.79
406.422	266.53
406.867	388.24
407.312	399.94
407.757	299.3
408.202	336.74
408.647	327.38
409.092	378.87
409.537	296.96
409.982	306.32
410.426	334.4
410.871	348.45
411.316	346.11
411.76	357.81
412.205	343.77
412.649	334.4
413.093	271.21
413.538	418.66
413.982	332.06
414.426	334.4
414.87	390.58
415.314	301.64
415.758	376.53
416.202	299.3
416.646	311
417.09	381.21
417.534	318.02
417.978	392.92
418.421	357.81
418.865	374.19
419.309	367.17
419.752	367.17
420.196	259.51
420.639	383.56
421.083	236.1
421.526	336.74
421.969	346.11
422.412	339.09
422.856	371.85
423.299	378.87
423.742	334.4
424.185	367.17
424.628	378.87
425.071	367.17
425.513	318.02
425.956	404.62
426.399	313.34
426.842	336.74
427.284	303.98
427.727	334.4
428.169	308.66
428.612	313.34
429.054	268.87
429.497	397.6
429.939	357.81
430.381	371.85
430.823	425.68
431.265	367.17
431.707	360.15
432.149	360.15
432.591	423.34
433.033	383.56
433.475	392.92
433.917	411.64
434.359	378.87
434.8	327.38
435.242	362.49
435.684	413.98
436.125	385.9
436.567	397.6
437.008	376.53
437.449	371.85
437.891	378.87
438.332	350.79
438.773	341.43
439.214	402.28
439.656	329.72
440.097	341.43
440.538	360.15
440.978	397.6
441.419	362.49
441.86	388.24
442.301	444.41
442.742	411.64
443.182	355.47
443.623	381.21
444.063	411.64
444.504	369.51
444.944	357.81
445.385	357.81
445.825	353.13
446.265	399.94
446.706	463.13
447.146	449.09
447.586	425.68
448.026	442.07
448.466	409.3
448.906	383.56
449.346	404.62
449.786	378.87
450.225	318.02
450.665	442.07
451.105	362.49
451.544	388.24
451.984	332.06
452.424	329.72
452.863	430.37
453.302	418.66
453.742	388.24
454.181	355.47
454.62	336.74
455.059	399.94
455.499	287.59
455.938	383.56
456.377	339.09
456.816	423.34
457.254	390.58
457.693	367.17
458.132	339.09
458.571	299.3
459.01	322.7
459.448	381.21
459.887	294.61
460.325	332.06
460.764	371.85
461.202	355.47
461.641	311
462.079	383.56
462.517	346.11
462.955	315.68
463.393	357.81
463.832	332.06
464.27	348.45
464.708	353.13
465.145	329.72
465.583	378.87
466.021	364.83
466.459	299.3
466.897	348.45
467.334	332.06
467.772	322.7
468.209	367.17
468.647	357.81
469.084	327.38
469.522	346.11
469.959	313.34
470.396	285.25
470.833	383.56
471.271	329.72
471.708	395.26
472.145	350.79
472.582	327.38
473.019	315.68
473.456	383.56
473.892	402.28
474.329	299.3
474.766	245.46
475.202	320.36
475.639	395.26
476.076	362.49
476.512	329.72
476.949	383.56
477.385	383.56
477.821	332.06
478.258	367.17
478.694	280.57
479.13	287.59
479.566	320.36
480.002	346.11
480.438	360.15
480.874	339.09
481.31	348.45
481.746	374.19
482.181	353.13
482.617	374.19
483.053	383.56
483.488	388.24
483.924	404.62
484.36	325.04
484.795	343.77
485.23	409.3
485.666	346.11
486.101	322.7
486.536	371.85
486.971	339.09
487.407	348.45
487.842	353.13
488.277	369.51
488.712	390.58
489.146	397.6
489.581	397.6
490.016	353.13
490.451	341.43
490.885	343.77
491.32	355.47
491.755	364.83
492.189	399.94
492.624	369.51
493.058	371.85
493.492	315.68
493.927	329.72
494.361	362.49
494.795	392.92
495.229	470.16
495.663	381.21
496.097	388.24
496.531	409.3
496.965	367.17
497.399	463.13
497.833	376.53
498.266	374.19
498.7	353.13
499.134	360.15
499.567	444.41
500.001	369.51
500.434	371.85
500.868	385.9
501.301	392.92
501.734	388.24
502.168	402.28
502.601	367.17
503.034	350.79
503.467	423.34
503.9	406.96
504.333	367.17
504.766	378.87
505.199	453.77
505.632	421
506.064	467.81
506.497	402.28
506.93	509.94
507.362	505.26
507.795	521.65
508.227	381.21
508.66	376.53
509.092	477.18
509.524	371.85
509.956	334.4
510.389	376.53
510.821	392.92
511.253	409.3
511.685	278.23
512.117	353.13
512.549	397.6
512.981	325.04
513.412	423.34
513.844	376.53
514.276	367.17
514.707	397.6
515.139	418.66
515.571	486.54
516.002	486.54
516.433	439.73
516.865	481.86
517.296	385.9
517.727	428.03
518.159	418.66
518.59	451.43
519.021	444.41
519.452	514.63
519.883	446.75
520.314	498.24
520.744	481.86
521.175	514.63
521.606	460.79
522.037	521.65
522.467	509.94
522.898	570.8
523.328	516.97
523.759	533.35
524.189	591.86
524.62	598.88
525.05	615.27
525.48	626.97
525.91	676.12
526.341	673.78
526.771	680.8
527.201	835.28
527.631	849.32
528.061	903.15
528.49	1130.19
528.92	1331.47
529.35	1741.07
529.78	2988.57
530.209	14061.65
530.639	22845.68
531.068	31367.57
531.498	59315.9
531.927	63044.38
532.357	63044.38
532.786	63044.38
533.215	63044.38
533.644	63044.38
534.074	29497.48
534.503	7791.35
534.932	4079.26
535.361	2412.8
535.79	1724.68
536.218	1322.11
536.647	1230.83
537.076	994.44
537.505	914.86
537.933	776.77
538.362	711.23
538.79	589.52
539.219	636.33
539.647	549.73
540.076	446.75
540.504	535.69
540.932	526.33
541.36	474.84
541.788	512.28
542.217	470.16
542.645	453.77
543.073	388.24
543.5	479.52
543.928	456.11
544.356	425.68
544.784	481.86
545.211	435.05
545.639	449.09
546.067	428.03
546.494	425.68
546.922	364.83
547.349	392.92
547.776	343.77
548.204	395.26
548.631	388.24
549.058	432.71
549.485	432.71
549.912	446.75
550.339	383.56
550.766	509.94
551.193	374.19
551.62	378.87
552.047	353.13
552.474	343.77
552.9	397.6
553.327	315.68
553.754	322.7
554.18	357.81
554.607	381.21
555.033	392.92
555.459	409.3
555.886	360.15
556.312	406.96
556.738	348.45
557.164	381.21
557.59	428.03
558.016	421
558.442	364.83
558.868	397.6
559.294	399.94
559.72	390.58
560.145	339.09
560.571	385.9
560.997	346.11
561.422	334.4
561.848	376.53
562.273	378.87
562.699	332.06
563.124	306.32
563.549	432.71
563.974	388.24
564.4	318.02
564.825	402.28
565.25	306.32
565.675	383.56
566.1	374.19
566.525	287.59
566.95	409.3
567.374	334.4
567.799	357.81
568.224	390.58
568.648	413.98
569.073	385.9
569.497	442.07
569.922	449.09
570.346	329.72
570.771	374.19
571.195	350.79
571.619	327.38
572.043	343.77
572.467	318.02
572.891	357.81
573.315	341.43
573.739	329.72
574.163	371.85
574.587	287.59
575.011	388.24
575.435	397.6
575.858	341.43
576.282	451.43
576.705	367.17
577.129	458.45
577.552	369.51
577.976	318.02
578.399	303.98
578.822	355.47
579.245	325.04
579.669	332.06
580.092	343.77
580.515	346.11
580.938	362.49
581.361	348.45
581.784	411.64
582.206	296.96
582.629	306.32
583.052	409.3
583.474	392.92
583.897	353.13
584.32	385.9
584.742	362.49
585.165	334.4
585.587	329.72
586.009	357.81
586.431	421
586.854	367.17
587.276	353.13
587.698	355.47
588.12	289.93
588.542	367.17
588.964	332.06
589.386	348.45
589.807	329.72
590.229	287.59
590.651	346.11
591.073	369.51
591.494	322.7
591.916	355.47
592.337	348.45
592.759	348.45
593.18	313.34
593.601	299.3
594.022	320.36
594.444	360.15
594.865	350.79
595.286	402.28
595.707	367.17
596.128	350.79
596.549	364.83
596.97	285.25
597.39	315.68
597.811	402.28
598.232	261.85
598.652	362.49
599.073	332.06
599.494	353.13
599.914	306.32
600.334	357.81
600.755	343.77
601.175	285.25
601.595	301.64
602.015	301.64
602.436	318.02
602.856	493.56
603.276	332.06
603.696	322.7
604.115	289.93
604.535	315.68
604.955	367.17
605.375	360.15
605.794	313.34
606.214	348.45
606.634	287.59
607.053	388.24
607.473	364.83
607.892	313.34
608.311	364.83
608.731	264.19
609.15	378.87
609.569	385.9
609.988	303.98
610.407	399.94
610.826	322.7
611.245	364.83
611.664	383.56
612.083	299.3
612.501	367.17
612.92	355.47
613.339	367.17
613.757	381.21
614.176	329.72
614.594	289.93
615.013	390.58
615.431	360.15
615.85	268.87
616.268	257.17
616.686	362.49
617.104	371.85
617.522	355.47
617.94	334.4
618.358	369.51
618.776	353.13
619.194	301.64
619.612	334.4
620.03	339.09
620.447	346.11
620.865	292.27
621.282	383.56
621.7	287.59
622.117	285.25
622.535	353.13
622.952	299.3
623.369	287.59
623.787	240.78
624.204	257.17
624.621	395.26
625.038	339.09
625.455	437.39
625.872	371.85
626.289	341.43
626.706	392.92
627.123	294.61
627.539	353.13
627.956	320.36
628.373	364.83
628.789	353.13
629.206	336.74
629.622	325.04
630.038	327.38
630.455	343.77
630.871	311
631.287	339.09
631.703	348.45
632.12	357.81
632.536	325.04
632.952	238.44
633.368	383.56
633.783	299.3
634.199	299.3
634.615	287.59
635.031	346.11
635.446	329.72
635.862	292.27
636.277	353.13
636.693	287.59
637.108	353.13
637.524	318.02
637.939	397.6
638.354	334.4
638.77	254.83
639.185	367.17
639.6	311
640.015	346.11
640.43	296.96
640.845	299.3
641.259	285.25
641.674	289.93
642.089	311
642.504	296.96
642.918	282.91
643.333	355.47
643.747	292.27
644.162	303.98
644.576	296.96
644.991	346.11
645.405	320.36
645.819	280.57
646.233	280.57
646.647	329.72
647.061	325.04
647.475	303.98
647.889	278.23
648.303	385.9
648.717	308.66
649.131	371.85
649.545	336.74
649.958	325.04
650.372	280.57
650.785	395.26
651.199	306.32
651.612	315.68
652.026	343.77
652.439	259.51
652.852	299.3
653.266	301.64
653.679	301.64
654.092	296.96
654.505	320.36
654.918	320.36
655.331	369.51
655.744	266.53
656.156	348.45
656.569	364.83
656.982	271.21
657.394	280.57
657.807	355.47
658.22	313.34
658.632	306.32
659.044	264.19
659.457	329.72
659.869	334.4
660.281	341.43
660.693	339.09
661.106	280.57
661.518	275.89
661.93	292.27
662.342	327.38
662.754	289.93
663.165	357.81
663.577	294.61
663.989	360.15
664.401	390.58
664.812	236.1
665.224	322.7
665.635	308.66
666.047	327.38
666.458	325.04
666.869	313.34
667.281	346.11
667.692	292.27
668.103	334.4
668.514	320.36
668.925	275.89
669.336	339.09
669.747	303.98
670.158	311
670.569	322.7
670.979	303.98
671.39	378.87
671.801	327.38
672.211	322.7
672.622	318.02
673.032	308.66
673.443	289.93
673.853	348.45
674.263	266.53
674.674	329.72
675.084	296.96
675.494	325.04
675.904	327.38
676.314	294.61
676.724	299.3
677.134	325.04
677.544	325.04
677.953	367.17
678.363	346.11
678.773	376.53
679.182	357.81
679.592	301.64
680.001	332.06
680.411	273.55
680.82	271.21
681.23	332.06
681.639	318.02
682.048	303.98
682.457	289.93
682.866	343.77
683.275	327.38
683.684	315.68
684.093	289.93
684.502	268.87
684.911	334.4
685.32	306.32
685.728	320.36
686.137	320.36
686.546	362.49
686.954	268.87
687.363	339.09
687.771	364.83
688.179	378.87
688.588	334.4
688.996	301.64
689.404	266.53
689.812	259.51
690.22	313.34
690.628	306.32
691.036	318.02
691.444	318.02
691.852	301.64
692.26	318.02
692.667	348.45
693.075	292.27
693.483	301.64
693.89	257.17
694.298	245.46
694.705	308.66
695.112	355.47
695.52	303.98
695.927	374.19
696.334	369.51
696.741	292.27
697.148	343.77
697.555	308.66
697.962	325.04
698.369	303.98
698.776	322.7
699.183	339.09
699.59	325.04
699.996	254.83
700.403	336.74
700.81	252.49
701.216	275.89
701.623	287.59
702.029	275.89
702.435	325.04
702.842	292.27
703.248	322.7
703.654	268.87
704.06	355.47
704.466	273.55
704.872	275.89
705.278	336.74
705.684	292.27
706.09	329.72
706.496	299.3
706.901	308.66
707.307	287.59
707.712	261.85
708.118	327.38
708.523	353.13
708.929	329.72
709.334	353.13
709.74	329.72
710.145	311
710.55	311
710.955	299.3
711.36	325.04
711.765	327.38
712.17	303.98
712.575	332.06
712.98	877.41
713.385	385.9
713.789	325.04
714.194	369.51
714.599	332.06
715.003	292.27
715.408	350.79
715.812	287.59
716.217	280.57
716.621	322.7
717.025	378.87
717.429	332.06
717.833	306.32
718.238	282.91
718.642	299.3
719.046	388.24
719.449	271.21
719.853	315.68
720.257	336.74
720.661	306.32
721.065	308.66
721.468	343.77
721.872	292.27
722.275	329.72
722.679	287.59
723.082	296.96
723.485	273.55
723.889	336.74
724.292	322.7
724.695	306.32
725.098	437.39
725.501	332.06
725.904	334.4
726.307	364.83
726.71	222.06
727.113	301.64
727.516	289.93
727.918	353.13
728.321	278.23
728.724	329.72
729.126	261.85
729.529	348.45
729.931	348.45
730.333	320.36
730.736	392.92
731.138	325.04
731.54	285.25
731.942	261.85
732.344	294.61
732.746	348.45
733.148	268.87
733.55	271.21
733.952	254.83
734.354	285.25
734.756	350.79
735.157	339.09
735.559	240.78
735.96	327.38
736.362	322.7
736.763	322.7
737.165	392.92
737.566	315.68
737.967	311
738.368	336.74
738.77	257.17
739.171	315.68
739.572	268.87
739.973	346.11
740.374	320.36
740.774	238.44
741.175	315.68
741.576	357.81
741.977	282.91
742.377	374.19
742.778	360.15
743.178	287.59
743.579	271.21
743.979	341.43
744.379	325.04
744.78	346.11
745.18	320.36
745.58	296.96
745.98	303.98
746.38	334.4
746.78	329.72
747.18	303.98
747.58	315.68
747.98	318.02
748.38	301.64
748.779	318.02
749.179	374.19
749.578	240.78
749.978	311
750.377	322.7
750.777	320.36
751.176	329.72
751.575	329.72
751.975	299.3
752.374	285.25
752.773	303.98
753.172	341.43
753.571	294.61
753.97	329.72
754.369	369.51
754.768	252.49
755.166	299.3
755.565	280.57
755.964	313.34
756.362	303.98
756.761	296.96
757.159	357.81
757.558	367.17
757.956	360.15
758.354	224.4
758.753	278.23
759.151	271.21
759.549	299.3
759.947	303.98
760.345	301.64
760.743	343.77
761.141	311
761.539	264.19
761.936	280.57
762.334	294.61
762.732	357.81
763.129	322.7
763.527	308.66
763.924	296.96
764.322	364.83
764.719	336.74
765.117	336.74
765.514	348.45
765.911	329.72
766.308	320.36
