Data from Al_FLMS009871__427__14-25-12-847.txt Node

Date: Fri Mar 08 14:25:12 CST 2024
User: pe5414po
Spectrometer: FLMS00987
Trigger mode: 0
Integration Time (sec): 1.000000E-1
Scans to average: 1
Electric dark correction enabled: true
Nonlinearity correction enabled: false
Boxcar width: 0
XAxis mode: Wavelengths
Number of Pixels in Spectrum: 2048
>>>>>Begin Spectral Data<<<<<
188.938	-0.15
189.409	-0.15
189.879	-0.15
190.349	-135.9
190.819	-114.83
191.29	-103.13
191.76	-121.85
192.23	-84.41
192.7	-82.07
193.17	2.19
193.64	-51.64
194.109	-28.23
194.579	-9.51
195.049	-4.83
195.519	18.58
195.988	-30.57
196.458	74.75
196.927	46.66
197.397	133.26
197.866	121.56
198.336	119.22
198.805	182.42
199.274	215.18
199.744	191.78
200.213	149.65
200.682	245.61
201.151	292.42
201.62	247.95
202.089	301.78
202.558	261.99
203.027	322.85
203.495	304.12
203.964	339.23
204.433	247.95
204.902	294.76
205.37	325.19
205.839	306.46
206.307	364.98
206.776	339.23
207.244	315.83
207.712	264.33
208.181	334.55
208.649	355.62
209.117	243.27
209.585	297.1
210.053	332.21
210.521	301.78
210.989	266.67
211.457	261.99
211.925	254.97
212.393	315.83
212.861	266.67
213.328	297.1
213.796	299.44
214.264	313.49
214.731	353.27
215.199	334.55
215.666	292.42
216.133	247.95
216.601	357.96
217.068	320.51
217.535	334.55
218.003	294.76
218.47	367.32
218.937	327.53
219.404	313.49
219.871	278.38
220.338	283.06
220.805	350.93
221.271	285.4
221.738	264.33
222.205	343.91
222.671	350.93
223.138	320.51
223.605	273.7
224.071	261.99
224.538	381.36
225.004	269.02
225.47	308.8
225.937	355.62
226.403	294.76
226.869	339.23
227.335	325.19
227.801	341.57
228.267	308.8
228.733	269.02
229.199	299.44
229.665	381.36
230.131	386.04
230.597	266.67
231.062	315.83
231.528	360.3
231.994	315.83
232.459	332.21
232.925	353.27
233.39	372
233.856	329.87
234.321	320.51
234.786	404.77
235.252	376.68
235.717	437.53
236.182	449.24
236.647	416.47
237.112	360.3
237.577	336.89
238.042	306.46
238.507	322.85
238.972	381.36
239.436	357.96
239.901	308.8
240.366	320.51
240.83	301.78
241.295	353.27
241.76	318.17
242.224	350.93
242.688	388.38
243.153	360.3
243.617	306.46
244.081	374.34
244.545	367.32
245.01	386.04
245.474	353.27
245.938	376.68
246.402	276.04
246.866	383.7
247.33	350.93
247.793	334.55
248.257	322.85
248.721	297.1
249.185	346.25
249.648	311.14
250.112	339.23
250.575	264.33
251.039	315.83
251.502	336.89
251.965	379.02
252.429	364.98
252.892	360.3
253.355	339.23
253.818	313.49
254.281	329.87
254.744	374.34
255.207	320.51
255.67	355.62
256.133	390.72
256.596	458.6
257.059	383.7
257.522	374.34
257.984	369.66
258.447	395.4
258.909	332.21
259.372	327.53
259.834	383.7
260.297	423.49
260.759	407.11
261.221	386.04
261.684	388.38
262.146	346.25
262.608	299.44
263.07	320.51
263.532	355.62
263.994	348.59
264.456	411.79
264.918	332.21
265.38	336.89
265.842	332.21
266.303	346.25
266.765	388.38
267.227	287.74
267.688	374.34
268.15	386.04
268.611	313.49
269.072	348.59
269.534	329.87
269.995	397.74
270.456	355.62
270.918	367.32
271.379	360.3
271.84	364.98
272.301	357.96
272.762	369.66
273.223	318.17
273.684	362.64
274.144	285.4
274.605	294.76
275.066	432.85
275.527	407.11
275.987	339.23
276.448	329.87
276.908	386.04
277.369	304.12
277.829	484.34
278.289	486.69
278.75	603.71
279.21	528.81
279.67	503.07
280.13	503.07
280.59	500.73
281.05	446.9
281.51	362.64
281.97	390.72
282.43	456.26
282.89	372
283.35	315.83
283.809	311.14
284.269	381.36
284.729	423.49
285.188	423.49
285.648	306.46
286.107	346.25
286.567	315.83
287.026	299.44
287.485	355.62
287.944	292.42
288.404	388.38
288.863	372
289.322	304.12
289.781	299.44
290.24	416.47
290.699	381.36
291.158	343.91
291.616	297.1
292.075	350.93
292.534	315.83
292.992	409.45
293.451	390.72
293.91	386.04
294.368	343.91
294.827	348.59
295.285	381.36
295.743	334.55
296.202	304.12
296.66	386.04
297.118	308.8
297.576	353.27
298.034	339.23
298.492	357.96
298.95	327.53
299.408	318.17
299.866	348.59
300.324	341.57
300.781	397.74
301.239	383.7
301.697	350.93
302.154	388.38
302.612	362.64
303.069	353.27
303.527	360.3
303.984	414.13
304.441	437.53
304.899	367.32
305.356	386.04
305.813	428.17
306.27	458.6
306.727	507.75
307.184	524.13
307.641	510.09
308.098	615.41
308.555	613.07
309.012	580.31
309.468	519.45
309.925	446.9
310.382	404.77
310.838	386.04
311.295	407.11
311.751	353.27
312.208	362.64
312.664	327.53
313.12	379.02
313.577	353.27
314.033	339.23
314.489	334.55
314.945	402.43
315.401	418.81
315.857	390.72
316.313	360.3
316.769	372
317.225	336.89
317.681	395.4
318.136	376.68
318.592	357.96
319.048	329.87
319.503	341.57
319.959	341.57
320.414	350.93
320.869	280.72
321.325	360.3
321.78	404.77
322.235	348.59
322.691	329.87
323.146	369.66
323.601	381.36
324.056	322.85
324.511	379.02
324.966	346.25
325.421	339.23
325.875	343.91
326.33	357.96
326.785	315.83
327.24	364.98
327.694	374.34
328.149	414.13
328.603	332.21
329.058	372
329.512	318.17
329.966	374.34
330.421	402.43
330.875	357.96
331.329	343.91
331.783	318.17
332.237	435.19
332.691	271.36
333.145	393.06
333.599	357.96
334.053	364.98
334.507	381.36
334.96	299.44
335.414	383.7
335.868	369.66
336.321	369.66
336.775	404.77
337.228	318.17
337.682	388.38
338.135	329.87
338.588	395.4
339.042	336.89
339.495	341.57
339.948	386.04
340.401	374.34
340.854	369.66
341.307	393.06
341.76	381.36
342.213	393.06
342.666	355.62
343.119	334.55
343.571	383.7
344.024	409.45
344.477	346.25
344.929	332.21
345.382	343.91
345.834	388.38
346.287	367.32
346.739	350.93
347.191	357.96
347.644	259.65
348.096	409.45
348.548	397.74
349	320.51
349.452	374.34
349.904	381.36
350.356	362.64
350.808	400.09
351.26	397.74
351.711	421.15
352.163	367.32
352.615	418.81
353.066	381.36
353.518	409.45
353.969	430.51
354.421	439.87
354.872	348.59
355.324	372
355.775	404.77
356.226	430.51
356.677	397.74
357.128	402.43
357.579	460.94
358.03	425.83
358.481	439.87
358.932	423.49
359.383	383.7
359.834	416.47
360.285	404.77
360.735	430.51
361.186	369.66
361.637	318.17
362.087	386.04
362.538	332.21
362.988	402.43
363.438	442.21
363.889	364.98
364.339	383.7
364.789	357.96
365.239	374.34
365.689	379.02
366.139	416.47
366.589	322.85
367.039	463.28
367.489	425.83
367.939	362.64
368.389	381.36
368.839	325.19
369.288	348.59
369.738	376.68
370.187	372
370.637	353.27
371.086	325.19
371.536	397.74
371.985	313.49
372.434	390.72
372.884	372
373.333	353.27
373.782	423.49
374.231	437.53
374.68	343.91
375.129	362.64
375.578	348.59
376.027	374.34
376.475	339.23
376.924	381.36
377.373	334.55
377.822	313.49
378.27	369.66
378.719	388.38
379.167	404.77
379.616	339.23
380.064	334.55
380.512	367.32
380.961	348.59
381.409	416.47
381.857	369.66
382.305	381.36
382.753	388.38
383.201	360.3
383.649	348.59
384.097	400.09
384.545	315.83
384.992	395.4
385.44	386.04
385.888	355.62
386.335	357.96
386.783	348.59
387.231	318.17
387.678	355.62
388.125	397.74
388.573	341.57
389.02	374.34
389.467	336.89
389.914	388.38
390.362	325.19
390.809	325.19
391.256	360.3
391.703	383.7
392.15	451.58
392.596	381.36
393.043	446.9
393.49	414.13
393.937	463.28
394.383	510.09
394.83	671.59
395.276	489.03
395.723	477.32
396.169	549.88
396.616	587.33
397.062	503.07
397.508	435.19
397.954	336.89
398.401	451.58
398.847	428.17
399.293	367.32
399.739	362.64
400.185	308.8
400.631	364.98
401.076	353.27
401.522	421.15
401.968	357.96
402.414	416.47
402.859	318.17
403.305	465.62
403.75	313.49
404.196	397.74
404.641	404.77
405.086	383.7
405.532	348.59
405.977	381.36
406.422	423.49
406.867	383.7
407.312	369.66
407.757	364.98
408.202	395.4
408.647	388.38
409.092	294.76
409.537	367.32
409.982	327.53
410.426	379.02
410.871	418.81
411.316	362.64
411.76	332.21
412.205	332.21
412.649	353.27
413.093	386.04
413.538	390.72
413.982	414.13
414.426	376.68
414.87	423.49
415.314	430.51
415.758	414.13
416.202	294.76
416.646	416.47
417.09	322.85
417.534	397.74
417.978	350.93
418.421	390.72
418.865	357.96
419.309	418.81
419.752	357.96
420.196	315.83
420.639	414.13
421.083	374.34
421.526	381.36
421.969	350.93
422.412	325.19
422.856	346.25
423.299	360.3
423.742	292.42
424.185	306.46
424.628	395.4
425.071	360.3
425.513	353.27
425.956	355.62
426.399	386.04
426.842	318.17
427.284	362.64
427.727	418.81
428.169	285.4
428.612	374.34
429.054	322.85
429.497	404.77
429.939	432.85
430.381	404.77
430.823	397.74
431.265	372
431.707	411.79
432.149	374.34
432.591	411.79
433.033	362.64
433.475	414.13
433.917	449.24
434.359	449.24
434.8	421.15
435.242	372
435.684	388.38
436.125	402.43
436.567	393.06
437.008	402.43
437.449	404.77
437.891	376.68
438.332	355.62
438.773	407.11
439.214	421.15
439.656	397.74
440.097	449.24
440.538	336.89
440.978	460.94
441.419	313.49
441.86	442.21
442.301	383.7
442.742	421.15
443.182	416.47
443.623	456.26
444.063	467.96
444.504	397.74
444.944	402.43
445.385	423.49
445.825	353.27
446.265	402.43
446.706	451.58
447.146	341.57
447.586	379.02
448.026	465.62
448.466	393.06
448.906	435.19
449.346	414.13
449.786	386.04
450.225	390.72
450.665	421.15
451.105	432.85
451.544	379.02
451.984	388.38
452.424	442.21
452.863	374.34
453.302	393.06
453.742	390.72
454.181	446.9
454.62	421.15
455.059	360.3
455.499	369.66
455.938	353.27
456.377	362.64
456.816	350.93
457.254	357.96
457.693	376.68
458.132	376.68
458.571	400.09
459.01	395.4
459.448	350.93
459.887	388.38
460.325	416.47
460.764	446.9
461.202	388.38
461.641	442.21
462.079	390.72
462.517	395.4
462.955	395.4
463.393	395.4
463.832	393.06
464.27	381.36
464.708	332.21
465.145	350.93
465.583	383.7
466.021	379.02
466.459	381.36
466.897	348.59
467.334	404.77
467.772	308.8
468.209	395.4
468.647	381.36
469.084	402.43
469.522	379.02
469.959	393.06
470.396	388.38
470.833	372
471.271	346.25
471.708	409.45
472.145	393.06
472.582	456.26
473.019	357.96
473.456	407.11
473.892	339.23
474.329	393.06
474.766	414.13
475.202	374.34
475.639	437.53
476.076	397.74
476.512	313.49
476.949	364.98
477.385	421.15
477.821	343.91
478.258	395.4
478.694	409.45
479.13	411.79
479.566	364.98
480.002	376.68
480.438	425.83
480.874	409.45
481.31	360.3
481.746	393.06
482.181	327.53
482.617	292.42
483.053	479.66
483.488	339.23
483.924	407.11
484.36	421.15
484.795	379.02
485.23	355.62
485.666	402.43
486.101	414.13
486.536	421.15
486.971	404.77
487.407	379.02
487.842	388.38
488.277	393.06
488.712	346.25
489.146	416.47
489.581	414.13
490.016	339.23
490.451	411.79
490.885	336.89
491.32	404.77
491.755	308.8
492.189	364.98
492.624	388.38
493.058	416.47
493.492	374.34
493.927	388.38
494.361	449.24
494.795	339.23
495.229	437.53
495.663	458.6
496.097	362.64
496.531	435.19
496.965	374.34
497.399	414.13
497.833	453.92
498.266	432.85
498.7	418.81
499.134	407.11
499.567	360.3
500.001	348.59
500.434	416.47
500.868	446.9
501.301	446.9
501.734	353.27
502.168	439.87
502.601	414.13
503.034	409.45
503.467	428.17
503.9	423.49
504.333	435.19
504.766	472.64
505.199	493.71
505.632	507.75
506.064	463.28
506.497	465.62
506.93	442.21
507.362	531.16
507.795	491.37
508.227	357.96
508.66	446.9
509.092	486.69
509.524	432.85
509.956	418.81
510.389	416.47
510.821	470.3
511.253	453.92
511.685	449.24
512.117	470.3
512.549	409.45
512.981	421.15
513.412	437.53
513.844	369.66
514.276	444.56
514.707	451.58
515.139	439.87
515.571	428.17
516.002	428.17
516.433	531.16
516.865	360.3
517.296	453.92
517.727	503.07
518.159	474.98
518.59	498.39
519.021	493.71
519.452	493.71
519.883	498.39
520.314	465.62
520.744	575.63
521.175	573.28
521.606	456.26
522.037	547.54
522.467	549.88
522.898	582.65
523.328	547.54
523.759	517.11
524.189	554.56
524.62	601.37
525.05	566.26
525.48	657.54
525.91	664.57
526.341	706.7
526.771	725.42
527.201	793.3
527.631	865.85
528.061	879.9
528.49	1092.88
528.92	1130.33
529.35	1551.63
529.78	2731.26
530.209	12175.32
530.639	20135.48
531.068	27531.58
531.498	53932.82
531.927	63065.59
532.357	63065.59
532.786	63065.59
533.215	63065.59
533.644	63065.59
534.074	24837.62
534.503	7068.27
534.932	3611.3
535.361	2242.09
535.79	1579.72
536.218	1357.36
536.647	1067.14
537.076	989.9
537.505	891.6
537.933	727.76
538.362	669.25
538.79	655.2
539.219	624.78
539.647	556.9
540.076	549.88
540.504	484.34
540.932	453.92
541.36	489.03
541.788	451.58
542.217	446.9
542.645	484.34
543.073	432.85
543.5	439.87
543.928	482
544.356	456.26
544.784	395.4
545.211	393.06
545.639	421.15
546.067	432.85
546.494	418.81
546.922	416.47
547.349	402.43
547.776	407.11
548.204	407.11
548.631	409.45
549.058	446.9
549.485	430.51
549.912	428.17
550.339	428.17
550.766	442.21
551.193	395.4
551.62	369.66
552.047	348.59
552.474	362.64
552.9	430.51
553.327	463.28
553.754	451.58
554.18	388.38
554.607	395.4
555.033	383.7
555.459	456.26
555.886	336.89
556.312	414.13
556.738	453.92
557.164	416.47
557.59	456.26
558.016	449.24
558.442	407.11
558.868	404.77
559.294	418.81
559.72	343.91
560.145	444.56
560.571	432.85
560.997	350.93
561.422	409.45
561.848	376.68
562.273	451.58
562.699	421.15
563.124	442.21
563.549	367.32
563.974	374.34
564.4	388.38
564.825	435.19
565.25	407.11
565.675	397.74
566.1	463.28
566.525	423.49
566.95	376.68
567.374	414.13
567.799	437.53
568.224	414.13
568.648	393.06
569.073	407.11
569.497	439.87
569.922	432.85
570.346	350.93
570.771	379.02
571.195	400.09
571.619	393.06
572.043	327.53
572.467	418.81
572.891	409.45
573.315	390.72
573.739	383.7
574.163	374.34
574.587	386.04
575.011	418.81
575.435	353.27
575.858	402.43
576.282	355.62
576.705	355.62
577.129	395.4
577.552	400.09
577.976	379.02
578.399	379.02
578.822	379.02
579.245	360.3
579.669	315.83
580.092	386.04
580.515	386.04
580.938	404.77
581.361	376.68
581.784	390.72
582.206	402.43
582.629	393.06
583.052	383.7
583.474	421.15
583.897	386.04
584.32	364.98
584.742	374.34
585.165	341.57
585.587	402.43
586.009	346.25
586.431	369.66
586.854	280.72
587.276	320.51
587.698	364.98
588.12	407.11
588.542	409.45
588.964	369.66
589.386	393.06
589.807	336.89
590.229	320.51
590.651	325.19
591.073	367.32
591.494	407.11
591.916	341.57
592.337	402.43
592.759	381.36
593.18	350.93
593.601	334.55
594.022	372
594.444	346.25
594.865	418.81
595.286	306.46
595.707	343.91
596.128	418.81
596.549	369.66
596.97	367.32
597.39	311.14
597.811	395.4
598.232	386.04
598.652	348.59
599.073	364.98
599.494	336.89
599.914	374.34
600.334	332.21
600.755	374.34
601.175	332.21
601.595	350.93
602.015	388.38
602.436	315.83
602.856	477.32
603.276	325.19
603.696	367.32
604.115	372
604.535	343.91
604.955	411.79
605.375	400.09
605.794	285.4
606.214	348.59
606.634	357.96
607.053	430.51
607.473	446.9
607.892	400.09
608.311	285.4
608.731	350.93
609.15	379.02
609.569	348.59
609.988	306.46
610.407	264.33
610.826	343.91
611.245	395.4
611.664	341.57
612.083	367.32
612.501	369.66
612.92	367.32
613.339	383.7
613.757	362.64
614.176	322.85
614.594	362.64
615.013	369.66
615.431	322.85
615.85	348.59
616.268	339.23
616.686	395.4
617.104	395.4
617.522	386.04
617.94	332.21
618.358	276.04
618.776	336.89
619.194	379.02
619.612	393.06
620.03	357.96
620.447	367.32
620.865	374.34
621.282	386.04
621.7	402.43
622.117	346.25
622.535	322.85
622.952	341.57
623.369	411.79
623.787	355.62
624.204	341.57
624.621	428.17
625.038	320.51
625.455	402.43
625.872	308.8
626.289	372
626.706	409.45
627.123	346.25
627.539	411.79
627.956	379.02
628.373	297.1
628.789	367.32
629.206	360.3
629.622	290.08
630.038	325.19
630.455	306.46
630.871	369.66
631.287	334.55
631.703	336.89
632.12	339.23
632.536	334.55
632.952	301.78
633.368	343.91
633.783	336.89
634.199	425.83
634.615	348.59
635.031	383.7
635.446	320.51
635.862	355.62
636.277	381.36
636.693	364.98
637.108	313.49
637.524	318.17
637.939	379.02
638.354	334.55
638.77	299.44
639.185	339.23
639.6	388.38
640.015	339.23
640.43	418.81
640.845	336.89
641.259	299.44
641.674	343.91
642.089	332.21
642.504	329.87
642.918	336.89
643.333	346.25
643.747	320.51
644.162	400.09
644.576	336.89
644.991	304.12
645.405	327.53
645.819	341.57
646.233	264.33
646.647	374.34
647.061	367.32
647.475	313.49
647.889	372
648.303	346.25
648.717	397.74
649.131	379.02
649.545	357.96
649.958	395.4
650.372	304.12
650.785	353.27
651.199	339.23
651.612	332.21
652.026	364.98
652.439	273.7
652.852	353.27
653.266	355.62
653.679	315.83
654.092	336.89
654.505	308.8
654.918	357.96
655.331	355.62
655.744	297.1
656.156	355.62
656.569	308.8
656.982	290.08
657.394	313.49
657.807	381.36
658.22	360.3
658.632	332.21
659.044	271.36
659.457	306.46
659.869	320.51
660.281	325.19
660.693	334.55
661.106	346.25
661.518	353.27
661.93	332.21
662.342	297.1
662.754	367.32
663.165	374.34
663.577	353.27
663.989	367.32
664.401	362.64
664.812	411.79
665.224	322.85
665.635	353.27
666.047	327.53
666.458	367.32
666.869	364.98
667.281	320.51
667.692	306.46
668.103	346.25
668.514	388.38
668.925	327.53
669.336	318.17
669.747	325.19
670.158	332.21
670.569	315.83
670.979	294.76
671.39	355.62
671.801	301.78
672.211	311.14
672.622	409.45
673.032	353.27
673.443	280.72
673.853	336.89
674.263	411.79
674.674	306.46
675.084	315.83
675.494	374.34
675.904	299.44
676.314	369.66
676.724	329.87
677.134	269.02
677.544	280.72
677.953	308.8
678.363	381.36
678.773	360.3
679.182	376.68
679.592	364.98
680.001	350.93
680.411	348.59
680.82	320.51
681.23	336.89
681.639	355.62
682.048	320.51
682.457	350.93
682.866	290.08
683.275	327.53
683.684	374.34
684.093	364.98
684.502	325.19
684.911	308.8
685.32	379.02
685.728	341.57
686.137	402.43
686.546	311.14
686.954	350.93
687.363	418.81
687.771	367.32
688.179	332.21
688.588	402.43
688.996	334.55
689.404	231.57
689.812	360.3
690.22	301.78
690.628	294.76
691.036	297.1
691.444	357.96
691.852	343.91
692.26	360.3
692.667	367.32
693.075	353.27
693.483	299.44
693.89	353.27
694.298	357.96
694.705	294.76
695.112	372
695.52	327.53
695.927	325.19
696.334	355.62
696.741	306.46
697.148	325.19
697.555	355.62
697.962	404.77
698.369	322.85
698.776	264.33
699.183	320.51
699.59	341.57
699.996	332.21
700.403	409.45
700.81	313.49
701.216	304.12
701.623	306.46
702.029	381.36
702.435	329.87
702.842	301.78
703.248	357.96
703.654	367.32
704.06	362.64
704.466	332.21
704.872	350.93
705.278	402.43
705.684	383.7
706.09	278.38
706.496	297.1
706.901	320.51
707.307	350.93
707.712	341.57
708.118	400.09
708.523	381.36
708.929	393.06
709.334	329.87
709.74	315.83
710.145	343.91
710.55	297.1
710.955	294.76
711.36	364.98
711.765	386.04
712.17	320.51
712.575	306.46
712.98	929.05
713.385	355.62
713.789	411.79
714.194	327.53
714.599	348.59
715.003	332.21
715.408	355.62
715.812	322.85
716.217	350.93
716.621	322.85
717.025	357.96
717.429	341.57
717.833	339.23
718.238	264.33
718.642	315.83
719.046	318.17
719.449	329.87
719.853	332.21
720.257	299.44
720.661	311.14
721.065	355.62
721.468	346.25
721.872	297.1
722.275	276.04
722.679	355.62
723.082	341.57
723.485	313.49
723.889	292.42
724.292	400.09
724.695	346.25
725.098	325.19
725.501	329.87
725.904	336.89
726.307	325.19
726.71	402.43
727.113	343.91
727.516	341.57
727.918	397.74
728.321	306.46
728.724	322.85
729.126	334.55
729.529	343.91
729.931	357.96
730.333	381.36
730.736	386.04
731.138	283.06
731.54	362.64
731.942	266.67
732.344	353.27
732.746	322.85
733.148	350.93
733.55	367.32
733.952	357.96
734.354	386.04
734.756	353.27
735.157	390.72
735.559	379.02
735.96	346.25
736.362	379.02
736.763	311.14
737.165	325.19
737.566	325.19
737.967	341.57
738.368	306.46
738.77	374.34
739.171	306.46
739.572	348.59
739.973	315.83
740.374	334.55
740.774	336.89
741.175	348.59
741.576	304.12
741.977	353.27
742.377	329.87
742.778	355.62
743.178	299.44
743.579	329.87
743.979	311.14
744.379	336.89
744.78	308.8
745.18	379.02
745.58	318.17
745.98	336.89
746.38	313.49
746.78	336.89
747.18	325.19
747.58	318.17
747.98	360.3
748.38	367.32
748.779	383.7
749.179	297.1
749.578	266.67
749.978	339.23
750.377	350.93
750.777	280.72
751.176	353.27
751.575	339.23
751.975	327.53
752.374	372
752.773	369.66
753.172	353.27
753.571	341.57
753.97	346.25
754.369	334.55
754.768	325.19
755.166	343.91
755.565	353.27
755.964	346.25
756.362	301.78
756.761	245.61
757.159	292.42
757.558	287.74
757.956	379.02
758.354	346.25
758.753	322.85
759.151	369.66
759.549	339.23
759.947	320.51
760.345	308.8
760.743	297.1
761.141	287.74
761.539	299.44
761.936	402.43
762.334	369.66
762.732	339.23
763.129	315.83
763.527	313.49
763.924	364.98
764.322	390.72
764.719	374.34
765.117	292.42
765.514	339.23
