Data from Al_FLMS009871__435__14-25-13-647.txt Node

Date: Fri Mar 08 14:25:13 CST 2024
User: pe5414po
Spectrometer: FLMS00987
Trigger mode: 0
Integration Time (sec): 1.000000E-1
Scans to average: 1
Electric dark correction enabled: true
Nonlinearity correction enabled: false
Boxcar width: 0
XAxis mode: Wavelengths
Number of Pixels in Spectrum: 2048
>>>>>Begin Spectral Data<<<<<
188.938	-23.41
189.409	-23.41
189.879	-23.41
190.349	-112.35
190.819	-70.22
191.29	-107.66
191.76	-88.94
192.23	-140.43
192.7	-53.83
193.17	-18.72
193.64	-18.72
194.109	-102.98
194.579	-30.43
195.049	2.34
195.519	2.34
195.988	25.75
196.458	39.79
196.927	56.17
197.397	95.96
197.866	180.22
198.336	159.16
198.805	128.73
199.274	198.95
199.744	180.22
200.213	208.31
200.682	250.44
201.151	243.42
201.62	264.48
202.089	241.08
202.558	325.33
203.027	276.18
203.495	297.25
203.964	292.57
204.433	243.42
204.902	322.99
205.37	290.23
205.839	308.95
206.307	292.57
206.776	301.93
207.244	262.14
207.712	287.89
208.181	273.84
208.649	376.83
209.117	362.78
209.585	311.29
210.053	299.59
210.521	372.15
210.989	315.97
211.457	318.31
211.925	311.29
212.393	292.57
212.861	294.91
213.328	248.1
213.796	311.29
214.264	287.89
214.731	259.8
215.199	290.23
215.666	318.31
216.133	264.48
216.601	257.46
217.068	271.5
217.535	283.2
218.003	297.25
218.47	301.93
218.937	327.67
219.404	273.84
219.871	330.02
220.338	308.95
220.805	283.2
221.271	306.61
221.738	348.74
222.205	325.33
222.671	306.61
223.138	259.8
223.605	304.27
224.071	330.02
224.538	290.23
225.004	308.95
225.47	318.31
225.937	285.55
226.403	372.15
226.869	241.08
227.335	264.48
227.801	339.38
228.267	271.5
228.733	308.95
229.199	252.78
229.665	287.89
230.131	348.74
230.597	311.29
231.062	376.83
231.528	390.87
231.994	299.59
232.459	306.61
232.925	339.38
233.39	306.61
233.856	252.78
234.321	278.52
234.786	313.63
235.252	325.33
235.717	346.4
236.182	287.89
236.647	351.08
237.112	313.63
237.577	332.36
238.042	297.25
238.507	304.27
238.972	308.95
239.436	271.5
239.901	322.99
240.366	243.42
240.83	346.4
241.295	334.7
241.76	325.33
242.224	365.12
242.688	259.8
243.153	362.78
243.617	257.46
244.081	313.63
244.545	315.97
245.01	318.31
245.474	341.72
245.938	341.72
246.402	374.49
246.866	271.5
247.33	297.25
247.793	327.67
248.257	318.31
248.721	292.57
249.185	278.52
249.648	285.55
250.112	358.1
250.575	330.02
251.039	367.46
251.502	280.86
251.965	294.91
252.429	358.1
252.892	283.2
253.355	311.29
253.818	353.42
254.281	280.86
254.744	301.93
255.207	362.78
255.67	339.38
256.133	327.67
256.596	348.74
257.059	325.33
257.522	346.4
257.984	301.93
258.447	301.93
258.909	344.06
259.372	322.99
259.834	306.61
260.297	273.84
260.759	334.7
261.221	360.44
261.684	290.23
262.146	341.72
262.608	273.84
263.07	383.85
263.532	304.27
263.994	362.78
264.456	393.21
264.918	330.02
265.38	330.02
265.842	308.95
266.303	383.85
266.765	315.97
267.227	250.44
267.688	320.65
268.15	330.02
268.611	306.61
269.072	332.36
269.534	285.55
269.995	344.06
270.456	381.51
270.918	327.67
271.379	262.14
271.84	280.86
272.301	290.23
272.762	322.99
273.223	339.38
273.684	330.02
274.144	278.52
274.605	320.65
275.066	360.44
275.527	325.33
275.987	348.74
276.448	393.21
276.908	344.06
277.369	294.91
277.829	346.4
278.289	428.32
278.75	404.91
279.21	407.25
279.67	388.53
280.13	376.83
280.59	421.3
281.05	353.42
281.51	369.8
281.97	313.63
282.43	386.19
282.89	325.33
283.35	327.67
283.809	280.86
284.269	383.85
284.729	358.1
285.188	351.08
285.648	330.02
286.107	311.29
286.567	362.78
287.026	348.74
287.485	294.91
287.944	358.1
288.404	320.65
288.863	360.44
289.322	334.7
289.781	355.76
290.24	339.38
290.699	325.33
291.158	252.78
291.616	332.36
292.075	315.97
292.534	259.8
292.992	383.85
293.451	259.8
293.91	290.23
294.368	313.63
294.827	318.31
295.285	353.42
295.743	299.59
296.202	264.48
296.66	318.31
297.118	301.93
297.576	341.72
298.034	297.25
298.492	301.93
298.95	376.83
299.408	353.42
299.866	299.59
300.324	304.27
300.781	386.19
301.239	330.02
301.697	341.72
302.154	311.29
302.612	341.72
303.069	353.42
303.527	330.02
303.984	322.99
304.441	325.33
304.899	322.99
305.356	304.27
305.813	306.61
306.27	337.04
306.727	388.53
307.184	440.02
307.641	360.44
308.098	397.89
308.555	358.1
309.012	388.53
309.468	311.29
309.925	393.21
310.382	397.89
310.838	325.33
311.295	327.67
311.751	255.12
312.208	339.38
312.664	332.36
313.12	299.59
313.577	311.29
314.033	395.55
314.489	395.55
314.945	360.44
315.401	386.19
315.857	339.38
316.313	297.25
316.769	395.55
317.225	332.36
317.681	409.59
318.136	301.93
318.592	374.49
319.048	358.1
319.503	351.08
319.959	346.4
320.414	301.93
320.869	372.15
321.325	348.74
321.78	351.08
322.235	297.25
322.691	381.51
323.146	327.67
323.601	348.74
324.056	397.89
324.511	346.4
324.966	313.63
325.421	423.64
325.875	292.57
326.33	365.12
326.785	330.02
327.24	397.89
327.694	339.38
328.149	330.02
328.603	306.61
329.058	306.61
329.512	313.63
329.966	386.19
330.421	255.12
330.875	346.4
331.329	318.31
331.783	369.8
332.237	395.55
332.691	409.59
333.145	287.89
333.599	325.33
334.053	346.4
334.507	339.38
334.96	388.53
335.414	379.17
335.868	290.23
336.321	334.7
336.775	367.46
337.228	332.36
337.682	365.12
338.135	320.65
338.588	346.4
339.042	381.51
339.495	332.36
339.948	334.7
340.401	390.87
340.854	344.06
341.307	421.3
341.76	351.08
342.213	355.76
342.666	360.44
343.119	308.95
343.571	334.7
344.024	388.53
344.477	381.51
344.929	337.04
345.382	344.06
345.834	280.86
346.287	290.23
346.739	444.7
347.191	381.51
347.644	341.72
348.096	339.38
348.548	297.25
349	294.91
349.452	341.72
349.904	369.8
350.356	404.91
350.808	374.49
351.26	360.44
351.711	337.04
352.163	351.08
352.615	362.78
353.066	400.23
353.518	379.17
353.969	301.93
354.421	294.91
354.872	294.91
355.324	337.04
355.775	435.34
356.226	376.83
356.677	346.4
357.128	341.72
357.579	315.97
358.03	379.17
358.481	339.38
358.932	358.1
359.383	407.25
359.834	365.12
360.285	425.98
360.735	447.04
361.186	339.38
361.637	365.12
362.087	344.06
362.538	365.12
362.988	322.99
363.438	367.46
363.889	372.15
364.339	290.23
364.789	320.65
365.239	337.04
365.689	311.29
366.139	285.55
366.589	320.65
367.039	367.46
367.489	306.61
367.939	334.7
368.389	332.36
368.839	400.23
369.288	404.91
369.738	318.31
370.187	304.27
370.637	346.4
371.086	402.57
371.536	344.06
371.985	330.02
372.434	318.31
372.884	353.42
373.333	334.7
373.782	341.72
374.231	334.7
374.68	330.02
375.129	351.08
375.578	299.59
376.027	351.08
376.475	402.57
376.924	339.38
377.373	346.4
377.822	334.7
378.27	360.44
378.719	283.2
379.167	306.61
379.616	315.97
380.064	346.4
380.512	252.78
380.961	301.93
381.409	337.04
381.857	365.12
382.305	358.1
382.753	395.55
383.201	372.15
383.649	409.59
384.097	395.55
384.545	362.78
384.992	320.65
385.44	294.91
385.888	388.53
386.335	362.78
386.783	355.76
387.231	353.42
387.678	388.53
388.125	304.27
388.573	318.31
389.02	311.29
389.467	421.3
389.914	308.95
390.362	369.8
390.809	344.06
391.256	367.46
391.703	330.02
392.15	320.65
392.596	374.49
393.043	379.17
393.49	344.06
393.937	395.55
394.383	423.64
394.83	409.59
395.276	379.17
395.723	421.3
396.169	465.77
396.616	418.96
397.062	355.76
397.508	355.76
397.954	418.96
398.401	360.44
398.847	341.72
399.293	381.51
399.739	273.84
400.185	379.17
400.631	351.08
401.076	374.49
401.522	351.08
401.968	334.7
402.414	374.49
402.859	397.89
403.305	362.78
403.75	318.31
404.196	257.46
404.641	330.02
405.086	322.99
405.532	346.4
405.977	348.74
406.422	318.31
406.867	339.38
407.312	341.72
407.757	339.38
408.202	241.08
408.647	353.42
409.092	339.38
409.537	360.44
409.982	348.74
410.426	383.85
410.871	374.49
411.316	348.74
411.76	337.04
412.205	414.27
412.649	339.38
413.093	273.84
413.538	395.55
413.982	330.02
414.426	315.97
414.87	381.51
415.314	372.15
415.758	358.1
416.202	372.15
416.646	346.4
417.09	332.36
417.534	299.59
417.978	353.42
418.421	290.23
418.865	386.19
419.309	374.49
419.752	306.61
420.196	308.95
420.639	362.78
421.083	404.91
421.526	339.38
421.969	374.49
422.412	376.83
422.856	374.49
423.299	320.65
423.742	414.27
424.185	315.97
424.628	362.78
425.071	390.87
425.513	315.97
425.956	301.93
426.399	388.53
426.842	332.36
427.284	425.98
427.727	322.99
428.169	325.33
428.612	337.04
429.054	369.8
429.497	360.44
429.939	393.21
430.381	369.8
430.823	353.42
431.265	365.12
431.707	388.53
432.149	395.55
432.591	402.57
433.033	374.49
433.475	358.1
433.917	351.08
434.359	390.87
434.8	362.78
435.242	376.83
435.684	381.51
436.125	383.85
436.567	374.49
437.008	397.89
437.449	386.19
437.891	383.85
438.332	362.78
438.773	395.55
439.214	355.76
439.656	461.09
440.097	330.02
440.538	402.57
440.978	414.27
441.419	348.74
441.86	390.87
442.301	339.38
442.742	400.23
443.182	451.72
443.623	353.42
444.063	388.53
444.504	409.59
444.944	425.98
445.385	348.74
445.825	369.8
446.265	290.23
446.706	299.59
447.146	355.76
447.586	376.83
448.026	440.02
448.466	376.83
448.906	376.83
449.346	362.78
449.786	330.02
450.225	386.19
450.665	358.1
451.105	358.1
451.544	407.25
451.984	451.72
452.424	381.51
452.863	372.15
453.302	381.51
453.742	411.93
454.181	437.68
454.62	440.02
455.059	369.8
455.499	365.12
455.938	390.87
456.377	290.23
456.816	362.78
457.254	374.49
457.693	320.65
458.132	299.59
458.571	395.55
459.01	304.27
459.448	330.02
459.887	358.1
460.325	418.96
460.764	433
461.202	351.08
461.641	358.1
462.079	362.78
462.517	355.76
462.955	372.15
463.393	388.53
463.832	404.91
464.27	341.72
464.708	344.06
465.145	351.08
465.583	360.44
466.021	315.97
466.459	351.08
466.897	351.08
467.334	299.59
467.772	369.8
468.209	374.49
468.647	341.72
469.084	318.31
469.522	367.46
469.959	337.04
470.396	348.74
470.833	341.72
471.271	287.89
471.708	400.23
472.145	390.87
472.582	325.33
473.019	402.57
473.456	393.21
473.892	374.49
474.329	337.04
474.766	388.53
475.202	386.19
475.639	311.29
476.076	367.46
476.512	404.91
476.949	341.72
477.385	330.02
477.821	325.33
478.258	325.33
478.694	334.7
479.13	346.4
479.566	353.42
480.002	383.85
480.438	369.8
480.874	425.98
481.31	362.78
481.746	365.12
482.181	367.46
482.617	341.72
483.053	369.8
483.488	322.99
483.924	404.91
484.36	409.59
484.795	355.76
485.23	430.66
485.666	313.63
486.101	367.46
486.536	425.98
486.971	376.83
487.407	315.97
487.842	327.67
488.277	344.06
488.712	360.44
489.146	367.46
489.581	425.98
490.016	381.51
490.451	337.04
490.885	332.36
491.32	353.42
491.755	341.72
492.189	374.49
492.624	372.15
493.058	407.25
493.492	341.72
493.927	327.67
494.361	428.32
494.795	327.67
495.229	299.59
495.663	365.12
496.097	334.7
496.531	351.08
496.965	390.87
497.399	353.42
497.833	362.78
498.266	383.85
498.7	374.49
499.134	383.85
499.567	411.93
500.001	421.3
500.434	367.46
500.868	404.91
501.301	409.59
501.734	390.87
502.168	358.1
502.601	423.64
503.034	362.78
503.467	397.89
503.9	402.57
504.333	381.51
504.766	423.64
505.199	444.7
505.632	538.32
506.064	447.04
506.497	416.62
506.93	479.81
507.362	402.57
507.795	379.17
508.227	332.36
508.66	407.25
509.092	404.91
509.524	423.64
509.956	374.49
510.389	393.21
510.821	407.25
511.253	362.78
511.685	414.27
512.117	400.23
512.549	395.55
512.981	379.17
513.412	374.49
513.844	395.55
514.276	360.44
514.707	475.13
515.139	458.74
515.571	428.32
516.002	479.81
516.433	435.34
516.865	407.25
517.296	423.64
517.727	351.08
518.159	475.13
518.59	407.25
519.021	416.62
519.452	456.4
519.883	496.19
520.314	425.98
520.744	388.53
521.175	496.19
521.606	524.28
522.037	550.03
522.467	528.96
522.898	519.6
523.328	535.98
523.759	507.9
524.189	500.87
524.62	496.19
525.05	571.09
525.48	587.47
525.91	587.47
526.341	589.81
526.771	573.43
527.201	620.24
527.631	758.33
528.061	781.74
528.49	910.47
528.92	919.83
529.35	1167.93
529.78	2174.36
530.209	9511.94
530.639	16105.23
531.068	21839.54
531.498	42962.87
531.927	63061.05
532.357	63061.05
532.786	63061.05
533.215	63061.05
533.644	63061.05
534.074	17544.66
534.503	5916.87
534.932	2977.16
535.361	1849.02
535.79	1294.32
536.218	1074.31
536.647	1036.86
537.076	770.04
537.505	800.46
537.933	667.05
538.362	561.73
538.79	524.28
539.219	554.71
539.647	524.28
540.076	456.4
540.504	484.49
540.932	498.53
541.36	475.13
541.788	451.72
542.217	407.25
542.645	449.38
543.073	428.32
543.5	388.53
543.928	409.59
544.356	393.21
544.784	390.87
545.211	421.3
545.639	397.89
546.067	374.49
546.494	367.46
546.922	374.49
547.349	372.15
547.776	365.12
548.204	409.59
548.631	461.09
549.058	404.91
549.485	425.98
549.912	409.59
550.339	421.3
550.766	451.72
551.193	400.23
551.62	388.53
552.047	351.08
552.474	381.51
552.9	386.19
553.327	304.27
553.754	285.55
554.18	402.57
554.607	435.34
555.033	353.42
555.459	360.44
555.886	327.67
556.312	353.42
556.738	407.25
557.164	393.21
557.59	360.44
558.016	381.51
558.442	383.85
558.868	337.04
559.294	409.59
559.72	290.23
560.145	332.36
560.571	395.55
560.997	334.7
561.422	369.8
561.848	367.46
562.273	369.8
562.699	376.83
563.124	458.74
563.549	402.57
563.974	367.46
564.4	383.85
564.825	437.68
565.25	400.23
565.675	367.46
566.1	348.74
566.525	414.27
566.95	327.67
567.374	346.4
567.799	395.55
568.224	381.51
568.648	395.55
569.073	414.27
569.497	381.51
569.922	372.15
570.346	360.44
570.771	423.64
571.195	348.74
571.619	393.21
572.043	379.17
572.467	393.21
572.891	372.15
573.315	367.46
573.739	433
574.163	388.53
574.587	428.32
575.011	365.12
575.435	344.06
575.858	390.87
576.282	383.85
576.705	355.76
577.129	348.74
577.552	360.44
577.976	365.12
578.399	339.38
578.822	395.55
579.245	362.78
579.669	397.89
580.092	362.78
580.515	344.06
580.938	362.78
581.361	322.99
581.784	383.85
582.206	351.08
582.629	341.72
583.052	411.93
583.474	337.04
583.897	400.23
584.32	374.49
584.742	365.12
585.165	358.1
585.587	433
586.009	397.89
586.431	344.06
586.854	344.06
587.276	376.83
587.698	376.83
588.12	341.72
588.542	397.89
588.964	369.8
589.386	315.97
589.807	273.84
590.229	299.59
590.651	383.85
591.073	444.7
591.494	365.12
591.916	358.1
592.337	311.29
592.759	381.51
593.18	346.4
593.601	367.46
594.022	358.1
594.444	400.23
594.865	337.04
595.286	409.59
595.707	372.15
596.128	390.87
596.549	332.36
596.97	353.42
597.39	374.49
597.811	379.17
598.232	313.63
598.652	411.93
599.073	369.8
599.494	353.42
599.914	360.44
600.334	388.53
600.755	339.38
601.175	318.31
601.595	369.8
602.015	341.72
602.436	318.31
602.856	442.36
603.276	344.06
603.696	351.08
604.115	308.95
604.535	325.33
604.955	301.93
605.375	322.99
605.794	374.49
606.214	395.55
606.634	322.99
607.053	348.74
607.473	337.04
607.892	348.74
608.311	330.02
608.731	383.85
609.15	390.87
609.569	386.19
609.988	306.61
610.407	334.7
610.826	348.74
611.245	416.62
611.664	376.83
612.083	351.08
612.501	327.67
612.92	353.42
613.339	402.57
613.757	348.74
614.176	379.17
614.594	353.42
615.013	332.36
615.431	320.65
615.85	339.38
616.268	430.66
616.686	290.23
617.104	332.36
617.522	376.83
617.94	301.93
618.358	353.42
618.776	320.65
619.194	313.63
619.612	358.1
620.03	376.83
620.447	355.76
620.865	381.51
621.282	304.27
621.7	334.7
622.117	287.89
622.535	372.15
622.952	327.67
623.369	346.4
623.787	341.72
624.204	313.63
624.621	397.89
625.038	381.51
625.455	381.51
625.872	374.49
626.289	351.08
626.706	337.04
627.123	308.95
627.539	346.4
627.956	386.19
628.373	351.08
628.789	390.87
629.206	348.74
629.622	334.7
630.038	344.06
630.455	322.99
630.871	322.99
631.287	330.02
631.703	365.12
632.12	341.72
632.536	332.36
632.952	383.85
633.368	344.06
633.783	418.96
634.199	308.95
634.615	337.04
635.031	418.96
635.446	374.49
635.862	322.99
636.277	348.74
636.693	344.06
637.108	299.59
637.524	325.33
637.939	351.08
638.354	283.2
638.77	299.59
639.185	330.02
639.6	397.89
640.015	393.21
640.43	306.61
640.845	334.7
641.259	367.46
641.674	332.36
642.089	339.38
642.504	374.49
642.918	365.12
643.333	395.55
643.747	276.18
644.162	348.74
644.576	358.1
644.991	362.78
645.405	344.06
645.819	304.27
646.233	325.33
646.647	390.87
647.061	355.76
647.475	290.23
647.889	360.44
648.303	360.44
648.717	322.99
649.131	311.29
649.545	353.42
649.958	318.31
650.372	355.76
650.785	337.04
651.199	325.33
651.612	299.59
652.026	315.97
652.439	301.93
652.852	344.06
653.266	337.04
653.679	404.91
654.092	365.12
654.505	315.97
654.918	454.06
655.331	348.74
655.744	395.55
656.156	418.96
656.569	313.63
656.982	337.04
657.394	362.78
657.807	353.42
658.22	360.44
658.632	327.67
659.044	381.51
659.457	318.31
659.869	341.72
660.281	285.55
660.693	330.02
661.106	341.72
661.518	325.33
661.93	369.8
662.342	304.27
662.754	348.74
663.165	425.98
663.577	332.36
663.989	351.08
664.401	374.49
664.812	381.51
665.224	337.04
665.635	360.44
666.047	327.67
666.458	330.02
666.869	411.93
667.281	353.42
667.692	351.08
668.103	283.2
668.514	315.97
668.925	315.97
669.336	308.95
669.747	346.4
670.158	320.65
670.569	337.04
670.979	388.53
671.39	311.29
671.801	390.87
672.211	320.65
672.622	292.57
673.032	351.08
673.443	297.25
673.853	365.12
674.263	353.42
674.674	306.61
675.084	351.08
675.494	355.76
675.904	344.06
676.314	304.27
676.724	351.08
677.134	365.12
677.544	386.19
677.953	393.21
678.363	355.76
678.773	304.27
679.182	362.78
679.592	376.83
680.001	344.06
680.411	311.29
680.82	332.36
681.23	285.55
681.639	348.74
682.048	308.95
682.457	269.16
682.866	365.12
683.275	355.76
683.684	386.19
684.093	334.7
684.502	322.99
684.911	367.46
685.32	348.74
685.728	297.25
686.137	285.55
686.546	341.72
686.954	372.15
687.363	376.83
687.771	379.17
688.179	360.44
688.588	337.04
688.996	318.31
689.404	325.33
689.812	313.63
690.22	346.4
690.628	330.02
691.036	344.06
691.444	374.49
691.852	318.31
692.26	358.1
692.667	334.7
693.075	304.27
693.483	334.7
693.89	320.65
694.298	306.61
694.705	383.85
695.112	313.63
695.52	313.63
695.927	376.83
696.334	425.98
696.741	339.38
697.148	337.04
697.555	290.23
697.962	315.97
698.369	308.95
698.776	372.15
699.183	301.93
699.59	325.33
699.996	299.59
700.403	301.93
700.81	280.86
701.216	344.06
701.623	294.91
702.029	250.44
702.435	381.51
702.842	325.33
703.248	393.21
703.654	332.36
704.06	351.08
704.466	234.05
704.872	346.4
705.278	301.93
705.684	351.08
706.09	365.12
706.496	297.25
706.901	362.78
707.307	330.02
707.712	332.36
708.118	269.16
708.523	379.17
708.929	332.36
709.334	376.83
709.74	341.72
710.145	313.63
710.55	257.46
710.955	341.72
711.36	311.29
711.765	299.59
712.17	285.55
712.575	337.04
712.98	842.59
713.385	376.83
713.789	287.89
714.194	322.99
714.599	315.97
715.003	283.2
715.408	269.16
715.812	393.21
716.217	365.12
716.621	355.76
717.025	311.29
717.429	351.08
717.833	404.91
718.238	306.61
718.642	264.48
719.046	339.38
719.449	313.63
719.853	320.65
720.257	369.8
720.661	353.42
721.065	301.93
721.468	365.12
721.872	367.46
722.275	304.27
722.679	294.91
723.082	334.7
723.485	344.06
723.889	315.97
724.292	355.76
724.695	351.08
725.098	280.86
725.501	304.27
725.904	290.23
726.307	315.97
726.71	374.49
727.113	287.89
727.516	257.46
727.918	367.46
728.321	337.04
728.724	339.38
729.126	266.82
729.529	346.4
729.931	311.29
730.333	287.89
730.736	297.25
731.138	332.36
731.54	306.61
731.942	325.33
732.344	346.4
732.746	271.5
733.148	351.08
733.55	365.12
733.952	257.46
734.354	269.16
734.756	334.7
735.157	397.89
735.559	372.15
735.96	304.27
736.362	346.4
736.763	262.14
737.165	360.44
737.566	294.91
737.967	304.27
738.368	330.02
738.77	320.65
739.171	393.21
739.572	285.55
739.973	360.44
740.374	348.74
740.774	339.38
741.175	344.06
741.576	313.63
741.977	299.59
742.377	292.57
742.778	325.33
743.178	346.4
743.579	369.8
743.979	330.02
744.379	320.65
744.78	327.67
745.18	287.89
745.58	313.63
745.98	348.74
746.38	344.06
746.78	344.06
747.18	304.27
747.58	304.27
747.98	287.89
748.38	360.44
748.779	294.91
749.179	318.31
749.578	313.63
749.978	318.31
750.377	322.99
750.777	308.95
751.176	325.33
751.575	290.23
751.975	358.1
752.374	369.8
752.773	269.16
753.172	299.59
753.571	325.33
753.97	362.78
754.369	285.55
754.768	355.76
755.166	358.1
755.565	299.59
755.964	322.99
756.362	308.95
756.761	330.02
757.159	311.29
757.558	311.29
757.956	322.99
758.354	301.93
758.753	306.61
759.151	344.06
759.549	362.78
759.947	304.27
760.345	390.87
760.743	262.14
761.141	355.76
761.539	304.27
761.936	318.31
762.334	355.76
762.732	367.46
763.129	315.97
763.527	351.08
763.924	315.97
764.322	344.06
