Data from Al_FLMS009871__423__14-25-12-447.txt Node

Date: Fri Mar 08 14:25:12 CST 2024
User: pe5414po
Spectrometer: FLMS00987
Trigger mode: 0
Integration Time (sec): 1.000000E-1
Scans to average: 1
Electric dark correction enabled: true
Nonlinearity correction enabled: false
Boxcar width: 0
XAxis mode: Wavelengths
Number of Pixels in Spectrum: 2048
>>>>>Begin Spectral Data<<<<<
188.938	-100.79
189.409	-100.79
189.879	-100.79
190.349	-117.17
190.819	-135.9
191.29	-140.58
191.76	-121.85
192.23	-75.04
192.7	-103.13
193.17	-84.41
193.64	-16.53
194.109	-68.02
194.579	-7.17
195.049	-2.49
195.519	77.09
195.988	41.98
196.458	16.24
196.927	46.66
197.397	77.09
197.866	154.33
198.336	205.82
198.805	175.39
199.274	156.67
199.744	135.6
200.213	229.23
200.682	133.26
201.151	161.35
201.62	184.76
202.089	233.91
202.558	271.36
203.027	257.31
203.495	210.5
203.964	287.74
204.433	273.7
204.902	269.02
205.37	271.36
205.839	327.53
206.307	292.42
206.776	238.59
207.244	297.1
207.712	339.23
208.181	325.19
208.649	313.49
209.117	336.89
209.585	315.83
210.053	290.08
210.521	287.74
210.989	280.72
211.457	301.78
211.925	297.1
212.393	325.19
212.861	297.1
213.328	297.1
213.796	280.72
214.264	254.97
214.731	376.68
215.199	240.93
215.666	264.33
216.133	315.83
216.601	233.91
217.068	233.91
217.535	329.87
218.003	285.4
218.47	259.65
218.937	278.38
219.404	250.29
219.871	276.04
220.338	271.36
220.805	283.06
221.271	292.42
221.738	250.29
222.205	294.76
222.671	245.61
223.138	336.89
223.605	313.49
224.071	348.59
224.538	261.99
225.004	271.36
225.47	283.06
225.937	257.31
226.403	243.27
226.869	236.25
227.335	297.1
227.801	261.99
228.267	233.91
228.733	283.06
229.199	271.36
229.665	334.55
230.131	325.19
230.597	283.06
231.062	271.36
231.528	273.7
231.994	254.97
232.459	254.97
232.925	247.95
233.39	301.78
233.856	332.21
234.321	266.67
234.786	341.57
235.252	299.44
235.717	294.76
236.182	252.63
236.647	332.21
237.112	294.76
237.577	334.55
238.042	313.49
238.507	287.74
238.972	327.53
239.436	322.85
239.901	264.33
240.366	261.99
240.83	287.74
241.295	320.51
241.76	318.17
242.224	313.49
242.688	334.55
243.153	311.14
243.617	341.57
244.081	264.33
244.545	369.66
245.01	236.25
245.474	252.63
245.938	294.76
246.402	336.89
246.866	224.55
247.33	285.4
247.793	311.14
248.257	257.31
248.721	269.02
249.185	292.42
249.648	313.49
250.112	346.25
250.575	313.49
251.039	325.19
251.502	247.95
251.965	247.95
252.429	362.64
252.892	336.89
253.355	315.83
253.818	304.12
254.281	308.8
254.744	320.51
255.207	311.14
255.67	278.38
256.133	332.21
256.596	343.91
257.059	294.76
257.522	322.85
257.984	297.1
258.447	327.53
258.909	334.55
259.372	313.49
259.834	294.76
260.297	320.51
260.759	283.06
261.221	297.1
261.684	299.44
262.146	322.85
262.608	416.47
263.07	308.8
263.532	381.36
263.994	334.55
264.456	369.66
264.918	336.89
265.38	301.78
265.842	348.59
266.303	339.23
266.765	308.8
267.227	325.19
267.688	285.4
268.15	332.21
268.611	336.89
269.072	306.46
269.534	418.81
269.995	252.63
270.456	280.72
270.918	339.23
271.379	353.27
271.84	306.46
272.301	348.59
272.762	334.55
273.223	322.85
273.684	315.83
274.144	297.1
274.605	327.53
275.066	311.14
275.527	308.8
275.987	320.51
276.448	334.55
276.908	372
277.369	346.25
277.829	348.59
278.289	364.98
278.75	386.04
279.21	465.62
279.67	381.36
280.13	388.38
280.59	357.96
281.05	411.79
281.51	395.4
281.97	357.96
282.43	341.57
282.89	285.4
283.35	297.1
283.809	318.17
284.269	332.21
284.729	290.08
285.188	327.53
285.648	320.51
286.107	334.55
286.567	290.08
287.026	273.7
287.485	343.91
287.944	327.53
288.404	320.51
288.863	315.83
289.322	336.89
289.781	357.96
290.24	348.59
290.699	327.53
291.158	329.87
291.616	311.14
292.075	341.57
292.534	336.89
292.992	386.04
293.451	308.8
293.91	336.89
294.368	332.21
294.827	348.59
295.285	332.21
295.743	264.33
296.202	367.32
296.66	247.95
297.118	360.3
297.576	341.57
298.034	360.3
298.492	313.49
298.95	294.76
299.408	313.49
299.866	313.49
300.324	280.72
300.781	341.57
301.239	313.49
301.697	332.21
302.154	336.89
302.612	390.72
303.069	350.93
303.527	280.72
303.984	379.02
304.441	320.51
304.899	287.74
305.356	327.53
305.813	339.23
306.27	341.57
306.727	332.21
307.184	460.94
307.641	432.85
308.098	379.02
308.555	444.56
309.012	407.11
309.468	379.02
309.925	332.21
310.382	393.06
310.838	304.12
311.295	304.12
311.751	346.25
312.208	374.34
312.664	353.27
313.12	322.85
313.577	341.57
314.033	306.46
314.489	339.23
314.945	348.59
315.401	327.53
315.857	341.57
316.313	240.93
316.769	327.53
317.225	313.49
317.681	348.59
318.136	294.76
318.592	264.33
319.048	329.87
319.503	369.66
319.959	294.76
320.414	318.17
320.869	360.3
321.325	322.85
321.78	341.57
322.235	355.62
322.691	325.19
323.146	327.53
323.601	336.89
324.056	304.12
324.511	404.77
324.966	292.42
325.421	320.51
325.875	301.78
326.33	374.34
326.785	304.12
327.24	350.93
327.694	346.25
328.149	318.17
328.603	311.14
329.058	332.21
329.512	350.93
329.966	301.78
330.421	325.19
330.875	388.38
331.329	322.85
331.783	336.89
332.237	290.08
332.691	334.55
333.145	290.08
333.599	313.49
334.053	362.64
334.507	315.83
334.96	297.1
335.414	339.23
335.868	285.4
336.321	362.64
336.775	357.96
337.228	395.4
337.682	304.12
338.135	252.63
338.588	320.51
339.042	318.17
339.495	364.98
339.948	388.38
340.401	325.19
340.854	313.49
341.307	320.51
341.76	329.87
342.213	299.44
342.666	278.38
343.119	304.12
343.571	280.72
344.024	219.86
344.477	357.96
344.929	343.91
345.382	364.98
345.834	343.91
346.287	350.93
346.739	360.3
347.191	283.06
347.644	315.83
348.096	362.64
348.548	322.85
349	355.62
349.452	285.4
349.904	311.14
350.356	329.87
350.808	327.53
351.26	432.85
351.711	299.44
352.163	336.89
352.615	346.25
353.066	404.77
353.518	341.57
353.969	287.74
354.421	339.23
354.872	357.96
355.324	346.25
355.775	308.8
356.226	334.55
356.677	355.62
357.128	336.89
357.579	353.27
358.03	362.64
358.481	329.87
358.932	283.06
359.383	343.91
359.834	320.51
360.285	372
360.735	308.8
361.186	379.02
361.637	343.91
362.087	332.21
362.538	390.72
362.988	325.19
363.438	355.62
363.889	320.51
364.339	294.76
364.789	311.14
365.239	320.51
365.689	353.27
366.139	346.25
366.589	304.12
367.039	350.93
367.489	304.12
367.939	367.32
368.389	372
368.839	299.44
369.288	350.93
369.738	304.12
370.187	346.25
370.637	329.87
371.086	292.42
371.536	313.49
371.985	308.8
372.434	353.27
372.884	304.12
373.333	327.53
373.782	308.8
374.231	343.91
374.68	343.91
375.129	350.93
375.578	325.19
376.027	325.19
376.475	329.87
376.924	362.64
377.373	299.44
377.822	329.87
378.27	334.55
378.719	355.62
379.167	311.14
379.616	269.02
380.064	388.38
380.512	320.51
380.961	283.06
381.409	318.17
381.857	297.1
382.305	355.62
382.753	322.85
383.201	360.3
383.649	367.32
384.097	343.91
384.545	357.96
384.992	374.34
385.44	379.02
385.888	332.21
386.335	283.06
386.783	322.85
387.231	320.51
387.678	369.66
388.125	350.93
388.573	350.93
389.02	304.12
389.467	257.31
389.914	318.17
390.362	304.12
390.809	318.17
391.256	346.25
391.703	374.34
392.15	343.91
392.596	346.25
393.043	353.27
393.49	362.64
393.937	372
394.383	414.13
394.83	446.9
395.276	381.36
395.723	414.13
396.169	409.45
396.616	407.11
397.062	414.13
397.508	442.21
397.954	350.93
398.401	395.4
398.847	350.93
399.293	360.3
399.739	318.17
400.185	350.93
400.631	346.25
401.076	285.4
401.522	364.98
401.968	367.32
402.414	322.85
402.859	376.68
403.305	369.66
403.75	357.96
404.196	318.17
404.641	397.74
405.086	313.49
405.532	360.3
405.977	369.66
406.422	325.19
406.867	350.93
407.312	355.62
407.757	322.85
408.202	304.12
408.647	414.13
409.092	322.85
409.537	353.27
409.982	360.3
410.426	299.44
410.871	346.25
411.316	327.53
411.76	343.91
412.205	360.3
412.649	334.55
413.093	273.7
413.538	320.51
413.982	269.02
414.426	369.66
414.87	311.14
415.314	308.8
415.758	332.21
416.202	297.1
416.646	322.85
417.09	318.17
417.534	250.29
417.978	294.76
418.421	306.46
418.865	313.49
419.309	278.38
419.752	320.51
420.196	299.44
420.639	254.97
421.083	336.89
421.526	273.7
421.969	280.72
422.412	301.78
422.856	336.89
423.299	367.32
423.742	341.57
424.185	376.68
424.628	332.21
425.071	339.23
425.513	332.21
425.956	327.53
426.399	402.43
426.842	346.25
427.284	294.76
427.727	369.66
428.169	367.32
428.612	381.36
429.054	362.64
429.497	318.17
429.939	346.25
430.381	327.53
430.823	315.83
431.265	409.45
431.707	362.64
432.149	315.83
432.591	381.36
433.033	381.36
433.475	311.14
433.917	390.72
434.359	423.49
434.8	367.32
435.242	414.13
435.684	374.34
436.125	409.45
436.567	364.98
437.008	364.98
437.449	346.25
437.891	353.27
438.332	381.36
438.773	362.64
439.214	400.09
439.656	395.4
440.097	367.32
440.538	423.49
440.978	414.13
441.419	386.04
441.86	379.02
442.301	435.19
442.742	388.38
443.182	383.7
443.623	388.38
444.063	346.25
444.504	332.21
444.944	374.34
445.385	343.91
445.825	364.98
446.265	372
446.706	350.93
447.146	367.32
447.586	386.04
448.026	376.68
448.466	386.04
448.906	444.56
449.346	383.7
449.786	346.25
450.225	374.34
450.665	369.66
451.105	304.12
451.544	320.51
451.984	376.68
452.424	348.59
452.863	383.7
453.302	379.02
453.742	393.06
454.181	336.89
454.62	402.43
455.059	423.49
455.499	374.34
455.938	339.23
456.377	353.27
456.816	390.72
457.254	308.8
457.693	376.68
458.132	397.74
458.571	301.78
459.01	381.36
459.448	418.81
459.887	318.17
460.325	318.17
460.764	402.43
461.202	372
461.641	320.51
462.079	357.96
462.517	418.81
462.955	423.49
463.393	353.27
463.832	360.3
464.27	402.43
464.708	306.46
465.145	322.85
465.583	372
466.021	318.17
466.459	367.32
466.897	381.36
467.334	327.53
467.772	362.64
468.209	287.74
468.647	355.62
469.084	343.91
469.522	353.27
469.959	376.68
470.396	320.51
470.833	376.68
471.271	334.55
471.708	362.64
472.145	407.11
472.582	294.76
473.019	346.25
473.456	353.27
473.892	381.36
474.329	313.49
474.766	360.3
475.202	320.51
475.639	348.59
476.076	329.87
476.512	388.38
476.949	397.74
477.385	336.89
477.821	322.85
478.258	407.11
478.694	388.38
479.13	294.76
479.566	325.19
480.002	318.17
480.438	318.17
480.874	383.7
481.31	327.53
481.746	339.23
482.181	362.64
482.617	376.68
483.053	353.27
483.488	409.45
483.924	383.7
484.36	372
484.795	393.06
485.23	320.51
485.666	376.68
486.101	292.42
486.536	348.59
486.971	362.64
487.407	341.57
487.842	332.21
488.277	346.25
488.712	388.38
489.146	381.36
489.581	308.8
490.016	299.44
490.451	376.68
490.885	332.21
491.32	325.19
491.755	376.68
492.189	297.1
492.624	383.7
493.058	407.11
493.492	400.09
493.927	332.21
494.361	348.59
494.795	390.72
495.229	402.43
495.663	381.36
496.097	388.38
496.531	402.43
496.965	404.77
497.399	376.68
497.833	367.32
498.266	360.3
498.7	400.09
499.134	407.11
499.567	383.7
500.001	383.7
500.434	346.25
500.868	301.78
501.301	350.93
501.734	390.72
502.168	329.87
502.601	423.49
503.034	444.56
503.467	402.43
503.9	376.68
504.333	341.57
504.766	421.15
505.199	561.58
505.632	503.07
506.064	379.02
506.497	355.62
506.93	423.49
507.362	512.43
507.795	367.32
508.227	411.79
508.66	414.13
509.092	393.06
509.524	404.77
509.956	430.51
510.389	390.72
510.821	430.51
511.253	442.21
511.685	416.47
512.117	414.13
512.549	381.36
512.981	409.45
513.412	397.74
513.844	472.64
514.276	369.66
514.707	465.62
515.139	446.9
515.571	467.96
516.002	500.73
516.433	383.7
516.865	446.9
517.296	390.72
517.727	446.9
518.159	430.51
518.59	437.53
519.021	409.45
519.452	400.09
519.883	442.21
520.314	446.9
520.744	465.62
521.175	446.9
521.606	521.79
522.037	449.24
522.467	521.79
522.898	460.94
523.328	531.16
523.759	596.69
524.189	568.6
524.62	596.69
525.05	552.22
525.48	568.6
525.91	592.01
526.341	694.99
526.771	699.67
527.201	854.15
527.631	891.6
528.061	931.39
528.49	1099.91
528.92	1247.36
529.35	1610.14
529.78	3094.04
530.209	14431.6
530.639	23302.23
531.068	31433.25
531.498	59273.92
531.927	63044.52
532.357	63044.52
532.786	63044.52
533.215	63044.52
533.644	63044.52
534.074	30000.84
534.503	8063
534.932	3974.08
535.361	2387.2
535.79	1701.42
536.218	1493.12
536.647	1259.06
537.076	1043.73
537.505	877.55
537.933	788.61
538.362	716.06
538.79	570.94
539.219	603.71
539.647	563.92
540.076	519.45
540.504	472.64
540.932	423.49
541.36	411.79
541.788	542.86
542.217	425.83
542.645	435.19
543.073	388.38
543.5	414.13
543.928	460.94
544.356	486.69
544.784	411.79
545.211	486.69
545.639	435.19
546.067	411.79
546.494	418.81
546.922	400.09
547.349	386.04
547.776	350.93
548.204	357.96
548.631	470.3
549.058	386.04
549.485	383.7
549.912	397.74
550.339	425.83
550.766	430.51
551.193	402.43
551.62	376.68
552.047	430.51
552.474	402.43
552.9	395.4
553.327	395.4
553.754	355.62
554.18	362.64
554.607	372
555.033	402.43
555.459	379.02
555.886	414.13
556.312	353.27
556.738	400.09
557.164	381.36
557.59	318.17
558.016	350.93
558.442	404.77
558.868	390.72
559.294	348.59
559.72	357.96
560.145	407.11
560.571	336.89
560.997	357.96
561.422	322.85
561.848	360.3
562.273	397.74
562.699	372
563.124	350.93
563.549	383.7
563.974	318.17
564.4	322.85
564.825	353.27
565.25	290.08
565.675	367.32
566.1	409.45
566.525	364.98
566.95	386.04
567.374	343.91
567.799	336.89
568.224	329.87
568.648	386.04
569.073	388.38
569.497	315.83
569.922	334.55
570.346	350.93
570.771	407.11
571.195	308.8
571.619	386.04
572.043	334.55
572.467	360.3
572.891	374.34
573.315	348.59
573.739	360.3
574.163	376.68
574.587	397.74
575.011	376.68
575.435	313.49
575.858	322.85
576.282	341.57
576.705	322.85
577.129	350.93
577.552	360.3
577.976	308.8
578.399	327.53
578.822	336.89
579.245	327.53
579.669	350.93
580.092	306.46
580.515	357.96
580.938	386.04
581.361	325.19
581.784	383.7
582.206	390.72
582.629	411.79
583.052	350.93
583.474	362.64
583.897	348.59
584.32	348.59
584.742	339.23
585.165	397.74
585.587	301.78
586.009	313.49
586.431	332.21
586.854	313.49
587.276	252.63
587.698	336.89
588.12	327.53
588.542	416.47
588.964	299.44
589.386	311.14
589.807	306.46
590.229	320.51
590.651	369.66
591.073	353.27
591.494	308.8
591.916	395.4
592.337	318.17
592.759	407.11
593.18	315.83
593.601	311.14
594.022	336.89
594.444	292.42
594.865	341.57
595.286	320.51
595.707	276.04
596.128	320.51
596.549	336.89
596.97	327.53
597.39	355.62
597.811	280.72
598.232	322.85
598.652	306.46
599.073	390.72
599.494	353.27
599.914	320.51
600.334	388.38
600.755	343.91
601.175	329.87
601.595	339.23
602.015	355.62
602.436	355.62
602.856	474.98
603.276	364.98
603.696	327.53
604.115	329.87
604.535	287.74
604.955	367.32
605.375	367.32
605.794	325.19
606.214	299.44
606.634	306.46
607.053	276.04
607.473	374.34
607.892	339.23
608.311	404.77
608.731	362.64
609.15	318.17
609.569	353.27
609.988	332.21
610.407	313.49
610.826	301.78
611.245	376.68
611.664	390.72
612.083	346.25
612.501	294.76
612.92	360.3
613.339	308.8
613.757	395.4
614.176	325.19
614.594	388.38
615.013	350.93
615.431	315.83
615.85	327.53
616.268	306.46
616.686	332.21
617.104	336.89
617.522	376.68
617.94	292.42
618.358	278.38
618.776	327.53
619.194	325.19
619.612	308.8
620.03	318.17
620.447	348.59
620.865	353.27
621.282	297.1
621.7	348.59
622.117	372
622.535	322.85
622.952	283.06
623.369	334.55
623.787	327.53
624.204	357.96
624.621	294.76
625.038	327.53
625.455	325.19
625.872	362.64
626.289	294.76
626.706	355.62
627.123	292.42
627.539	311.14
627.956	353.27
628.373	336.89
628.789	311.14
629.206	341.57
629.622	327.53
630.038	311.14
630.455	264.33
630.871	360.3
631.287	266.67
631.703	297.1
632.12	304.12
632.536	294.76
632.952	318.17
633.368	360.3
633.783	315.83
634.199	350.93
634.615	336.89
635.031	334.55
635.446	327.53
635.862	245.61
636.277	336.89
636.693	320.51
637.108	320.51
637.524	334.55
637.939	341.57
638.354	287.74
638.77	360.3
639.185	360.3
639.6	357.96
640.015	318.17
640.43	311.14
640.845	318.17
641.259	332.21
641.674	341.57
642.089	339.23
642.504	350.93
642.918	334.55
643.333	290.08
643.747	308.8
644.162	341.57
644.576	364.98
644.991	353.27
645.405	348.59
645.819	334.55
646.233	276.04
646.647	348.59
647.061	292.42
647.475	280.72
647.889	334.55
648.303	313.49
648.717	215.18
649.131	327.53
649.545	348.59
649.958	334.55
650.372	374.34
650.785	311.14
651.199	343.91
651.612	304.12
652.026	297.1
652.439	297.1
652.852	355.62
653.266	315.83
653.679	304.12
654.092	386.04
654.505	357.96
654.918	311.14
655.331	343.91
655.744	285.4
656.156	290.08
656.569	318.17
656.982	336.89
657.394	311.14
657.807	266.67
658.22	329.87
658.632	311.14
659.044	329.87
659.457	425.83
659.869	247.95
660.281	313.49
660.693	364.98
661.106	280.72
661.518	341.57
661.93	327.53
662.342	276.04
662.754	315.83
663.165	250.29
663.577	336.89
663.989	311.14
664.401	271.36
664.812	301.78
665.224	306.46
665.635	311.14
666.047	299.44
666.458	343.91
666.869	308.8
667.281	343.91
667.692	276.04
668.103	386.04
668.514	245.61
668.925	329.87
669.336	264.33
669.747	336.89
670.158	336.89
670.569	294.76
670.979	360.3
671.39	364.98
671.801	353.27
672.211	292.42
672.622	355.62
673.032	336.89
673.443	273.7
673.853	287.74
674.263	355.62
674.674	278.38
675.084	269.02
675.494	397.74
675.904	287.74
676.314	339.23
676.724	343.91
677.134	269.02
677.544	261.99
677.953	329.87
678.363	332.21
678.773	353.27
679.182	297.1
679.592	320.51
680.001	243.27
680.411	313.49
680.82	315.83
681.23	292.42
681.639	369.66
682.048	273.7
682.457	360.3
682.866	329.87
683.275	304.12
683.684	299.44
684.093	285.4
684.502	346.25
684.911	350.93
685.32	346.25
685.728	325.19
686.137	397.74
686.546	362.64
686.954	280.72
687.363	343.91
687.771	376.68
688.179	299.44
688.588	273.7
688.996	348.59
689.404	240.93
689.812	346.25
690.22	297.1
690.628	313.49
691.036	308.8
691.444	339.23
691.852	283.06
692.26	311.14
692.667	308.8
693.075	348.59
693.483	355.62
693.89	280.72
694.298	290.08
694.705	376.68
695.112	304.12
695.52	329.87
695.927	348.59
696.334	334.55
696.741	290.08
697.148	322.85
697.555	318.17
697.962	350.93
698.369	320.51
698.776	343.91
699.183	318.17
699.59	343.91
699.996	332.21
700.403	224.55
700.81	283.06
701.216	297.1
701.623	297.1
702.029	285.4
702.435	306.46
702.842	304.12
703.248	306.46
703.654	315.83
704.06	336.89
704.466	315.83
704.872	322.85
705.278	287.74
705.684	325.19
706.09	292.42
706.496	404.77
706.901	355.62
707.307	320.51
707.712	311.14
708.118	355.62
708.523	355.62
708.929	325.19
709.334	332.21
709.74	346.25
710.145	287.74
710.55	348.59
710.955	236.25
711.36	322.85
711.765	381.36
712.17	334.55
712.575	322.85
712.98	795.64
713.385	322.85
713.789	297.1
714.194	348.59
714.599	341.57
715.003	320.51
715.408	271.36
715.812	245.61
716.217	257.31
716.621	313.49
717.025	360.3
717.429	278.38
717.833	290.08
718.238	374.34
718.642	379.02
719.046	341.57
719.449	301.78
719.853	315.83
720.257	334.55
720.661	318.17
721.065	318.17
721.468	294.76
721.872	320.51
722.275	325.19
722.679	269.02
723.082	353.27
723.485	294.76
723.889	327.53
724.292	325.19
724.695	254.97
725.098	301.78
725.501	327.53
725.904	320.51
726.307	325.19
726.71	261.99
727.113	252.63
727.516	259.65
727.918	308.8
728.321	372
728.724	334.55
729.126	306.46
729.529	334.55
729.931	245.61
730.333	306.46
730.736	306.46
731.138	292.42
731.54	362.64
731.942	243.27
732.344	325.19
732.746	339.23
733.148	304.12
733.55	348.59
733.952	353.27
734.354	329.87
734.756	285.4
735.157	252.63
735.559	294.76
735.96	343.91
736.362	350.93
736.763	332.21
737.165	329.87
737.566	313.49
737.967	283.06
738.368	294.76
738.77	243.27
739.171	322.85
739.572	341.57
739.973	285.4
740.374	304.12
740.774	329.87
741.175	336.89
741.576	318.17
741.977	318.17
742.377	280.72
742.778	318.17
743.178	254.97
743.579	320.51
743.979	292.42
744.379	301.78
744.78	353.27
745.18	374.34
745.58	294.76
745.98	290.08
746.38	313.49
746.78	311.14
747.18	292.42
747.58	271.36
747.98	245.61
748.38	350.93
748.779	261.99
749.179	332.21
749.578	348.59
749.978	299.44
750.377	261.99
750.777	287.74
751.176	257.31
751.575	322.85
751.975	325.19
752.374	278.38
752.773	381.36
753.172	313.49
753.571	355.62
753.97	353.27
754.369	357.96
754.768	339.23
755.166	364.98
755.565	301.78
755.964	306.46
756.362	290.08
756.761	276.04
757.159	283.06
757.558	276.04
757.956	301.78
758.354	329.87
758.753	360.3
759.151	299.44
759.549	280.72
759.947	299.44
760.345	318.17
760.743	313.49
761.141	297.1
761.539	353.27
761.936	362.64
762.334	357.96
762.732	276.04
763.129	273.7
763.527	362.64
763.924	367.32
764.322	285.4
764.719	355.62
765.117	294.76
