Data from Al_FLMS009871__593__14-46-41-016.txt Node

Date: Fri Mar 08 14:46:41 CST 2024
User: pe5414po
Spectrometer: FLMS00987
Trigger mode: 0
Integration Time (sec): 1.000000E-1
Scans to average: 1
Electric dark correction enabled: true
Nonlinearity correction enabled: false
Boxcar width: 0
XAxis mode: Wavelengths
Number of Pixels in Spectrum: 2048
>>>>>Begin Spectral Data<<<<<
188.938	-55.73
189.409	-55.73
189.879	-55.73
190.349	-81.48
190.819	-48.71
191.29	-135.31
191.76	-60.42
192.23	-121.27
192.7	-76.8
193.17	-55.73
193.64	-34.67
194.109	-58.07
194.579	19.16
195.049	61.29
195.519	-8.92
195.988	7.46
196.458	94.06
196.927	75.34
197.397	129.17
197.866	94.06
198.336	70.65
198.805	220.45
199.274	140.87
199.744	145.55
200.213	201.72
200.682	236.83
201.151	250.88
201.62	211.09
202.089	260.24
202.558	222.79
203.027	302.37
203.495	360.88
203.964	246.2
204.433	374.92
204.902	328.11
205.37	232.15
205.839	307.05
206.307	363.22
206.776	276.62
207.244	309.39
207.712	346.84
208.181	243.85
208.649	351.52
209.117	367.9
209.585	365.56
210.053	281.3
210.521	262.58
210.989	236.83
211.457	246.2
211.925	318.75
212.393	370.24
212.861	300.03
213.328	316.41
213.796	227.47
214.264	332.79
214.731	311.73
215.199	332.79
215.666	276.62
216.133	250.88
216.601	260.24
217.068	349.18
217.535	269.6
218.003	307.05
218.47	360.88
218.937	332.79
219.404	330.45
219.871	290.67
220.338	276.62
220.805	255.56
221.271	293.01
221.738	339.82
222.205	281.3
222.671	344.5
223.138	293.01
223.605	288.32
224.071	250.88
224.538	248.54
225.004	257.9
225.47	241.51
225.937	328.11
226.403	295.35
226.869	264.92
227.335	241.51
227.801	271.94
228.267	290.67
228.733	288.32
229.199	349.18
229.665	351.52
230.131	314.07
230.597	262.58
231.062	290.67
231.528	330.45
231.994	353.86
232.459	246.2
232.925	295.35
233.39	346.84
233.856	288.32
234.321	290.67
234.786	250.88
235.252	293.01
235.717	318.75
236.182	314.07
236.647	290.67
237.112	314.07
237.577	353.86
238.042	323.43
238.507	302.37
238.972	309.39
239.436	283.64
239.901	267.26
240.366	302.37
240.83	283.64
241.295	295.35
241.76	297.69
242.224	278.96
242.688	283.64
243.153	335.14
243.617	269.6
244.081	314.07
244.545	332.79
245.01	325.77
245.474	323.43
245.938	300.03
246.402	321.09
246.866	274.28
247.33	267.26
247.793	274.28
248.257	314.07
248.721	353.86
249.185	241.51
249.648	260.24
250.112	288.32
250.575	274.28
251.039	290.67
251.502	309.39
251.965	257.9
252.429	332.79
252.892	325.77
253.355	253.22
253.818	243.85
254.281	278.96
254.744	358.54
255.207	290.67
255.67	328.11
256.133	332.79
256.596	304.71
257.059	278.96
257.522	285.98
257.984	300.03
258.447	269.6
258.909	302.37
259.372	304.71
259.834	293.01
260.297	281.3
260.759	276.62
261.221	316.41
261.684	363.22
262.146	316.41
262.608	360.88
263.07	260.24
263.532	285.98
263.994	276.62
264.456	290.67
264.918	283.64
265.38	328.11
265.842	344.5
266.303	307.05
266.765	370.24
267.227	260.24
267.688	300.03
268.15	267.26
268.611	328.11
269.072	307.05
269.534	295.35
269.995	304.71
270.456	339.82
270.918	300.03
271.379	360.88
271.84	325.77
272.301	293.01
272.762	293.01
273.223	328.11
273.684	293.01
274.144	374.92
274.605	241.51
275.066	325.77
275.527	267.26
275.987	316.41
276.448	351.52
276.908	267.26
277.369	337.48
277.829	278.96
278.289	281.3
278.75	278.96
279.21	363.22
279.67	328.11
280.13	407.69
280.59	267.26
281.05	314.07
281.51	346.84
281.97	314.07
282.43	264.92
282.89	260.24
283.35	278.96
283.809	300.03
284.269	424.08
284.729	325.77
285.188	239.17
285.648	295.35
286.107	281.3
286.567	255.56
287.026	309.39
287.485	363.22
287.944	358.54
288.404	285.98
288.863	288.32
289.322	365.56
289.781	337.48
290.24	311.73
290.699	330.45
291.158	304.71
291.616	332.79
292.075	281.3
292.534	372.58
292.992	316.41
293.451	302.37
293.91	264.92
294.368	370.24
294.827	337.48
295.285	248.54
295.743	335.14
296.202	307.05
296.66	372.58
297.118	332.79
297.576	335.14
298.034	318.75
298.492	379.61
298.95	271.94
299.408	321.09
299.866	342.16
300.324	360.88
300.781	283.64
301.239	323.43
301.697	278.96
302.154	302.37
302.612	386.63
303.069	311.73
303.527	339.82
303.984	342.16
304.441	377.27
304.899	339.82
305.356	381.95
305.813	311.73
306.27	335.14
306.727	321.09
307.184	358.54
307.641	328.11
308.098	372.58
308.555	271.94
309.012	363.22
309.468	293.01
309.925	365.56
310.382	370.24
310.838	346.84
311.295	318.75
311.751	367.9
312.208	281.3
312.664	325.77
313.12	370.24
313.577	318.75
314.033	335.14
314.489	384.29
314.945	356.2
315.401	302.37
315.857	337.48
316.313	314.07
316.769	295.35
317.225	365.56
317.681	316.41
318.136	295.35
318.592	311.73
319.048	344.5
319.503	314.07
319.959	337.48
320.414	330.45
320.869	321.09
321.325	281.3
321.78	325.77
322.235	300.03
322.691	297.69
323.146	335.14
323.601	290.67
324.056	328.11
324.511	332.79
324.966	346.84
325.421	304.71
325.875	328.11
326.33	351.52
326.785	372.58
327.24	281.3
327.694	311.73
328.149	309.39
328.603	358.54
329.058	374.92
329.512	318.75
329.966	255.56
330.421	360.88
330.875	288.32
331.329	356.2
331.783	332.79
332.237	283.64
332.691	288.32
333.145	290.67
333.599	328.11
334.053	260.24
334.507	302.37
334.96	346.84
335.414	276.62
335.868	370.24
336.321	342.16
336.775	367.9
337.228	346.84
337.682	410.03
338.135	316.41
338.588	293.01
339.042	349.18
339.495	374.92
339.948	337.48
340.401	314.07
340.854	316.41
341.307	311.73
341.76	337.48
342.213	342.16
342.666	335.14
343.119	276.62
343.571	311.73
344.024	337.48
344.477	405.35
344.929	328.11
345.382	358.54
345.834	363.22
346.287	426.42
346.739	353.86
347.191	388.97
347.644	293.01
348.096	304.71
348.548	293.01
349	370.24
349.452	344.5
349.904	321.09
350.356	297.69
350.808	335.14
351.26	246.2
351.711	314.07
352.163	330.45
352.615	332.79
353.066	314.07
353.518	344.5
353.969	325.77
354.421	297.69
354.872	339.82
355.324	321.09
355.775	295.35
356.226	295.35
356.677	314.07
357.128	349.18
357.579	325.77
358.03	330.45
358.481	325.77
358.932	307.05
359.383	349.18
359.834	365.56
360.285	330.45
360.735	290.67
361.186	271.94
361.637	293.01
362.087	276.62
362.538	325.77
362.988	290.67
363.438	332.79
363.889	321.09
364.339	367.9
364.789	332.79
365.239	332.79
365.689	330.45
366.139	381.95
366.589	335.14
367.039	353.86
367.489	386.63
367.939	400.67
368.389	351.52
368.839	300.03
369.288	281.3
369.738	307.05
370.187	342.16
370.637	339.82
371.086	337.48
371.536	290.67
371.985	332.79
372.434	269.6
372.884	330.45
373.333	300.03
373.782	295.35
374.231	321.09
374.68	300.03
375.129	297.69
375.578	356.2
376.027	274.28
376.475	330.45
376.924	342.16
377.373	332.79
377.822	337.48
378.27	321.09
378.719	311.73
379.167	363.22
379.616	321.09
380.064	351.52
380.512	321.09
380.961	344.5
381.409	248.54
381.857	307.05
382.305	288.32
382.753	302.37
383.201	426.42
383.649	293.01
384.097	281.3
384.545	346.84
384.992	358.54
385.44	424.08
385.888	321.09
386.335	351.52
386.783	304.71
387.231	307.05
387.678	339.82
388.125	335.14
388.573	335.14
389.02	316.41
389.467	300.03
389.914	381.95
390.362	323.43
390.809	379.61
391.256	337.48
391.703	370.24
392.15	328.11
392.596	344.5
393.043	367.9
393.49	342.16
393.937	330.45
394.383	323.43
394.83	365.56
395.276	339.82
395.723	293.01
396.169	344.5
396.616	307.05
397.062	323.43
397.508	307.05
397.954	358.54
398.401	309.39
398.847	323.43
399.293	372.58
399.739	346.84
400.185	367.9
400.631	323.43
401.076	325.77
401.522	374.92
401.968	417.05
402.414	335.14
402.859	335.14
403.305	304.71
403.75	351.52
404.196	325.77
404.641	370.24
405.086	309.39
405.532	344.5
405.977	335.14
406.422	314.07
406.867	316.41
407.312	356.2
407.757	407.69
408.202	295.35
408.647	293.01
409.092	332.79
409.537	365.56
409.982	335.14
410.426	321.09
410.871	307.05
411.316	339.82
411.76	318.75
412.205	393.65
412.649	325.77
413.093	328.11
413.538	330.45
413.982	328.11
414.426	403.01
414.87	295.35
415.314	328.11
415.758	321.09
416.202	332.79
416.646	346.84
417.09	316.41
417.534	271.94
417.978	377.27
418.421	264.92
418.865	309.39
419.309	351.52
419.752	314.07
420.196	307.05
420.639	316.41
421.083	407.69
421.526	339.82
421.969	316.41
422.412	323.43
422.856	403.01
423.299	311.73
423.742	344.5
424.185	337.48
424.628	307.05
425.071	421.74
425.513	358.54
425.956	337.48
426.399	328.11
426.842	332.79
427.284	276.62
427.727	264.92
428.169	351.52
428.612	318.75
429.054	353.86
429.497	307.05
429.939	316.41
430.381	283.64
430.823	328.11
431.265	360.88
431.707	309.39
432.149	337.48
432.591	321.09
433.033	351.52
433.475	264.92
433.917	346.84
434.359	332.79
434.8	344.5
435.242	377.27
435.684	307.05
436.125	309.39
436.567	316.41
437.008	360.88
437.449	367.9
437.891	337.48
438.332	342.16
438.773	304.71
439.214	367.9
439.656	288.32
440.097	323.43
440.538	316.41
440.978	274.28
441.419	358.54
441.86	356.2
442.301	335.14
442.742	276.62
443.182	395.99
443.623	377.27
444.063	309.39
444.504	332.79
444.944	321.09
445.385	377.27
445.825	335.14
446.265	332.79
446.706	302.37
447.146	367.9
447.586	363.22
448.026	374.92
448.466	297.69
448.906	377.27
449.346	339.82
449.786	337.48
450.225	370.24
450.665	379.61
451.105	325.77
451.544	325.77
451.984	332.79
452.424	344.5
452.863	311.73
453.302	276.62
453.742	351.52
454.181	353.86
454.62	309.39
455.059	339.82
455.499	302.37
455.938	307.05
456.377	374.92
456.816	323.43
457.254	311.73
457.693	377.27
458.132	360.88
458.571	379.61
459.01	386.63
459.448	307.05
459.887	344.5
460.325	325.77
460.764	278.96
461.202	358.54
461.641	346.84
462.079	328.11
462.517	370.24
462.955	318.75
463.393	358.54
463.832	295.35
464.27	295.35
464.708	353.86
465.145	370.24
465.583	344.5
466.021	358.54
466.459	353.86
466.897	276.62
467.334	330.45
467.772	346.84
468.209	316.41
468.647	337.48
469.084	311.73
469.522	330.45
469.959	379.61
470.396	356.2
470.833	295.35
471.271	307.05
471.708	316.41
472.145	410.03
472.582	309.39
473.019	358.54
473.456	374.92
473.892	351.52
474.329	351.52
474.766	374.92
475.202	311.73
475.639	332.79
476.076	311.73
476.512	349.18
476.949	337.48
477.385	381.95
477.821	330.45
478.258	311.73
478.694	330.45
479.13	351.52
479.566	360.88
480.002	386.63
480.438	363.22
480.874	424.08
481.31	335.14
481.746	321.09
482.181	400.67
482.617	285.98
483.053	335.14
483.488	360.88
483.924	381.95
484.36	356.2
484.795	335.14
485.23	328.11
485.666	367.9
486.101	356.2
486.536	267.26
486.971	351.52
487.407	346.84
487.842	311.73
488.277	351.52
488.712	344.5
489.146	316.41
489.581	356.2
490.016	293.01
490.451	232.15
490.885	332.79
491.32	314.07
491.755	323.43
492.189	339.82
492.624	323.43
493.058	321.09
493.492	302.37
493.927	288.32
494.361	321.09
494.795	381.95
495.229	302.37
495.663	335.14
496.097	304.71
496.531	335.14
496.965	337.48
497.399	316.41
497.833	225.13
498.266	316.41
498.7	379.61
499.134	370.24
499.567	426.42
500.001	346.84
500.434	314.07
500.868	363.22
501.301	405.35
501.734	335.14
502.168	328.11
502.601	344.5
503.034	318.75
503.467	349.18
503.9	318.75
504.333	417.05
504.766	314.07
505.199	426.42
505.632	330.45
506.064	342.16
506.497	372.58
506.93	377.27
507.362	372.58
507.795	363.22
508.227	367.9
508.66	388.97
509.092	377.27
509.524	304.71
509.956	393.65
510.389	283.64
510.821	339.82
511.253	311.73
511.685	372.58
512.117	332.79
512.549	363.22
512.981	302.37
513.412	344.5
513.844	332.79
514.276	307.05
514.707	379.61
515.139	391.31
515.571	365.56
516.002	311.73
516.433	431.1
516.865	358.54
517.296	328.11
517.727	271.94
518.159	330.45
518.59	332.79
519.021	372.58
519.452	323.43
519.883	356.2
520.314	335.14
520.744	302.37
521.175	360.88
521.606	353.86
522.037	342.16
522.467	304.71
522.898	321.09
523.328	274.28
523.759	370.24
524.189	358.54
524.62	293.01
525.05	260.24
525.48	325.77
525.91	316.41
526.341	377.27
526.771	302.37
527.201	262.58
527.631	346.84
528.061	351.52
528.49	344.5
528.92	316.41
529.35	370.24
529.78	281.3
530.209	288.32
530.639	360.88
531.068	374.92
531.498	353.86
531.927	346.84
532.357	370.24
532.786	363.22
533.215	300.03
533.644	412.37
534.074	309.39
534.503	377.27
534.932	351.52
535.361	323.43
535.79	332.79
536.218	285.98
536.647	381.95
537.076	358.54
537.505	307.05
537.933	307.05
538.362	372.58
538.79	346.84
539.219	344.5
539.647	365.56
540.076	356.2
540.504	337.48
540.932	346.84
541.36	342.16
541.788	304.71
542.217	374.92
542.645	384.29
543.073	342.16
543.5	288.32
543.928	321.09
544.356	276.62
544.784	323.43
545.211	363.22
545.639	290.67
546.067	367.9
546.494	316.41
546.922	311.73
547.349	356.2
547.776	351.52
548.204	307.05
548.631	300.03
549.058	288.32
549.485	356.2
549.912	325.77
550.339	328.11
550.766	323.43
551.193	332.79
551.62	384.29
552.047	370.24
552.474	281.3
552.9	372.58
553.327	302.37
553.754	384.29
554.18	367.9
554.607	314.07
555.033	295.35
555.459	297.69
555.886	271.94
556.312	339.82
556.738	367.9
557.164	367.9
557.59	388.97
558.016	346.84
558.442	330.45
558.868	381.95
559.294	372.58
559.72	307.05
560.145	360.88
560.571	358.54
560.997	374.92
561.422	374.92
561.848	304.71
562.273	316.41
562.699	381.95
563.124	328.11
563.549	407.69
563.974	363.22
564.4	285.98
564.825	304.71
565.25	332.79
565.675	344.5
566.1	323.43
566.525	367.9
566.95	353.86
567.374	302.37
567.799	337.48
568.224	349.18
568.648	381.95
569.073	304.71
569.497	311.73
569.922	417.05
570.346	307.05
570.771	332.79
571.195	307.05
571.619	410.03
572.043	344.5
572.467	304.71
572.891	358.54
573.315	318.75
573.739	295.35
574.163	365.56
574.587	358.54
575.011	358.54
575.435	337.48
575.858	363.22
576.282	318.75
576.705	344.5
577.129	330.45
577.552	351.52
577.976	304.71
578.399	351.52
578.822	393.65
579.245	367.9
579.669	405.35
580.092	307.05
580.515	367.9
580.938	328.11
581.361	274.28
581.784	349.18
582.206	285.98
582.629	307.05
583.052	309.39
583.474	321.09
583.897	349.18
584.32	325.77
584.742	337.48
585.165	379.61
585.587	311.73
586.009	353.86
586.431	285.98
586.854	323.43
587.276	339.82
587.698	353.86
588.12	342.16
588.542	353.86
588.964	344.5
589.386	335.14
589.807	318.75
590.229	358.54
590.651	351.52
591.073	271.94
591.494	351.52
591.916	351.52
592.337	405.35
592.759	353.86
593.18	388.97
593.601	372.58
594.022	349.18
594.444	288.32
594.865	351.52
595.286	297.69
595.707	328.11
596.128	335.14
596.549	407.69
596.97	293.01
597.39	300.03
597.811	379.61
598.232	365.56
598.652	358.54
599.073	400.67
599.494	407.69
599.914	358.54
600.334	346.84
600.755	297.69
601.175	356.2
601.595	311.73
602.015	311.73
602.436	300.03
602.856	388.97
603.276	370.24
603.696	321.09
604.115	321.09
604.535	351.52
604.955	363.22
605.375	386.63
605.794	358.54
606.214	367.9
606.634	335.14
607.053	356.2
607.473	367.9
607.892	349.18
608.311	330.45
608.731	304.71
609.15	318.75
609.569	316.41
609.988	349.18
610.407	339.82
610.826	311.73
611.245	426.42
611.664	356.2
612.083	372.58
612.501	391.31
612.92	311.73
613.339	335.14
613.757	318.75
614.176	304.71
614.594	290.67
615.013	372.58
615.431	342.16
615.85	285.98
616.268	339.82
616.686	346.84
617.104	360.88
617.522	395.99
617.94	260.24
618.358	339.82
618.776	379.61
619.194	344.5
619.612	330.45
620.03	314.07
620.447	325.77
620.865	414.71
621.282	370.24
621.7	358.54
622.117	377.27
622.535	337.48
622.952	335.14
623.369	363.22
623.787	325.77
624.204	335.14
624.621	365.56
625.038	332.79
625.455	379.61
625.872	351.52
626.289	309.39
626.706	328.11
627.123	335.14
627.539	316.41
627.956	307.05
628.373	309.39
628.789	300.03
629.206	346.84
629.622	300.03
630.038	281.3
630.455	337.48
630.871	379.61
631.287	356.2
631.703	295.35
632.12	285.98
632.536	360.88
632.952	316.41
633.368	309.39
633.783	316.41
634.199	367.9
634.615	358.54
635.031	323.43
635.446	342.16
635.862	295.35
636.277	395.99
636.693	363.22
637.108	438.12
637.524	419.39
637.939	278.96
638.354	353.86
638.77	309.39
639.185	346.84
639.6	384.29
640.015	342.16
640.43	337.48
640.845	379.61
641.259	346.84
641.674	398.33
642.089	302.37
642.504	379.61
642.918	302.37
643.333	314.07
643.747	349.18
644.162	386.63
644.576	353.86
644.991	381.95
645.405	325.77
645.819	358.54
646.233	330.45
646.647	342.16
647.061	374.92
647.475	384.29
647.889	316.41
648.303	353.86
648.717	297.69
649.131	332.79
649.545	374.92
649.958	360.88
650.372	360.88
650.785	295.35
651.199	307.05
651.612	314.07
652.026	391.31
652.439	316.41
652.852	344.5
653.266	337.48
653.679	293.01
654.092	360.88
654.505	360.88
654.918	379.61
655.331	332.79
655.744	405.35
656.156	330.45
656.569	321.09
656.982	358.54
657.394	307.05
657.807	316.41
658.22	367.9
658.632	325.77
659.044	377.27
659.457	374.92
659.869	295.35
660.281	264.92
660.693	318.75
661.106	311.73
661.518	300.03
661.93	377.27
662.342	419.39
662.754	360.88
663.165	358.54
663.577	388.97
663.989	335.14
664.401	290.67
664.812	241.51
665.224	325.77
665.635	297.69
666.047	281.3
666.458	267.26
666.869	351.52
667.281	328.11
667.692	356.2
668.103	314.07
668.514	339.82
668.925	311.73
669.336	318.75
669.747	300.03
670.158	335.14
670.569	367.9
670.979	339.82
671.39	332.79
671.801	248.54
672.211	309.39
672.622	358.54
673.032	321.09
673.443	395.99
673.853	358.54
674.263	300.03
674.674	335.14
675.084	269.6
675.494	311.73
675.904	293.01
676.314	318.75
676.724	323.43
677.134	328.11
677.544	358.54
677.953	330.45
678.363	351.52
678.773	358.54
679.182	351.52
679.592	321.09
680.001	377.27
680.411	349.18
680.82	307.05
681.23	349.18
681.639	335.14
682.048	372.58
682.457	339.82
682.866	309.39
683.275	302.37
683.684	342.16
684.093	342.16
684.502	386.63
684.911	407.69
685.32	297.69
685.728	372.58
686.137	311.73
686.546	358.54
686.954	316.41
687.363	332.79
687.771	328.11
688.179	316.41
688.588	372.58
688.996	412.37
689.404	372.58
689.812	351.52
690.22	328.11
690.628	342.16
691.036	346.84
691.444	318.75
691.852	363.22
692.26	332.79
692.667	316.41
693.075	295.35
693.483	403.01
693.89	309.39
694.298	321.09
694.705	332.79
695.112	344.5
695.52	370.24
695.927	300.03
696.334	391.31
696.741	358.54
697.148	281.3
697.555	367.9
697.962	346.84
698.369	318.75
698.776	386.63
699.183	365.56
699.59	349.18
699.996	360.88
700.403	300.03
700.81	339.82
701.216	417.05
701.623	363.22
702.029	339.82
702.435	332.79
702.842	288.32
703.248	241.51
703.654	370.24
704.06	353.86
704.466	363.22
704.872	323.43
705.278	318.75
705.684	307.05
706.09	318.75
706.496	239.17
706.901	349.18
707.307	318.75
707.712	300.03
708.118	337.48
708.523	386.63
708.929	344.5
709.334	290.67
709.74	309.39
710.145	328.11
710.55	353.86
710.955	346.84
711.36	346.84
711.765	337.48
712.17	342.16
712.575	356.2
712.98	758.77
713.385	328.11
713.789	290.67
714.194	391.31
714.599	328.11
715.003	304.71
715.408	295.35
715.812	351.52
716.217	337.48
716.621	360.88
717.025	358.54
717.429	330.45
717.833	250.88
718.238	346.84
718.642	339.82
719.046	372.58
719.449	363.22
719.853	309.39
720.257	290.67
720.661	288.32
721.065	360.88
721.468	384.29
721.872	403.01
722.275	295.35
722.679	271.94
723.082	316.41
723.485	346.84
723.889	351.52
724.292	339.82
724.695	342.16
725.098	332.79
725.501	403.01
725.904	372.58
726.307	395.99
726.71	377.27
727.113	293.01
727.516	365.56
727.918	356.2
728.321	344.5
728.724	358.54
729.126	297.69
729.529	365.56
729.931	360.88
730.333	356.2
730.736	353.86
731.138	300.03
731.54	318.75
731.942	344.5
732.344	314.07
732.746	370.24
733.148	314.07
733.55	332.79
733.952	403.01
734.354	311.73
734.756	339.82
735.157	288.32
735.559	358.54
735.96	379.61
736.362	349.18
736.763	339.82
737.165	314.07
737.566	339.82
737.967	335.14
738.368	353.86
738.77	307.05
739.171	316.41
739.572	307.05
739.973	360.88
740.374	384.29
740.774	309.39
741.175	304.71
741.576	360.88
741.977	321.09
742.377	328.11
742.778	314.07
743.178	381.95
743.579	297.69
743.979	419.39
744.379	271.94
744.78	307.05
745.18	295.35
745.58	337.48
745.98	318.75
746.38	328.11
746.78	398.33
747.18	330.45
747.58	314.07
747.98	374.92
748.38	356.2
748.779	321.09
749.179	316.41
749.578	335.14
749.978	318.75
750.377	314.07
750.777	367.9
751.176	342.16
751.575	337.48
751.975	351.52
752.374	250.88
752.773	321.09
753.172	288.32
753.571	384.29
753.97	293.01
754.369	309.39
754.768	307.05
755.166	295.35
755.565	304.71
755.964	433.44
756.362	351.52
756.761	314.07
757.159	321.09
757.558	288.32
757.956	307.05
758.354	381.95
758.753	358.54
759.151	321.09
759.549	332.79
759.947	351.52
760.345	314.07
760.743	307.05
761.141	330.45
761.539	339.82
761.936	311.73
762.334	316.41
762.732	374.92
763.129	307.05
763.527	316.41
763.924	325.77
764.322	379.61
