Data from Al_FLMS009871__590__14-46-40-716.txt Node

Date: Fri Mar 08 14:46:40 CST 2024
User: pe5414po
Spectrometer: FLMS00987
Trigger mode: 0
Integration Time (sec): 1.000000E-1
Scans to average: 1
Electric dark correction enabled: true
Nonlinearity correction enabled: false
Boxcar width: 0
XAxis mode: Wavelengths
Number of Pixels in Spectrum: 2048
>>>>>Begin Spectral Data<<<<<
188.938	-125.51
189.409	-125.51
189.879	-125.51
190.349	-141.89
190.819	-116.15
191.29	-99.77
191.76	-99.77
192.23	-67
192.7	-62.32
193.17	-10.82
193.64	-69.34
194.109	-55.3
194.579	-1.46
195.049	-13.17
195.519	31.3
195.988	21.94
196.458	47.69
196.927	54.71
197.397	106.2
197.866	85.14
198.336	131.95
198.805	150.67
199.274	199.82
199.744	174.08
200.213	253.66
200.682	277.06
201.151	258.34
201.62	281.74
202.089	293.44
202.558	342.6
203.027	298.13
203.495	321.53
203.964	314.51
204.433	333.23
204.902	335.57
205.37	354.3
205.839	380.04
206.307	340.26
206.776	368.34
207.244	377.7
207.712	391.75
208.181	335.57
208.649	384.73
209.117	483.03
209.585	398.77
210.053	499.41
210.521	391.75
210.989	506.43
211.457	607.08
211.925	644.53
212.393	656.23
212.861	653.89
213.328	656.23
213.796	728.78
214.264	691.34
214.731	660.91
215.199	724.1
215.666	848.15
216.133	990.92
216.601	1061.14
217.068	1136.04
217.535	1320.94
218.003	1360.73
218.47	1313.92
218.937	1372.43
219.404	1325.62
219.871	1540.95
220.338	1662.66
220.805	1559.67
221.271	1501.16
221.738	1547.97
222.205	1580.74
222.671	1702.45
223.138	1842.88
223.605	1770.32
224.071	1695.43
224.538	1683.72
225.004	1847.56
225.47	1922.46
225.937	1943.52
226.403	1700.11
226.869	1533.93
227.335	1498.82
227.801	1461.37
228.267	1449.67
228.733	1487.12
229.199	1529.25
229.665	1723.51
230.131	1854.58
230.597	1927.14
231.062	1936.5
231.528	1676.7
231.994	1648.61
232.459	1484.78
232.925	1501.16
233.39	1547.97
233.856	1854.58
234.321	2107.36
234.786	2825.9
235.252	3731.69
235.717	5061.12
236.182	5828.81
236.647	4878.55
237.112	3205.07
237.577	2231.41
238.042	1847.56
238.507	1608.83
238.972	1498.82
239.436	1466.05
239.901	1452.01
240.366	1395.84
240.83	1463.71
241.295	1423.92
241.76	1524.57
242.224	1414.56
242.688	1437.97
243.153	1484.78
243.617	1503.5
244.081	1501.16
244.545	1550.31
245.01	1585.42
245.474	1697.77
245.938	1707.13
246.402	1559.67
246.866	1632.23
247.33	1498.82
247.793	1536.27
248.257	1512.86
248.721	1444.99
249.185	1456.69
249.648	1480.1
250.112	1526.91
250.575	1468.39
251.039	1536.27
251.502	1477.76
251.965	1601.8
252.429	1569.04
252.892	1660.32
253.355	1587.76
253.818	1650.96
254.281	1714.15
254.744	1842.88
255.207	2135.45
255.67	2535.68
256.133	3315.08
256.596	3839.36
257.059	3462.53
257.522	3001.44
257.984	2362.48
258.447	2247.79
258.909	2233.75
259.372	2222.05
259.834	2212.68
260.297	2065.23
260.759	2158.85
261.221	2320.35
261.684	2734.62
262.146	3511.68
262.608	3579.56
263.07	3336.14
263.532	2708.88
263.994	2491.21
264.456	2505.25
264.918	2392.91
265.38	2514.61
265.842	2182.26
266.303	2051.19
266.765	1721.17
267.227	1562.02
267.688	1641.59
268.15	1559.67
268.611	1583.08
269.072	1608.83
269.534	1665
269.995	1559.67
270.456	1524.57
270.918	1470.73
271.379	1529.25
271.84	1519.89
272.301	1491.8
272.762	1491.8
273.223	1447.33
273.684	1494.14
274.144	1494.14
274.605	1601.8
275.066	1611.17
275.527	1632.23
275.987	1791.39
276.448	1913.1
276.908	2318.01
277.369	3015.49
277.829	4827.06
278.289	8291.06
278.75	12489.98
279.21	13915.36
279.67	11502.27
280.13	8148.28
280.59	6252.45
281.05	5552.63
281.51	4607.05
281.97	3382.95
282.43	2364.82
282.89	1917.78
283.35	1751.6
283.809	1892.03
284.269	2144.81
284.729	2259.49
285.188	1997.35
285.648	1686.06
286.107	1475.42
286.567	1503.5
287.026	1423.92
287.485	1466.05
287.944	1395.84
288.404	1374.77
288.863	1374.77
289.322	1498.82
289.781	1365.41
290.24	1353.71
290.699	1482.44
291.158	1613.51
291.616	1606.49
292.075	1772.66
292.534	1969.27
292.992	2219.71
293.451	2055.87
293.91	1875.65
294.368	1704.79
294.827	1597.12
295.285	1409.88
295.743	1337.32
296.202	1395.84
296.66	1274.13
297.118	1299.88
297.576	1271.79
298.034	1257.75
298.492	1274.13
298.95	1260.09
299.408	1290.51
299.866	1327.96
300.324	1297.53
300.781	1316.26
301.239	1351.37
301.697	1402.86
302.154	1402.86
302.612	1552.65
303.069	1566.7
303.527	1676.7
303.984	1870.97
304.441	2367.16
304.899	2769.73
305.356	3240.18
305.813	3221.45
306.27	3139.54
306.727	3354.87
307.184	4632.8
307.641	6666.72
308.098	8206.8
308.555	9484.73
309.012	8955.77
309.468	7099.72
309.925	4176.39
310.382	2413.97
310.838	2037.14
311.295	1688.4
311.751	1587.76
312.208	1456.69
312.664	1388.82
313.12	1398.18
313.577	1283.49
314.033	1262.43
314.489	1323.28
314.945	1255.4
315.401	1152.42
315.857	1143.06
316.313	1126.68
316.769	1194.55
317.225	1161.78
317.681	1147.74
318.136	1199.23
318.592	1161.78
319.048	1089.23
319.503	1068.16
319.959	1131.36
320.414	1110.29
320.869	1096.25
321.325	1119.65
321.78	1110.29
322.235	1121.99
322.691	1140.72
323.146	1124.33
323.601	1295.19
324.056	1416.9
324.511	1702.45
324.966	1562.02
325.421	1461.37
325.875	1260.09
326.33	1250.72
326.785	1332.64
327.24	1599.46
327.694	1461.37
328.149	1285.83
328.603	1224.98
329.058	1133.7
329.512	1047.1
329.966	1133.7
330.421	1114.97
330.875	1047.1
331.329	1007.31
331.783	1075.18
332.237	1152.42
332.691	1325.62
333.145	1248.38
333.599	1295.19
334.053	1285.83
334.507	1367.75
334.96	1210.93
335.414	1222.64
335.868	1241.36
336.321	1175.83
336.775	1213.28
337.228	1194.55
337.682	1145.4
338.135	1271.79
338.588	1159.44
339.042	1140.72
339.495	1173.49
339.948	1236.68
340.401	1121.99
340.854	1187.53
341.307	1145.4
341.76	1114.97
342.213	1124.33
342.666	1159.44
343.119	1201.57
343.571	1278.81
344.024	1208.59
344.477	1175.83
344.929	1196.89
345.382	1208.59
345.834	1220.3
346.287	1114.97
346.739	1168.81
347.191	1224.98
347.644	1171.15
348.096	1203.91
348.548	1147.74
349	1285.83
349.452	1201.57
349.904	1161.78
350.356	1262.43
350.808	1229.66
351.26	1232
351.711	1255.4
352.163	1330.3
352.615	1379.45
353.066	1278.81
353.518	1444.99
353.969	1423.92
354.421	1461.37
354.872	1578.4
355.324	1758.62
355.775	1901.39
356.226	2079.27
356.677	2406.95
357.128	3083.36
357.579	3865.1
358.03	4827.06
358.481	5613.48
358.932	5510.5
359.383	4522.79
359.834	3645.09
360.285	3261.24
360.735	2994.42
361.186	2727.6
361.637	2388.22
362.087	2168.21
362.538	1807.77
362.988	1772.66
363.438	1606.49
363.889	1578.4
364.339	1370.09
364.789	1311.58
365.239	1405.2
365.689	1327.96
366.139	1248.38
366.589	1292.85
367.039	1260.09
367.489	1152.42
367.939	1173.49
368.389	1217.96
368.839	1222.64
369.288	1182.85
369.738	1189.87
370.187	1189.87
370.637	1283.49
371.086	1262.43
371.536	1306.9
371.985	1288.17
372.434	1269.45
372.884	1260.09
373.333	1243.7
373.782	1201.57
374.231	1224.98
374.68	1267.11
375.129	1229.66
375.578	1182.85
376.027	1185.19
376.475	1168.81
376.924	1147.74
377.373	1063.48
377.822	1082.21
378.27	1154.76
378.719	1182.85
379.167	1178.17
379.616	1131.36
380.064	1164.12
380.512	1203.91
380.961	1208.59
381.409	1173.49
381.857	1304.56
382.305	1400.52
382.753	1468.39
383.201	1672.02
383.649	1751.6
384.097	1681.38
384.545	1351.37
384.992	1374.77
385.44	1295.19
385.888	1246.04
386.335	1239.02
386.783	1264.77
387.231	1215.62
387.678	1241.36
388.125	1143.06
388.573	1217.96
389.02	1232
389.467	1173.49
389.914	1206.25
390.362	1288.17
390.809	1320.94
391.256	1215.62
391.703	1199.23
392.15	1407.54
392.596	1416.9
393.043	1601.8
393.49	2119.06
393.937	3422.74
394.383	5206.23
394.83	6161.17
395.276	5159.42
395.723	5398.15
396.169	7361.86
396.616	8066.36
397.062	5299.85
397.508	2912.5
397.954	1983.31
398.401	1592.44
398.847	1627.55
399.293	1587.76
399.739	1480.1
400.185	1449.67
400.631	1400.52
401.076	1374.77
401.522	1313.92
401.968	1344.35
402.414	1295.19
402.859	1346.69
403.305	1496.48
403.75	1517.54
404.196	1290.51
404.641	1334.98
405.086	1248.38
405.532	1295.19
405.977	1334.98
406.422	1229.66
406.867	1323.28
407.312	1344.35
407.757	1409.88
408.202	1337.32
408.647	1274.13
409.092	1157.1
409.537	1234.34
409.982	1318.6
410.426	1234.34
410.871	1320.94
411.316	1257.75
411.76	1253.06
412.205	1201.57
412.649	1295.19
413.093	1138.38
413.538	1203.91
413.982	1234.34
414.426	1147.74
414.87	1232
415.314	1201.57
415.758	1299.88
416.202	1234.34
416.646	1196.89
417.09	1140.72
417.534	1217.96
417.978	1201.57
418.421	1229.66
418.865	1150.08
419.309	1234.34
419.752	1227.32
420.196	1269.45
420.639	1189.87
421.083	1210.93
421.526	1168.81
421.969	1175.83
422.412	1121.99
422.856	1110.29
423.299	1161.78
423.742	1164.12
424.185	1253.06
424.628	1215.62
425.071	1070.5
425.513	1091.57
425.956	1091.57
426.399	1136.04
426.842	1037.74
427.284	1040.08
427.727	1145.4
428.169	1089.23
428.612	1068.16
429.054	1098.59
429.497	1110.29
429.939	1054.12
430.381	1002.63
430.823	1044.76
431.265	1044.76
431.707	1145.4
432.149	1033.05
432.591	1072.84
433.033	1164.12
433.475	1061.14
433.917	1016.67
434.359	1021.35
434.8	1019.01
435.242	1194.55
435.684	1157.1
436.125	1131.36
436.567	1100.93
437.008	1051.78
437.449	1103.27
437.891	1042.42
438.332	1093.91
438.773	1121.99
439.214	1143.06
439.656	1079.86
440.097	1054.12
440.538	1065.82
440.978	1131.36
441.419	1100.93
441.86	1152.42
442.301	1215.62
442.742	1206.25
443.182	1206.25
443.623	1224.98
444.063	1166.46
444.504	1201.57
444.944	1299.88
445.385	1416.9
445.825	1346.69
446.265	1309.24
446.706	1236.68
447.146	1365.41
447.586	1236.68
448.026	1388.82
448.466	1421.58
448.906	1512.86
449.346	1463.71
449.786	1419.24
450.225	1367.75
450.665	1388.82
451.105	1449.67
451.544	1405.2
451.984	1505.84
452.424	1428.6
452.863	1480.1
453.302	1515.2
453.742	1484.78
454.181	1388.82
454.62	1449.67
455.059	1414.56
455.499	1304.56
455.938	1234.34
456.377	1250.72
456.816	1318.6
457.254	1189.87
457.693	1147.74
458.132	1150.08
458.571	1173.49
459.01	1168.81
459.448	1166.46
459.887	1182.85
460.325	1178.17
460.764	1157.1
461.202	1168.81
461.641	1136.04
462.079	1213.28
462.517	1187.53
462.955	1206.25
463.393	1234.34
463.832	1232
464.27	1290.51
464.708	1192.21
465.145	1327.96
465.583	1365.41
466.021	1491.8
466.459	1454.35
466.897	1583.08
467.334	1646.27
467.772	1468.39
468.209	1372.43
468.647	1297.53
469.084	1203.91
469.522	1168.81
469.959	1131.36
470.396	1178.17
470.833	1107.95
471.271	1173.49
471.708	1009.65
472.145	1178.17
472.582	1145.4
473.019	1110.29
473.456	1147.74
473.892	1103.27
474.329	1070.5
474.766	1091.57
475.202	1112.63
475.639	1047.1
476.076	1098.59
476.512	1114.97
476.949	1145.4
477.385	1079.86
477.821	1173.49
478.258	1175.83
478.694	1203.91
479.13	1203.91
479.566	1138.38
480.002	1222.64
480.438	1164.12
480.874	1136.04
481.31	1093.91
481.746	1136.04
482.181	1075.18
482.617	1129.02
483.053	1129.02
483.488	1117.31
483.924	1124.33
484.36	1150.08
484.795	1168.81
485.23	1117.31
485.666	1264.77
486.101	1367.75
486.536	1276.47
486.971	1215.62
487.407	1213.28
487.842	1199.23
488.277	1227.32
488.712	1274.13
489.146	1224.98
489.581	1234.34
490.016	1096.25
490.451	1227.32
490.885	1175.83
491.32	1168.81
491.755	1117.31
492.189	1157.1
492.624	1171.15
493.058	1164.12
493.492	1201.57
493.927	1147.74
494.361	1248.38
494.795	1222.64
495.229	1217.96
495.663	1152.42
496.097	1253.06
496.531	1236.68
496.965	1192.21
497.399	1166.46
497.833	1236.68
498.266	1323.28
498.7	1320.94
499.134	1395.84
499.567	1402.86
500.001	1667.34
500.434	1728.19
500.868	1789.05
501.301	1765.64
501.734	1674.36
502.168	1583.08
502.601	1393.5
503.034	1414.56
503.467	1388.82
503.9	1253.06
504.333	1274.13
504.766	1379.45
505.199	1466.05
505.632	1484.78
506.064	1393.5
506.497	1269.45
506.93	1166.46
507.362	1299.88
507.795	1234.34
508.227	1164.12
508.66	1159.44
509.092	1136.04
509.524	1243.7
509.956	1126.68
510.389	1161.78
510.821	1164.12
511.253	1213.28
511.685	1168.81
512.117	1203.91
512.549	1208.59
512.981	1232
513.412	1093.91
513.844	1215.62
514.276	1159.44
514.707	1232
515.139	1248.38
515.571	1229.66
516.002	1365.41
516.433	1374.77
516.865	1309.24
517.296	1419.24
517.727	1545.63
518.159	1543.29
518.59	1594.78
519.021	1566.7
519.452	1594.78
519.883	1484.78
520.314	1351.37
520.744	1461.37
521.175	1320.94
521.606	1395.84
522.037	1585.42
522.467	1456.69
522.898	1466.05
523.328	1461.37
523.759	1428.6
524.189	1409.88
524.62	1576.06
525.05	1547.97
525.48	1550.31
525.91	1697.77
526.341	1725.85
526.771	1962.25
527.201	2051.19
527.631	2095.66
528.061	2388.22
528.49	2739.3
528.92	3270.61
529.35	4185.76
529.78	8377.66
530.209	39064.42
530.639	63029.16
531.068	63038.53
531.498	63038.53
531.927	63038.53
532.357	63038.53
532.786	63038.53
533.215	63038.53
533.644	63038.53
534.074	58547.04
534.503	18725.16
534.932	9210.89
535.361	5821.79
535.79	4042.98
536.218	3265.93
536.647	2889.1
537.076	2512.27
537.505	2147.15
537.933	1866.28
538.362	1669.68
538.79	1496.48
539.219	1419.24
539.647	1283.49
540.076	1250.72
540.504	1138.38
540.932	1140.72
541.36	1206.25
541.788	1199.23
542.217	1084.55
542.645	1145.4
543.073	1107.95
543.5	1009.65
543.928	1021.35
544.356	1093.91
544.784	1007.31
545.211	1068.16
545.639	1000.29
546.067	1016.67
546.494	995.61
546.922	1051.78
547.349	1040.08
547.776	1000.29
548.204	930.07
548.631	1058.8
549.058	997.95
549.485	960.5
549.912	1000.29
550.339	1040.08
550.766	997.95
551.193	967.52
551.62	1000.29
552.047	939.43
552.474	913.69
552.9	934.75
553.327	941.77
553.754	976.88
554.18	969.86
554.607	953.48
555.033	981.56
555.459	972.2
555.886	969.86
556.312	930.07
556.738	901.98
557.164	1023.69
557.59	944.11
558.016	981.56
558.442	988.58
558.868	1021.35
559.294	965.18
559.72	976.88
560.145	1075.18
560.571	1014.33
560.997	1011.99
561.422	983.9
561.848	955.82
562.273	962.84
562.699	1021.35
563.124	983.9
563.549	979.22
563.974	913.69
564.4	939.43
564.825	951.14
565.25	997.95
565.675	1023.69
566.1	1107.95
566.525	1086.89
566.95	1126.68
567.374	1154.76
567.799	1274.13
568.224	1283.49
568.648	1320.94
569.073	1292.85
569.497	1236.68
569.922	1306.9
570.346	1129.02
570.771	1217.96
571.195	1175.83
571.619	1086.89
572.043	1065.82
572.467	1084.55
572.891	979.22
573.315	1023.69
573.739	894.96
574.163	878.58
574.587	944.11
575.011	972.2
575.435	871.56
575.858	855.17
576.282	784.96
576.705	784.96
577.129	747.51
577.552	829.43
577.976	773.25
578.399	841.13
578.822	822.41
579.245	864.54
579.669	789.64
580.092	822.41
580.515	728.78
580.938	742.83
581.361	721.76
581.784	773.25
582.206	761.55
582.629	714.74
583.052	829.43
583.474	745.17
583.897	696.02
584.32	689
584.742	712.4
585.165	686.65
585.587	766.23
586.009	731.12
586.431	686.65
586.854	651.55
587.276	735.81
587.698	719.42
588.12	726.44
588.542	815.38
588.964	686.65
589.386	766.23
589.807	724.1
590.229	681.97
590.651	656.23
591.073	782.62
591.494	644.53
591.916	707.72
592.337	719.42
592.759	749.85
593.18	728.78
593.601	719.42
594.022	733.47
594.444	681.97
594.865	698.36
595.286	672.61
595.707	691.34
596.128	745.17
596.549	677.29
596.97	705.38
597.39	663.25
597.811	667.93
598.232	686.65
598.652	670.27
599.073	670.27
599.494	630.48
599.914	684.31
600.334	646.87
600.755	672.61
601.175	696.02
601.595	595.37
602.015	684.31
602.436	660.91
602.856	794.32
603.276	660.91
603.696	653.89
604.115	679.63
604.535	696.02
604.955	681.97
605.375	710.06
605.794	677.29
606.214	658.57
606.634	679.63
607.053	663.25
607.473	747.51
607.892	660.91
608.311	721.76
608.731	710.06
609.15	686.65
609.569	686.65
609.988	677.29
610.407	689
610.826	696.02
611.245	674.95
611.664	712.4
612.083	707.72
612.501	667.93
612.92	735.81
613.339	604.74
613.757	684.31
614.176	747.51
614.594	660.91
615.013	616.44
615.431	630.48
615.85	670.27
616.268	696.02
616.686	686.65
617.104	663.25
617.522	656.23
617.94	672.61
618.358	590.69
618.776	651.55
619.194	621.12
619.612	759.21
620.03	691.34
620.447	745.17
620.865	667.93
621.282	777.94
621.7	717.08
622.117	873.9
622.535	747.51
622.952	838.79
623.369	810.7
623.787	897.3
624.204	974.54
624.621	892.62
625.038	990.92
625.455	1070.5
625.872	1103.27
626.289	1035.39
626.706	885.6
627.123	911.35
627.539	899.64
627.956	808.36
628.373	752.19
628.789	775.6
629.206	820.07
629.622	759.21
630.038	698.36
630.455	721.76
630.871	700.7
631.287	672.61
631.703	693.68
632.12	644.53
632.536	581.33
632.952	691.34
633.368	677.29
633.783	618.78
634.199	625.8
634.615	614.1
635.031	621.12
635.446	632.82
635.862	600.05
636.277	593.03
636.693	621.12
637.108	543.88
637.524	635.16
637.939	571.97
638.354	618.78
638.77	595.37
639.185	586.01
639.6	602.4
640.015	571.97
640.43	604.74
640.845	485.37
641.259	625.8
641.674	571.97
642.089	553.24
642.504	564.95
642.918	541.54
643.333	532.18
643.747	534.52
644.162	576.65
644.576	567.29
644.991	546.22
645.405	550.9
645.819	525.16
646.233	513.46
646.647	536.86
647.061	557.93
647.475	466.64
647.889	576.65
648.303	527.5
648.717	501.75
649.131	546.22
649.545	504.09
649.958	621.12
650.372	609.42
650.785	471.33
651.199	450.26
651.612	555.58
652.026	478.35
652.439	562.61
652.852	529.84
653.266	529.84
653.679	511.11
654.092	520.48
654.505	557.93
654.918	593.03
655.331	490.05
655.744	527.5
656.156	555.58
656.569	588.35
656.982	637.5
657.394	525.16
657.807	576.65
658.22	534.52
658.632	555.58
659.044	571.97
659.457	548.56
659.869	527.5
660.281	464.3
660.693	529.84
661.106	473.67
661.518	541.54
661.93	571.97
662.342	490.05
662.754	508.77
663.165	476.01
663.577	607.08
663.989	534.52
664.401	497.07
664.812	506.43
665.224	485.37
665.635	480.69
666.047	511.11
666.458	511.11
666.869	492.39
667.281	476.01
667.692	445.58
668.103	518.14
668.514	499.41
668.925	522.82
669.336	452.6
669.747	410.47
670.158	506.43
670.569	464.3
670.979	480.69
671.39	412.81
671.801	499.41
672.211	412.81
672.622	518.14
673.032	445.58
673.443	468.98
673.853	506.43
674.263	515.8
674.674	473.67
675.084	461.96
675.494	464.3
675.904	487.71
676.314	454.94
676.724	476.01
677.134	450.26
677.544	433.88
677.953	473.67
678.363	382.39
678.773	480.69
679.182	525.16
679.592	497.07
680.001	527.5
680.411	476.01
680.82	422.17
681.23	408.13
681.639	454.94
682.048	506.43
682.457	429.2
682.866	417.49
683.275	471.33
683.684	499.41
684.093	501.75
684.502	405.79
684.911	452.6
685.32	506.43
685.728	464.3
686.137	466.64
686.546	459.62
686.954	473.67
687.363	375.36
687.771	447.92
688.179	471.33
688.588	440.9
688.996	504.09
689.404	422.17
689.812	410.47
690.22	394.09
690.628	473.67
691.036	466.64
691.444	408.13
691.852	522.82
692.26	454.94
692.667	387.07
693.075	466.64
693.483	476.01
693.89	438.56
694.298	424.51
694.705	468.98
695.112	424.51
695.52	438.56
695.927	550.9
696.334	487.71
696.741	309.83
697.148	487.71
697.555	401.11
697.962	391.75
698.369	436.22
698.776	459.62
699.183	450.26
699.59	368.34
699.996	438.56
700.403	443.24
700.81	436.22
701.216	483.03
701.623	506.43
702.029	485.37
702.435	520.48
702.842	518.14
703.248	536.86
703.654	506.43
704.06	593.03
704.466	639.84
704.872	731.12
705.278	745.17
705.684	609.42
706.09	684.31
706.496	609.42
706.901	581.33
707.307	471.33
707.712	571.97
708.118	497.07
708.523	487.71
708.929	450.26
709.334	426.86
709.74	384.73
710.145	408.13
710.55	426.86
710.955	408.13
711.36	457.28
711.765	389.41
712.17	443.24
712.575	358.98
712.98	916.03
713.385	401.11
713.789	373.02
714.194	422.17
714.599	361.32
715.003	410.47
715.408	424.51
715.812	391.75
716.217	464.3
716.621	354.3
717.025	429.2
717.429	445.58
717.833	354.3
718.238	358.98
718.642	373.02
719.046	358.98
719.449	419.83
719.853	377.7
720.257	361.32
720.661	419.83
721.065	356.64
721.468	340.26
721.872	342.6
722.275	312.17
722.679	387.07
723.082	384.73
723.485	398.77
723.889	326.21
724.292	398.77
724.695	380.04
725.098	351.96
725.501	377.7
725.904	335.57
726.307	410.47
726.71	391.75
727.113	377.7
727.516	389.41
727.918	443.24
728.321	387.07
728.724	368.34
729.126	356.64
729.529	410.47
729.931	305.15
730.333	403.45
730.736	370.68
731.138	323.87
731.54	335.57
731.942	330.89
732.344	384.73
732.746	330.89
733.148	349.62
733.55	344.94
733.952	380.04
734.354	384.73
734.756	380.04
735.157	380.04
735.559	321.53
735.96	377.7
736.362	323.87
736.763	330.89
737.165	354.3
737.566	300.47
737.967	342.6
738.368	284.08
738.77	384.73
739.171	335.57
739.572	267.7
739.973	298.13
740.374	347.28
740.774	375.36
741.175	396.43
741.576	368.34
741.977	373.02
742.377	384.73
742.778	384.73
743.178	333.23
743.579	389.41
743.979	438.56
744.379	370.68
