Data from Al_FLMS009871__592__14-46-40-916.txt Node

Date: Fri Mar 08 14:46:40 CST 2024
User: pe5414po
Spectrometer: FLMS00987
Trigger mode: 0
Integration Time (sec): 1.000000E-1
Scans to average: 1
Electric dark correction enabled: true
Nonlinearity correction enabled: false
Boxcar width: 0
XAxis mode: Wavelengths
Number of Pixels in Spectrum: 2048
>>>>>Begin Spectral Data<<<<<
188.938	-98.74
189.409	-98.74
189.879	-98.74
190.349	-138.53
190.819	-101.08
191.29	-94.06
191.76	-94.06
192.23	-136.19
192.7	-49.59
193.17	-44.91
193.64	-77.68
194.109	15.94
194.579	-56.61
195.049	-5.12
195.519	-44.91
195.988	-5.12
196.458	93.18
196.927	48.71
197.397	144.67
197.866	161.06
198.336	144.67
198.805	104.89
199.274	175.1
199.744	144.67
200.213	193.83
200.682	210.21
201.151	221.91
201.62	228.93
202.089	242.98
202.558	247.66
203.027	219.57
203.495	261.7
203.964	280.43
204.433	235.96
204.902	271.06
205.37	327.24
205.839	343.62
206.307	362.34
206.776	390.43
207.244	292.13
207.712	282.77
208.181	327.24
208.649	303.83
209.117	285.11
209.585	240.64
210.053	338.94
210.521	306.17
210.989	242.98
211.457	224.25
211.925	242.98
212.393	352.98
212.861	261.7
213.328	254.68
213.796	320.21
214.264	296.81
214.731	247.66
215.199	338.94
215.666	292.13
216.133	287.45
216.601	266.38
217.068	238.3
217.535	278.08
218.003	324.9
218.47	257.02
218.937	219.57
219.404	257.02
219.871	247.66
220.338	275.74
220.805	261.7
221.271	285.11
221.738	252.34
222.205	257.02
222.671	285.11
223.138	264.04
223.605	242.98
224.071	268.72
224.538	219.57
225.004	247.66
225.47	245.32
225.937	278.08
226.403	280.43
226.869	294.47
227.335	285.11
227.801	282.77
228.267	345.96
228.733	338.94
229.199	242.98
229.665	271.06
230.131	254.68
230.597	310.85
231.062	287.45
231.528	273.4
231.994	268.72
232.459	203.19
232.925	226.59
233.39	289.79
233.856	287.45
234.321	289.79
234.786	275.74
235.252	259.36
235.717	306.17
236.182	355.32
236.647	287.45
237.112	238.3
237.577	289.79
238.042	289.79
238.507	259.36
238.972	266.38
239.436	308.51
239.901	264.04
240.366	264.04
240.83	233.61
241.295	285.11
241.76	329.58
242.224	240.64
242.688	301.49
243.153	273.4
243.617	303.83
244.081	282.77
244.545	271.06
245.01	278.08
245.474	282.77
245.938	228.93
246.402	268.72
246.866	301.49
247.33	242.98
247.793	320.21
248.257	247.66
248.721	271.06
249.185	250
249.648	320.21
250.112	315.53
250.575	331.92
251.039	273.4
251.502	266.38
251.965	254.68
252.429	228.93
252.892	238.3
253.355	264.04
253.818	299.15
254.281	235.96
254.744	317.87
255.207	233.61
255.67	264.04
256.133	324.9
256.596	264.04
257.059	245.32
257.522	343.62
257.984	296.81
258.447	275.74
258.909	273.4
259.372	259.36
259.834	257.02
260.297	294.47
260.759	242.98
261.221	207.87
261.684	280.43
262.146	322.56
262.608	275.74
263.07	367.03
263.532	310.85
263.994	240.64
264.456	266.38
264.918	252.34
265.38	273.4
265.842	273.4
266.303	285.11
266.765	289.79
267.227	245.32
267.688	310.85
268.15	324.9
268.611	266.38
269.072	296.81
269.534	273.4
269.995	264.04
270.456	285.11
270.918	313.19
271.379	257.02
271.84	287.45
272.301	296.81
272.762	313.19
273.223	224.25
273.684	322.56
274.144	271.06
274.605	266.38
275.066	308.51
275.527	315.53
275.987	303.83
276.448	324.9
276.908	261.7
277.369	320.21
277.829	266.38
278.289	313.19
278.75	313.19
279.21	306.17
279.67	268.72
280.13	275.74
280.59	271.06
281.05	266.38
281.51	294.47
281.97	261.7
282.43	317.87
282.89	264.04
283.35	257.02
283.809	317.87
284.269	259.36
284.729	278.08
285.188	287.45
285.648	285.11
286.107	320.21
286.567	294.47
287.026	331.92
287.485	294.47
287.944	261.7
288.404	278.08
288.863	247.66
289.322	317.87
289.781	271.06
290.24	338.94
290.699	285.11
291.158	308.51
291.616	292.13
292.075	320.21
292.534	296.81
292.992	275.74
293.451	278.08
293.91	282.77
294.368	240.64
294.827	308.51
295.285	322.56
295.743	289.79
296.202	306.17
296.66	224.25
297.118	235.96
297.576	275.74
298.034	231.27
298.492	355.32
298.95	217.23
299.408	254.68
299.866	294.47
300.324	322.56
300.781	306.17
301.239	320.21
301.697	329.58
302.154	294.47
302.612	266.38
303.069	275.74
303.527	287.45
303.984	324.9
304.441	308.51
304.899	313.19
305.356	294.47
305.813	275.74
306.27	303.83
306.727	315.53
307.184	355.32
307.641	345.96
308.098	275.74
308.555	336.6
309.012	285.11
309.468	221.91
309.925	371.71
310.382	294.47
310.838	203.19
311.295	313.19
311.751	294.47
312.208	271.06
312.664	294.47
313.12	322.56
313.577	289.79
314.033	289.79
314.489	324.9
314.945	317.87
315.401	327.24
315.857	296.81
316.313	292.13
316.769	345.96
317.225	250
317.681	296.81
318.136	327.24
318.592	292.13
319.048	278.08
319.503	364.68
319.959	257.02
320.414	395.11
320.869	395.11
321.325	289.79
321.78	357.66
322.235	294.47
322.691	273.4
323.146	264.04
323.601	273.4
324.056	315.53
324.511	308.51
324.966	282.77
325.421	273.4
325.875	320.21
326.33	299.15
326.785	264.04
327.24	292.13
327.694	352.98
328.149	292.13
328.603	296.81
329.058	301.49
329.512	348.3
329.966	341.28
330.421	259.36
330.875	214.89
331.329	334.26
331.783	292.13
332.237	294.47
332.691	327.24
333.145	273.4
333.599	285.11
334.053	315.53
334.507	289.79
334.96	273.4
335.414	334.26
335.868	327.24
336.321	299.15
336.775	264.04
337.228	338.94
337.682	350.64
338.135	367.03
338.588	334.26
339.042	278.08
339.495	292.13
339.948	327.24
340.401	315.53
340.854	374.05
341.307	336.6
341.76	278.08
342.213	371.71
342.666	228.93
343.119	292.13
343.571	338.94
344.024	369.37
344.477	317.87
344.929	350.64
345.382	264.04
345.834	292.13
346.287	345.96
346.739	240.64
347.191	261.7
347.644	259.36
348.096	310.85
348.548	315.53
349	299.15
349.452	310.85
349.904	228.93
350.356	282.77
350.808	280.43
351.26	338.94
351.711	338.94
352.163	285.11
352.615	278.08
353.066	343.62
353.518	315.53
353.969	329.58
354.421	374.05
354.872	350.64
355.324	341.28
355.775	261.7
356.226	259.36
356.677	315.53
357.128	299.15
357.579	331.92
358.03	324.9
358.481	388.09
358.932	238.3
359.383	292.13
359.834	317.87
360.285	317.87
360.735	336.6
361.186	331.92
361.637	301.49
362.087	250
362.538	296.81
362.988	315.53
363.438	280.43
363.889	221.91
364.339	331.92
364.789	345.96
365.239	322.56
365.689	292.13
366.139	317.87
366.589	345.96
367.039	329.58
367.489	252.34
367.939	310.85
368.389	306.17
368.839	301.49
369.288	250
369.738	324.9
370.187	306.17
370.637	252.34
371.086	362.34
371.536	336.6
371.985	275.74
372.434	289.79
372.884	296.81
373.333	378.73
373.782	282.77
374.231	299.15
374.68	310.85
375.129	289.79
375.578	331.92
376.027	320.21
376.475	278.08
376.924	292.13
377.373	282.77
377.822	317.87
378.27	296.81
378.719	242.98
379.167	334.26
379.616	292.13
380.064	352.98
380.512	285.11
380.961	292.13
381.409	303.83
381.857	231.27
382.305	266.38
382.753	285.11
383.201	282.77
383.649	299.15
384.097	303.83
384.545	303.83
384.992	289.79
385.44	296.81
385.888	310.85
386.335	219.57
386.783	285.11
387.231	310.85
387.678	313.19
388.125	268.72
388.573	392.77
389.02	313.19
389.467	324.9
389.914	313.19
390.362	280.43
390.809	292.13
391.256	327.24
391.703	317.87
392.15	322.56
392.596	282.77
393.043	306.17
393.49	306.17
393.937	320.21
394.383	331.92
394.83	292.13
395.276	345.96
395.723	285.11
396.169	334.26
396.616	299.15
397.062	264.04
397.508	292.13
397.954	233.61
398.401	299.15
398.847	329.58
399.293	273.4
399.739	315.53
400.185	278.08
400.631	334.26
401.076	352.98
401.522	235.96
401.968	313.19
402.414	317.87
402.859	294.47
403.305	242.98
403.75	301.49
404.196	289.79
404.641	324.9
405.086	252.34
405.532	292.13
405.977	296.81
406.422	329.58
406.867	322.56
407.312	315.53
407.757	310.85
408.202	289.79
408.647	310.85
409.092	345.96
409.537	313.19
409.982	324.9
410.426	278.08
410.871	357.66
411.316	268.72
411.76	261.7
412.205	331.92
412.649	285.11
413.093	324.9
413.538	289.79
413.982	315.53
414.426	275.74
414.87	252.34
415.314	308.51
415.758	282.77
416.202	308.51
416.646	285.11
417.09	357.66
417.534	357.66
417.978	315.53
418.421	306.17
418.865	336.6
419.309	278.08
419.752	343.62
420.196	331.92
420.639	285.11
421.083	292.13
421.526	285.11
421.969	294.47
422.412	317.87
422.856	294.47
423.299	259.36
423.742	308.51
424.185	327.24
424.628	310.85
425.071	257.02
425.513	294.47
425.956	320.21
426.399	296.81
426.842	338.94
427.284	327.24
427.727	327.24
428.169	250
428.612	299.15
429.054	301.49
429.497	320.21
429.939	296.81
430.381	308.51
430.823	352.98
431.265	254.68
431.707	301.49
432.149	308.51
432.591	301.49
433.033	336.6
433.475	273.4
433.917	343.62
434.359	250
434.8	268.72
435.242	306.17
435.684	338.94
436.125	317.87
436.567	257.02
437.008	280.43
437.449	322.56
437.891	315.53
438.332	301.49
438.773	271.06
439.214	268.72
439.656	331.92
440.097	355.32
440.538	296.81
440.978	306.17
441.419	271.06
441.86	285.11
442.301	348.3
442.742	345.96
443.182	289.79
443.623	268.72
444.063	303.83
444.504	296.81
444.944	338.94
445.385	306.17
445.825	313.19
446.265	299.15
446.706	336.6
447.146	306.17
447.586	289.79
448.026	317.87
448.466	315.53
448.906	320.21
449.346	285.11
449.786	273.4
450.225	320.21
450.665	299.15
451.105	292.13
451.544	336.6
451.984	259.36
452.424	245.32
452.863	306.17
453.302	315.53
453.742	296.81
454.181	313.19
454.62	287.45
455.059	308.51
455.499	308.51
455.938	271.06
456.377	303.83
456.816	289.79
457.254	273.4
457.693	348.3
458.132	310.85
458.571	308.51
459.01	352.98
459.448	231.27
459.887	235.96
460.325	287.45
460.764	273.4
461.202	317.87
461.641	331.92
462.079	338.94
462.517	313.19
462.955	376.39
463.393	315.53
463.832	280.43
464.27	329.58
464.708	331.92
465.145	352.98
465.583	322.56
466.021	324.9
466.459	301.49
466.897	308.51
467.334	294.47
467.772	242.98
468.209	327.24
468.647	296.81
469.084	315.53
469.522	280.43
469.959	310.85
470.396	306.17
470.833	289.79
471.271	345.96
471.708	338.94
472.145	343.62
472.582	238.3
473.019	287.45
473.456	259.36
473.892	273.4
474.329	355.32
474.766	303.83
475.202	303.83
475.639	402.13
476.076	381.07
476.512	343.62
476.949	299.15
477.385	289.79
477.821	301.49
478.258	327.24
478.694	331.92
479.13	338.94
479.566	390.43
480.002	348.3
480.438	320.21
480.874	242.98
481.31	259.36
481.746	247.66
482.181	240.64
482.617	315.53
483.053	348.3
483.488	294.47
483.924	313.19
484.36	327.24
484.795	228.93
485.23	329.58
485.666	317.87
486.101	374.05
486.536	292.13
486.971	360
487.407	334.26
487.842	301.49
488.277	287.45
488.712	329.58
489.146	341.28
489.581	294.47
490.016	329.58
490.451	360
490.885	287.45
491.32	360
491.755	313.19
492.189	338.94
492.624	331.92
493.058	327.24
493.492	317.87
493.927	383.41
494.361	320.21
494.795	294.47
495.229	301.49
495.663	343.62
496.097	292.13
496.531	278.08
496.965	388.09
497.399	273.4
497.833	327.24
498.266	381.07
498.7	322.56
499.134	299.15
499.567	273.4
500.001	320.21
500.434	317.87
500.868	266.38
501.301	320.21
501.734	371.71
502.168	292.13
502.601	296.81
503.034	299.15
503.467	343.62
503.9	308.51
504.333	334.26
504.766	336.6
505.199	371.71
505.632	313.19
506.064	352.98
506.497	308.51
506.93	329.58
507.362	350.64
507.795	299.15
508.227	331.92
508.66	348.3
509.092	315.53
509.524	360
509.956	273.4
510.389	247.66
510.821	385.75
511.253	294.47
511.685	322.56
512.117	324.9
512.549	275.74
512.981	324.9
513.412	294.47
513.844	388.09
514.276	313.19
514.707	294.47
515.139	252.34
515.571	331.92
516.002	369.37
516.433	322.56
516.865	336.6
517.296	301.49
517.727	322.56
518.159	294.47
518.59	350.64
519.021	292.13
519.452	310.85
519.883	402.13
520.314	388.09
520.744	266.38
521.175	310.85
521.606	324.9
522.037	235.96
522.467	280.43
522.898	345.96
523.328	282.77
523.759	299.15
524.189	292.13
524.62	334.26
525.05	273.4
525.48	301.49
525.91	287.45
526.341	296.81
526.771	266.38
527.201	338.94
527.631	390.43
528.061	360
528.49	285.11
528.92	341.28
529.35	324.9
529.78	341.28
530.209	313.19
530.639	299.15
531.068	289.79
531.498	275.74
531.927	289.79
532.357	303.83
532.786	254.68
533.215	320.21
533.644	289.79
534.074	296.81
534.503	327.24
534.932	301.49
535.361	292.13
535.79	315.53
536.218	275.74
536.647	362.34
537.076	329.58
537.505	329.58
537.933	294.47
538.362	364.68
538.79	271.06
539.219	329.58
539.647	320.21
540.076	294.47
540.504	334.26
540.932	329.58
541.36	273.4
541.788	287.45
542.217	397.45
542.645	327.24
543.073	306.17
543.5	287.45
543.928	289.79
544.356	308.51
544.784	324.9
545.211	303.83
545.639	331.92
546.067	315.53
546.494	324.9
546.922	322.56
547.349	299.15
547.776	336.6
548.204	261.7
548.631	285.11
549.058	308.51
549.485	287.45
549.912	334.26
550.339	282.77
550.766	257.02
551.193	292.13
551.62	294.47
552.047	299.15
552.474	329.58
552.9	289.79
553.327	376.39
553.754	313.19
554.18	376.39
554.607	343.62
555.033	287.45
555.459	320.21
555.886	308.51
556.312	357.66
556.738	341.28
557.164	341.28
557.59	296.81
558.016	306.17
558.442	320.21
558.868	275.74
559.294	355.32
559.72	327.24
560.145	355.32
560.571	352.98
560.997	341.28
561.422	334.26
561.848	245.32
562.273	306.17
562.699	271.06
563.124	313.19
563.549	252.34
563.974	334.26
564.4	345.96
564.825	264.04
565.25	331.92
565.675	296.81
566.1	257.02
566.525	343.62
566.95	343.62
567.374	308.51
567.799	257.02
568.224	271.06
568.648	313.19
569.073	374.05
569.497	278.08
569.922	303.83
570.346	268.72
570.771	369.37
571.195	352.98
571.619	345.96
572.043	285.11
572.467	294.47
572.891	350.64
573.315	341.28
573.739	334.26
574.163	261.7
574.587	336.6
575.011	247.66
575.435	341.28
575.858	336.6
576.282	376.39
576.705	324.9
577.129	345.96
577.552	341.28
577.976	315.53
578.399	371.71
578.822	313.19
579.245	310.85
579.669	331.92
580.092	355.32
580.515	308.51
580.938	303.83
581.361	320.21
581.784	308.51
582.206	259.36
582.629	301.49
583.052	355.32
583.474	306.17
583.897	296.81
584.32	336.6
584.742	306.17
585.165	338.94
585.587	341.28
586.009	336.6
586.431	348.3
586.854	285.11
587.276	292.13
587.698	397.45
588.12	301.49
588.542	287.45
588.964	317.87
589.386	324.9
589.807	317.87
590.229	310.85
590.651	261.7
591.073	301.49
591.494	308.51
591.916	338.94
592.337	292.13
592.759	282.77
593.18	268.72
593.601	301.49
594.022	273.4
594.444	287.45
594.865	324.9
595.286	322.56
595.707	292.13
596.128	348.3
596.549	317.87
596.97	313.19
597.39	303.83
597.811	371.71
598.232	334.26
598.652	287.45
599.073	341.28
599.494	271.06
599.914	350.64
600.334	364.68
600.755	308.51
601.175	271.06
601.595	310.85
602.015	308.51
602.436	343.62
602.856	432.56
603.276	301.49
603.696	329.58
604.115	315.53
604.535	322.56
604.955	324.9
605.375	278.08
605.794	334.26
606.214	303.83
606.634	322.56
607.053	257.02
607.473	336.6
607.892	289.79
608.311	317.87
608.731	285.11
609.15	299.15
609.569	362.34
609.988	301.49
610.407	324.9
610.826	317.87
611.245	273.4
611.664	294.47
612.083	292.13
612.501	327.24
612.92	306.17
613.339	343.62
613.757	341.28
614.176	306.17
614.594	329.58
615.013	271.06
615.431	317.87
615.85	308.51
616.268	336.6
616.686	334.26
617.104	287.45
617.522	324.9
617.94	334.26
618.358	264.04
618.776	331.92
619.194	341.28
619.612	341.28
620.03	341.28
620.447	376.39
620.865	317.87
621.282	280.43
621.7	364.68
622.117	383.41
622.535	324.9
622.952	287.45
623.369	348.3
623.787	306.17
624.204	324.9
624.621	341.28
625.038	355.32
625.455	273.4
625.872	275.74
626.289	331.92
626.706	294.47
627.123	273.4
627.539	296.81
627.956	252.34
628.373	289.79
628.789	266.38
629.206	282.77
629.622	331.92
630.038	334.26
630.455	306.17
630.871	374.05
631.287	320.21
631.703	369.37
632.12	313.19
632.536	224.25
632.952	292.13
633.368	310.85
633.783	303.83
634.199	275.74
634.615	278.08
635.031	282.77
635.446	287.45
635.862	294.47
636.277	341.28
636.693	336.6
637.108	278.08
637.524	271.06
637.939	308.51
638.354	308.51
638.77	362.34
639.185	336.6
639.6	324.9
640.015	352.98
640.43	352.98
640.845	374.05
641.259	343.62
641.674	308.51
642.089	303.83
642.504	247.66
642.918	250
643.333	331.92
643.747	343.62
644.162	322.56
644.576	289.79
644.991	308.51
645.405	303.83
645.819	303.83
646.233	308.51
646.647	296.81
647.061	395.11
647.475	313.19
647.889	275.74
648.303	301.49
648.717	285.11
649.131	282.77
649.545	275.74
649.958	360
650.372	292.13
650.785	331.92
651.199	324.9
651.612	345.96
652.026	350.64
652.439	329.58
652.852	261.7
653.266	252.34
653.679	334.26
654.092	341.28
654.505	310.85
654.918	343.62
655.331	320.21
655.744	345.96
656.156	285.11
656.569	324.9
656.982	299.15
657.394	292.13
657.807	273.4
658.22	331.92
658.632	285.11
659.044	301.49
659.457	292.13
659.869	329.58
660.281	280.43
660.693	271.06
661.106	348.3
661.518	259.36
661.93	320.21
662.342	334.26
662.754	352.98
663.165	352.98
663.577	345.96
663.989	357.66
664.401	322.56
664.812	299.15
665.224	299.15
665.635	315.53
666.047	301.49
666.458	350.64
666.869	315.53
667.281	278.08
667.692	322.56
668.103	282.77
668.514	331.92
668.925	294.47
669.336	364.68
669.747	327.24
670.158	329.58
670.569	350.64
670.979	299.15
671.39	381.07
671.801	320.21
672.211	296.81
672.622	350.64
673.032	259.36
673.443	280.43
673.853	367.03
674.263	327.24
674.674	308.51
675.084	308.51
675.494	362.34
675.904	282.77
676.314	278.08
676.724	329.58
677.134	315.53
677.544	280.43
677.953	320.21
678.363	327.24
678.773	324.9
679.182	341.28
679.592	296.81
680.001	348.3
680.411	306.17
680.82	275.74
681.23	294.47
681.639	289.79
682.048	287.45
682.457	350.64
682.866	285.11
683.275	313.19
683.684	292.13
684.093	242.98
684.502	257.02
684.911	261.7
685.32	313.19
685.728	250
686.137	268.72
686.546	275.74
686.954	320.21
687.363	303.83
687.771	257.02
688.179	350.64
688.588	341.28
688.996	287.45
689.404	299.15
689.812	289.79
690.22	294.47
690.628	313.19
691.036	299.15
691.444	301.49
691.852	315.53
692.26	327.24
692.667	275.74
693.075	324.9
693.483	357.66
693.89	289.79
694.298	315.53
694.705	345.96
695.112	275.74
695.52	226.59
695.927	287.45
696.334	289.79
696.741	301.49
697.148	331.92
697.555	338.94
697.962	289.79
698.369	278.08
698.776	287.45
699.183	308.51
699.59	287.45
699.996	320.21
700.403	266.38
700.81	299.15
701.216	320.21
701.623	313.19
702.029	348.3
702.435	345.96
702.842	352.98
703.248	282.77
703.654	261.7
704.06	278.08
704.466	334.26
704.872	369.37
705.278	315.53
705.684	348.3
706.09	317.87
706.496	317.87
706.901	336.6
707.307	289.79
707.712	306.17
708.118	329.58
708.523	479.37
708.929	268.72
709.334	296.81
709.74	294.47
710.145	310.85
710.55	282.77
710.955	374.05
711.36	327.24
711.765	299.15
712.17	301.49
712.575	338.94
712.98	760.24
713.385	362.34
713.789	324.9
714.194	292.13
714.599	296.81
715.003	278.08
715.408	313.19
715.812	271.06
716.217	310.85
716.621	294.47
717.025	261.7
717.429	317.87
717.833	273.4
718.238	315.53
718.642	275.74
719.046	259.36
719.449	362.34
719.853	324.9
720.257	345.96
720.661	355.32
721.065	308.51
721.468	289.79
721.872	355.32
722.275	306.17
722.679	343.62
723.082	273.4
723.485	310.85
723.889	245.32
724.292	369.37
724.695	322.56
725.098	287.45
725.501	301.49
725.904	282.77
726.307	327.24
726.71	322.56
727.113	350.64
727.516	306.17
727.918	315.53
728.321	301.49
728.724	345.96
729.126	275.74
729.529	322.56
729.931	294.47
730.333	338.94
730.736	301.49
731.138	294.47
731.54	360
731.942	289.79
732.344	343.62
732.746	278.08
733.148	416.18
733.55	341.28
733.952	268.72
734.354	257.02
734.756	313.19
735.157	219.57
735.559	303.83
735.96	322.56
736.362	360
736.763	271.06
737.165	247.66
737.566	266.38
737.967	252.34
738.368	275.74
738.77	315.53
739.171	341.28
739.572	322.56
739.973	301.49
740.374	331.92
740.774	327.24
741.175	252.34
741.576	280.43
741.977	343.62
742.377	374.05
742.778	320.21
743.178	235.96
743.579	245.32
743.979	308.51
744.379	301.49
744.78	329.58
745.18	357.66
745.58	287.45
745.98	338.94
746.38	310.85
746.78	357.66
747.18	310.85
747.58	317.87
747.98	306.17
748.38	348.3
748.779	296.81
749.179	357.66
749.578	296.81
749.978	252.34
750.377	278.08
750.777	322.56
751.176	367.03
751.575	280.43
751.975	352.98
752.374	261.7
752.773	308.51
753.172	254.68
753.571	320.21
753.97	242.98
754.369	306.17
754.768	301.49
755.166	385.75
755.565	315.53
755.964	292.13
756.362	364.68
756.761	296.81
757.159	282.77
757.558	341.28
757.956	306.17
758.354	268.72
758.753	275.74
759.151	306.17
759.549	308.51
759.947	299.15
760.345	322.56
760.743	289.79
761.141	299.15
761.539	282.77
761.936	278.08
762.334	271.06
762.732	367.03
763.129	296.81
763.527	301.49
763.924	308.51
764.322	292.13
764.719	320.21
765.117	317.87
765.514	273.4
765.911	207.87
