Data from Al_FLMS009871__584__14-46-40-116.txt Node

Date: Fri Mar 08 14:46:40 CST 2024
User: pe5414po
Spectrometer: FLMS00987
Trigger mode: 0
Integration Time (sec): 1.000000E-1
Scans to average: 1
Electric dark correction enabled: true
Nonlinearity correction enabled: false
Boxcar width: 0
XAxis mode: Wavelengths
Number of Pixels in Spectrum: 2048
>>>>>Begin Spectral Data<<<<<
188.938	-85.72
189.409	-85.72
189.879	-85.72
190.349	-106.79
190.819	-55.3
191.29	-83.38
191.76	-118.49
192.23	-1.46
192.7	-41.25
193.17	-48.27
193.64	-90.4
194.109	-15.51
194.579	-13.17
195.049	-27.21
195.519	-8.48
195.988	3.22
196.458	12.58
196.927	43.01
197.397	82.8
197.866	148.33
198.336	157.69
198.805	138.97
199.274	127.27
199.744	202.16
200.213	258.34
200.682	206.84
201.151	225.57
201.62	300.47
202.089	211.53
202.558	239.61
203.027	270.04
203.495	251.32
203.964	307.49
204.433	286.42
204.902	356.64
205.37	300.47
205.839	263.02
206.307	286.42
206.776	291.1
207.244	279.4
207.712	316.85
208.181	260.68
208.649	328.55
209.117	302.81
209.585	319.19
210.053	281.74
210.521	291.1
210.989	298.13
211.457	279.4
211.925	270.04
212.393	307.49
212.861	270.04
213.328	361.32
213.796	309.83
214.264	197.48
214.731	291.1
215.199	295.79
215.666	295.79
216.133	307.49
216.601	279.4
217.068	284.08
217.535	258.34
218.003	244.29
218.47	286.42
218.937	286.42
219.404	251.32
219.871	286.42
220.338	284.08
220.805	253.66
221.271	258.34
221.738	258.34
222.205	305.15
222.671	246.63
223.138	209.19
223.605	253.66
224.071	248.97
224.538	314.51
225.004	288.76
225.47	251.32
225.937	373.02
226.403	258.34
226.869	291.1
227.335	286.42
227.801	291.1
228.267	258.34
228.733	323.87
229.199	265.36
229.665	267.7
230.131	293.44
230.597	314.51
231.062	295.79
231.528	293.44
231.994	305.15
232.459	251.32
232.925	239.61
233.39	248.97
233.856	288.76
234.321	248.97
234.786	305.15
235.252	258.34
235.717	253.66
236.182	319.19
236.647	263.02
237.112	277.06
237.577	244.29
238.042	307.49
238.507	288.76
238.972	284.08
239.436	300.47
239.901	340.26
240.366	211.53
240.83	314.51
241.295	237.27
241.76	312.17
242.224	265.36
242.688	319.19
243.153	323.87
243.617	293.44
244.081	256
244.545	274.72
245.01	302.81
245.474	244.29
245.938	279.4
246.402	316.85
246.866	298.13
247.33	288.76
247.793	321.53
248.257	305.15
248.721	216.21
249.185	309.83
249.648	286.42
250.112	307.49
250.575	333.23
251.039	316.85
251.502	265.36
251.965	361.32
252.429	230.25
252.892	281.74
253.355	248.97
253.818	218.55
254.281	263.02
254.744	333.23
255.207	274.72
255.67	300.47
256.133	344.94
256.596	316.85
257.059	286.42
257.522	284.08
257.984	288.76
258.447	206.84
258.909	351.96
259.372	300.47
259.834	246.63
260.297	267.7
260.759	335.57
261.221	272.38
261.684	307.49
262.146	256
262.608	263.02
263.07	300.47
263.532	284.08
263.994	342.6
264.456	312.17
264.918	265.36
265.38	237.27
265.842	284.08
266.303	244.29
266.765	298.13
267.227	288.76
267.688	279.4
268.15	256
268.611	251.32
269.072	239.61
269.534	277.06
269.995	300.47
270.456	302.81
270.918	286.42
271.379	319.19
271.84	281.74
272.301	307.49
272.762	237.27
273.223	267.7
273.684	293.44
274.144	298.13
274.605	263.02
275.066	293.44
275.527	333.23
275.987	312.17
276.448	263.02
276.908	270.04
277.369	344.94
277.829	323.87
278.289	288.76
278.75	284.08
279.21	253.66
279.67	314.51
280.13	286.42
280.59	295.79
281.05	293.44
281.51	265.36
281.97	309.83
282.43	291.1
282.89	253.66
283.35	279.4
283.809	288.76
284.269	270.04
284.729	232.59
285.188	284.08
285.648	309.83
286.107	291.1
286.567	300.47
287.026	337.91
287.485	232.59
287.944	316.85
288.404	312.17
288.863	298.13
289.322	298.13
289.781	309.83
290.24	305.15
290.699	354.3
291.158	305.15
291.616	286.42
292.075	279.4
292.534	272.38
292.992	272.38
293.451	267.7
293.91	342.6
294.368	258.34
294.827	330.89
295.285	298.13
295.743	333.23
296.202	323.87
296.66	319.19
297.118	312.17
297.576	239.61
298.034	333.23
298.492	309.83
298.95	321.53
299.408	302.81
299.866	319.19
300.324	356.64
300.781	321.53
301.239	279.4
301.697	321.53
302.154	302.81
302.612	298.13
303.069	232.59
303.527	281.74
303.984	270.04
304.441	326.21
304.899	323.87
305.356	281.74
305.813	321.53
306.27	305.15
306.727	267.7
307.184	295.79
307.641	218.55
308.098	382.39
308.555	347.28
309.012	220.89
309.468	239.61
309.925	274.72
310.382	309.83
310.838	284.08
311.295	314.51
311.751	300.47
312.208	330.89
312.664	256
313.12	241.95
313.577	272.38
314.033	330.89
314.489	321.53
314.945	316.85
315.401	286.42
315.857	316.85
316.313	246.63
316.769	270.04
317.225	333.23
317.681	267.7
318.136	291.1
318.592	288.76
319.048	267.7
319.503	263.02
319.959	356.64
320.414	241.95
320.869	323.87
321.325	258.34
321.78	312.17
322.235	293.44
322.691	295.79
323.146	314.51
323.601	244.29
324.056	340.26
324.511	335.57
324.966	323.87
325.421	258.34
325.875	326.21
326.33	279.4
326.785	300.47
327.24	319.19
327.694	258.34
328.149	286.42
328.603	384.73
329.058	302.81
329.512	368.34
329.966	370.68
330.421	347.28
330.875	307.49
331.329	326.21
331.783	279.4
332.237	258.34
332.691	284.08
333.145	333.23
333.599	234.93
334.053	267.7
334.507	300.47
334.96	307.49
335.414	267.7
335.868	293.44
336.321	319.19
336.775	298.13
337.228	267.7
337.682	422.17
338.135	354.3
338.588	321.53
339.042	314.51
339.495	305.15
339.948	326.21
340.401	328.55
340.854	326.21
341.307	300.47
341.76	370.68
342.213	319.19
342.666	260.68
343.119	300.47
343.571	260.68
344.024	323.87
344.477	326.21
344.929	323.87
345.382	321.53
345.834	337.91
346.287	286.42
346.739	319.19
347.191	286.42
347.644	340.26
348.096	321.53
348.548	314.51
349	344.94
349.452	244.29
349.904	307.49
350.356	260.68
350.808	319.19
351.26	295.79
351.711	307.49
352.163	323.87
352.615	314.51
353.066	316.85
353.518	361.32
353.969	281.74
354.421	342.6
354.872	337.91
355.324	398.77
355.775	277.06
356.226	284.08
356.677	366
357.128	373.02
357.579	370.68
358.03	337.91
358.481	302.81
358.932	279.4
359.383	375.36
359.834	468.98
360.285	274.72
360.735	349.62
361.186	347.28
361.637	340.26
362.087	288.76
362.538	321.53
362.988	330.89
363.438	312.17
363.889	363.66
364.339	356.64
364.789	401.11
365.239	298.13
365.689	330.89
366.139	347.28
366.589	354.3
367.039	347.28
367.489	351.96
367.939	321.53
368.389	391.75
368.839	300.47
369.288	321.53
369.738	300.47
370.187	298.13
370.637	328.55
371.086	340.26
371.536	302.81
371.985	326.21
372.434	281.74
372.884	265.36
373.333	316.85
373.782	363.66
374.231	272.38
374.68	354.3
375.129	293.44
375.578	300.47
376.027	314.51
376.475	312.17
376.924	309.83
377.373	279.4
377.822	354.3
378.27	323.87
378.719	354.3
379.167	321.53
379.616	267.7
380.064	323.87
380.512	319.19
380.961	309.83
381.409	288.76
381.857	286.42
382.305	356.64
382.753	358.98
383.201	340.26
383.649	277.06
384.097	347.28
384.545	368.34
384.992	316.85
385.44	246.63
385.888	272.38
386.335	293.44
386.783	321.53
387.231	291.1
387.678	279.4
388.125	298.13
388.573	330.89
389.02	354.3
389.467	321.53
389.914	366
390.362	347.28
390.809	344.94
391.256	337.91
391.703	335.57
392.15	358.98
392.596	363.66
393.043	305.15
393.49	316.85
393.937	300.47
394.383	274.72
394.83	300.47
395.276	319.19
395.723	281.74
396.169	279.4
396.616	321.53
397.062	330.89
397.508	270.04
397.954	326.21
398.401	319.19
398.847	330.89
399.293	335.57
399.739	281.74
400.185	295.79
400.631	298.13
401.076	284.08
401.522	323.87
401.968	279.4
402.414	314.51
402.859	300.47
403.305	326.21
403.75	380.04
404.196	277.06
404.641	277.06
405.086	265.36
405.532	263.02
405.977	305.15
406.422	272.38
406.867	300.47
407.312	293.44
407.757	335.57
408.202	291.1
408.647	326.21
409.092	405.79
409.537	302.81
409.982	342.6
410.426	284.08
410.871	281.74
411.316	293.44
411.76	302.81
412.205	361.32
412.649	251.32
413.093	293.44
413.538	256
413.982	316.85
414.426	347.28
414.87	314.51
415.314	344.94
415.758	340.26
416.202	309.83
416.646	349.62
417.09	361.32
417.534	305.15
417.978	340.26
418.421	260.68
418.865	326.21
419.309	347.28
419.752	319.19
420.196	358.98
420.639	319.19
421.083	267.7
421.526	246.63
421.969	288.76
422.412	326.21
422.856	321.53
423.299	351.96
423.742	302.81
424.185	375.36
424.628	314.51
425.071	330.89
425.513	328.55
425.956	307.49
426.399	316.85
426.842	211.53
427.284	279.4
427.727	321.53
428.169	319.19
428.612	337.91
429.054	337.91
429.497	333.23
429.939	288.76
430.381	302.81
430.823	316.85
431.265	349.62
431.707	314.51
432.149	356.64
432.591	321.53
433.033	366
433.475	270.04
433.917	291.1
434.359	340.26
434.8	321.53
435.242	284.08
435.684	291.1
436.125	326.21
436.567	363.66
437.008	321.53
437.449	270.04
437.891	354.3
438.332	333.23
438.773	328.55
439.214	288.76
439.656	370.68
440.097	300.47
440.538	328.55
440.978	344.94
441.419	323.87
441.86	342.6
442.301	312.17
442.742	335.57
443.182	286.42
443.623	394.09
444.063	281.74
444.504	316.85
444.944	291.1
445.385	328.55
445.825	316.85
446.265	335.57
446.706	319.19
447.146	368.34
447.586	265.36
448.026	380.04
448.466	370.68
448.906	330.89
449.346	312.17
449.786	330.89
450.225	361.32
450.665	375.36
451.105	251.32
451.544	326.21
451.984	307.49
452.424	300.47
452.863	349.62
453.302	328.55
453.742	258.34
454.181	328.55
454.62	349.62
455.059	358.98
455.499	330.89
455.938	361.32
456.377	293.44
456.816	316.85
457.254	279.4
457.693	326.21
458.132	267.7
458.571	274.72
459.01	380.04
459.448	314.51
459.887	286.42
460.325	300.47
460.764	344.94
461.202	337.91
461.641	342.6
462.079	314.51
462.517	354.3
462.955	305.15
463.393	344.94
463.832	337.91
464.27	328.55
464.708	333.23
465.145	337.91
465.583	417.49
466.021	358.98
466.459	316.85
466.897	347.28
467.334	335.57
467.772	281.74
468.209	344.94
468.647	300.47
469.084	293.44
469.522	342.6
469.959	307.49
470.396	281.74
470.833	344.94
471.271	316.85
471.708	244.29
472.145	305.15
472.582	321.53
473.019	375.36
473.456	380.04
473.892	316.85
474.329	309.83
474.766	377.7
475.202	354.3
475.639	277.06
476.076	361.32
476.512	288.76
476.949	382.39
477.385	295.79
477.821	370.68
478.258	351.96
478.694	309.83
479.13	300.47
479.566	342.6
480.002	347.28
480.438	328.55
480.874	293.44
481.31	321.53
481.746	263.02
482.181	288.76
482.617	330.89
483.053	312.17
483.488	241.95
483.924	368.34
484.36	323.87
484.795	293.44
485.23	382.39
485.666	361.32
486.101	302.81
486.536	328.55
486.971	302.81
487.407	253.66
487.842	300.47
488.277	316.85
488.712	232.59
489.146	349.62
489.581	415.15
490.016	368.34
490.451	248.97
490.885	272.38
491.32	284.08
491.755	335.57
492.189	377.7
492.624	337.91
493.058	349.62
493.492	349.62
493.927	277.06
494.361	391.75
494.795	373.02
495.229	349.62
495.663	349.62
496.097	258.34
496.531	314.51
496.965	300.47
497.399	293.44
497.833	335.57
498.266	342.6
498.7	319.19
499.134	391.75
499.567	354.3
500.001	286.42
500.434	328.55
500.868	265.36
501.301	347.28
501.734	319.19
502.168	309.83
502.601	316.85
503.034	284.08
503.467	307.49
503.9	326.21
504.333	335.57
504.766	380.04
505.199	382.39
505.632	356.64
506.064	286.42
506.497	309.83
506.93	323.87
507.362	300.47
507.795	316.85
508.227	281.74
508.66	293.44
509.092	319.19
509.524	363.66
509.956	286.42
510.389	363.66
510.821	354.3
511.253	321.53
511.685	309.83
512.117	323.87
512.549	347.28
512.981	286.42
513.412	321.53
513.844	335.57
514.276	253.66
514.707	321.53
515.139	370.68
515.571	358.98
516.002	277.06
516.433	260.68
516.865	335.57
517.296	351.96
517.727	363.66
518.159	272.38
518.59	361.32
519.021	333.23
519.452	323.87
519.883	267.7
520.314	312.17
520.744	295.79
521.175	342.6
521.606	347.28
522.037	300.47
522.467	344.94
522.898	277.06
523.328	342.6
523.759	270.04
524.189	321.53
524.62	272.38
525.05	281.74
525.48	323.87
525.91	347.28
526.341	363.66
526.771	349.62
527.201	293.44
527.631	361.32
528.061	387.07
528.49	328.55
528.92	326.21
529.35	358.98
529.78	277.06
530.209	302.81
530.639	302.81
531.068	347.28
531.498	354.3
531.927	281.74
532.357	316.85
532.786	298.13
533.215	274.72
533.644	277.06
534.074	260.68
534.503	305.15
534.932	314.51
535.361	340.26
535.79	295.79
536.218	305.15
536.647	347.28
537.076	291.1
537.505	368.34
537.933	300.47
538.362	328.55
538.79	312.17
539.219	354.3
539.647	307.49
540.076	274.72
540.504	373.02
540.932	298.13
541.36	309.83
541.788	342.6
542.217	358.98
542.645	300.47
543.073	366
543.5	377.7
543.928	342.6
544.356	293.44
544.784	335.57
545.211	340.26
545.639	265.36
546.067	300.47
546.494	354.3
546.922	342.6
547.349	340.26
547.776	358.98
548.204	330.89
548.631	333.23
549.058	267.7
549.485	293.44
549.912	302.81
550.339	302.81
550.766	309.83
551.193	375.36
551.62	391.75
552.047	349.62
552.474	288.76
552.9	321.53
553.327	316.85
553.754	291.1
554.18	335.57
554.607	286.42
555.033	321.53
555.459	333.23
555.886	326.21
556.312	370.68
556.738	328.55
557.164	288.76
557.59	314.51
558.016	323.87
558.442	314.51
558.868	349.62
559.294	277.06
559.72	370.68
560.145	291.1
560.571	309.83
560.997	307.49
561.422	347.28
561.848	333.23
562.273	326.21
562.699	335.57
563.124	286.42
563.549	307.49
563.974	337.91
564.4	309.83
564.825	328.55
565.25	272.38
565.675	342.6
566.1	279.4
566.525	415.15
566.95	358.98
567.374	288.76
567.799	347.28
568.224	295.79
568.648	358.98
569.073	330.89
569.497	328.55
569.922	316.85
570.346	319.19
570.771	340.26
571.195	326.21
571.619	284.08
572.043	314.51
572.467	302.81
572.891	358.98
573.315	361.32
573.739	307.49
574.163	351.96
574.587	330.89
575.011	354.3
575.435	333.23
575.858	356.64
576.282	314.51
576.705	330.89
577.129	309.83
577.552	351.96
577.976	316.85
578.399	309.83
578.822	326.21
579.245	307.49
579.669	347.28
580.092	328.55
580.515	284.08
580.938	328.55
581.361	295.79
581.784	316.85
582.206	293.44
582.629	302.81
583.052	344.94
583.474	295.79
583.897	342.6
584.32	321.53
584.742	312.17
585.165	337.91
585.587	366
586.009	323.87
586.431	358.98
586.854	340.26
587.276	354.3
587.698	284.08
588.12	347.28
588.542	293.44
588.964	274.72
589.386	277.06
589.807	307.49
590.229	293.44
590.651	288.76
591.073	279.4
591.494	272.38
591.916	277.06
592.337	387.07
592.759	361.32
593.18	286.42
593.601	326.21
594.022	305.15
594.444	335.57
594.865	300.47
595.286	351.96
595.707	347.28
596.128	328.55
596.549	309.83
596.97	330.89
597.39	328.55
597.811	298.13
598.232	274.72
598.652	316.85
599.073	335.57
599.494	321.53
599.914	291.1
600.334	312.17
600.755	253.66
601.175	300.47
601.595	382.39
602.015	354.3
602.436	274.72
602.856	457.28
603.276	358.98
603.696	281.74
604.115	333.23
604.535	312.17
604.955	267.7
605.375	312.17
605.794	344.94
606.214	263.02
606.634	256
607.053	305.15
607.473	349.62
607.892	333.23
608.311	293.44
608.731	227.91
609.15	286.42
609.569	307.49
609.988	281.74
610.407	302.81
610.826	288.76
611.245	277.06
611.664	281.74
612.083	340.26
612.501	298.13
612.92	328.55
613.339	272.38
613.757	284.08
614.176	298.13
614.594	305.15
615.013	382.39
615.431	344.94
615.85	312.17
616.268	234.93
616.686	253.66
617.104	361.32
617.522	286.42
617.94	312.17
618.358	330.89
618.776	363.66
619.194	328.55
619.612	323.87
620.03	293.44
620.447	363.66
620.865	309.83
621.282	363.66
621.7	356.64
622.117	349.62
622.535	309.83
622.952	307.49
623.369	342.6
623.787	279.4
624.204	316.85
624.621	284.08
625.038	314.51
625.455	342.6
625.872	333.23
626.289	323.87
626.706	344.94
627.123	328.55
627.539	342.6
627.956	366
628.373	281.74
628.789	408.13
629.206	316.85
629.622	361.32
630.038	307.49
630.455	298.13
630.871	295.79
631.287	375.36
631.703	305.15
632.12	361.32
632.536	305.15
632.952	314.51
633.368	321.53
633.783	333.23
634.199	356.64
634.615	272.38
635.031	239.61
635.446	293.44
635.862	263.02
636.277	298.13
636.693	415.15
637.108	380.04
637.524	405.79
637.939	387.07
638.354	258.34
638.77	251.32
639.185	319.19
639.6	321.53
640.015	274.72
640.43	295.79
640.845	356.64
641.259	330.89
641.674	335.57
642.089	274.72
642.504	305.15
642.918	312.17
643.333	382.39
643.747	347.28
644.162	321.53
644.576	375.36
644.991	284.08
645.405	328.55
645.819	340.26
646.233	354.3
646.647	335.57
647.061	293.44
647.475	302.81
647.889	354.3
648.303	337.91
648.717	295.79
649.131	326.21
649.545	363.66
649.958	263.02
650.372	284.08
650.785	309.83
651.199	337.91
651.612	239.61
652.026	363.66
652.439	344.94
652.852	344.94
653.266	340.26
653.679	389.41
654.092	337.91
654.505	319.19
654.918	281.74
655.331	316.85
655.744	361.32
656.156	321.53
656.569	344.94
656.982	396.43
657.394	375.36
657.807	295.79
658.22	358.98
658.632	248.97
659.044	354.3
659.457	298.13
659.869	342.6
660.281	256
660.693	267.7
661.106	333.23
661.518	323.87
661.93	291.1
662.342	316.85
662.754	263.02
663.165	230.25
663.577	347.28
663.989	335.57
664.401	342.6
664.812	344.94
665.224	337.91
665.635	330.89
666.047	305.15
666.458	300.47
666.869	300.47
667.281	321.53
667.692	298.13
668.103	263.02
668.514	316.85
668.925	284.08
669.336	307.49
669.747	281.74
670.158	302.81
670.569	286.42
670.979	298.13
671.39	263.02
671.801	279.4
672.211	326.21
672.622	314.51
673.032	277.06
673.443	302.81
673.853	314.51
674.263	305.15
674.674	305.15
675.084	356.64
675.494	312.17
675.904	328.55
676.314	351.96
676.724	314.51
677.134	340.26
677.544	326.21
677.953	298.13
678.363	305.15
678.773	351.96
679.182	321.53
679.592	319.19
680.001	342.6
680.411	356.64
680.82	319.19
681.23	302.81
681.639	316.85
682.048	253.66
682.457	344.94
682.866	302.81
683.275	302.81
683.684	239.61
684.093	316.85
684.502	277.06
684.911	382.39
685.32	298.13
685.728	314.51
686.137	347.28
686.546	366
686.954	309.83
687.363	408.13
687.771	309.83
688.179	344.94
688.588	344.94
688.996	368.34
689.404	291.1
689.812	274.72
690.22	277.06
690.628	314.51
691.036	321.53
691.444	326.21
691.852	270.04
692.26	272.38
692.667	309.83
693.075	288.76
693.483	333.23
693.89	272.38
694.298	321.53
694.705	368.34
695.112	314.51
695.52	295.79
695.927	298.13
696.334	354.3
696.741	321.53
697.148	248.97
697.555	347.28
697.962	272.38
698.369	323.87
698.776	326.21
699.183	314.51
699.59	298.13
699.996	321.53
700.403	272.38
700.81	347.28
701.216	253.66
701.623	305.15
702.029	284.08
702.435	326.21
702.842	330.89
703.248	298.13
703.654	342.6
704.06	288.76
704.466	361.32
704.872	298.13
705.278	309.83
705.684	351.96
706.09	337.91
706.496	314.51
706.901	291.1
707.307	349.62
707.712	305.15
708.118	307.49
708.523	309.83
708.929	307.49
709.334	316.85
709.74	370.68
710.145	272.38
710.55	326.21
710.955	291.1
711.36	323.87
711.765	351.96
712.17	326.21
712.575	300.47
712.98	841.13
713.385	356.64
713.789	319.19
714.194	370.68
714.599	284.08
715.003	323.87
715.408	288.76
715.812	307.49
716.217	309.83
716.621	293.44
717.025	295.79
717.429	366
717.833	319.19
718.238	340.26
718.642	326.21
719.046	314.51
719.449	293.44
719.853	307.49
720.257	298.13
720.661	309.83
721.065	351.96
721.468	335.57
721.872	300.47
722.275	295.79
722.679	312.17
723.082	300.47
723.485	319.19
723.889	354.3
724.292	291.1
724.695	288.76
725.098	298.13
725.501	373.02
725.904	319.19
726.307	340.26
726.71	291.1
727.113	314.51
727.516	351.96
727.918	307.49
728.321	302.81
728.724	349.62
729.126	337.91
729.529	291.1
729.931	366
730.333	340.26
730.736	293.44
731.138	312.17
731.54	344.94
731.942	312.17
732.344	326.21
732.746	316.85
733.148	302.81
733.55	342.6
733.952	377.7
734.354	351.96
734.756	370.68
735.157	326.21
735.559	267.7
735.96	316.85
736.362	305.15
736.763	361.32
737.165	314.51
737.566	277.06
737.967	323.87
738.368	272.38
738.77	328.55
739.171	328.55
739.572	319.19
739.973	319.19
740.374	326.21
740.774	340.26
741.175	288.76
741.576	330.89
741.977	312.17
742.377	291.1
742.778	279.4
743.178	295.79
743.579	377.7
743.979	363.66
744.379	302.81
744.78	366
745.18	375.36
745.58	368.34
745.98	253.66
746.38	302.81
746.78	330.89
747.18	279.4
747.58	241.95
747.98	335.57
748.38	293.44
748.779	312.17
749.179	342.6
749.578	281.74
749.978	286.42
750.377	354.3
750.777	349.62
751.176	342.6
751.575	307.49
751.975	286.42
752.374	272.38
752.773	293.44
753.172	248.97
753.571	356.64
753.97	267.7
754.369	265.36
754.768	368.34
755.166	291.1
755.565	340.26
755.964	323.87
756.362	326.21
756.761	326.21
757.159	335.57
757.558	298.13
757.956	328.55
758.354	272.38
758.753	305.15
759.151	319.19
759.549	272.38
759.947	368.34
760.345	321.53
760.743	351.96
761.141	326.21
761.539	260.68
761.936	330.89
762.334	293.44
762.732	361.32
763.129	351.96
763.527	337.91
763.924	335.57
764.322	312.17
764.719	277.06
765.117	323.87
765.514	298.13
765.911	291.1
766.308	321.53
