Data from Al_FLMS009871__596__14-46-41-316.txt Node

Date: Fri Mar 08 14:46:41 CST 2024
User: pe5414po
Spectrometer: FLMS00987
Trigger mode: 0
Integration Time (sec): 1.000000E-1
Scans to average: 1
Electric dark correction enabled: true
Nonlinearity correction enabled: false
Boxcar width: 0
XAxis mode: Wavelengths
Number of Pixels in Spectrum: 2048
>>>>>Begin Spectral Data<<<<<
188.938	-50.03
189.409	-50.03
189.879	-50.03
190.349	-92.16
190.819	-52.37
191.29	-138.97
191.76	-131.95
192.23	-66.41
192.7	-52.37
193.17	-59.39
193.64	-57.05
194.109	-5.56
194.579	-5.56
195.049	-7.9
195.519	-26.62
195.988	55.3
196.458	76.36
196.927	57.64
197.397	64.66
197.866	125.51
198.336	172.32
198.805	162.96
199.274	172.32
199.744	205.09
200.213	221.47
200.682	198.07
201.151	235.52
201.62	296.37
202.089	284.67
202.558	301.05
203.027	261.26
203.495	233.18
203.964	287.01
204.433	296.37
204.902	350.2
205.37	312.75
205.839	298.71
206.307	301.05
206.776	361.91
207.244	287.01
207.712	333.82
208.181	298.71
208.649	308.07
209.117	338.5
209.585	324.46
210.053	272.96
210.521	359.56
210.989	298.71
211.457	303.39
211.925	305.73
212.393	270.62
212.861	343.18
213.328	242.54
213.796	301.05
214.264	301.05
214.731	251.9
215.199	347.86
215.666	284.67
216.133	308.07
216.601	345.52
217.068	340.84
217.535	279.99
218.003	226.15
218.47	289.35
218.937	308.07
219.404	272.96
219.871	308.07
220.338	294.03
220.805	326.8
221.271	289.35
221.738	233.18
222.205	284.67
222.671	296.37
223.138	265.94
223.605	279.99
224.071	294.03
224.538	319.78
225.004	258.92
225.47	305.73
225.937	270.62
226.403	296.37
226.869	284.67
227.335	324.46
227.801	305.73
228.267	294.03
228.733	254.24
229.199	258.92
229.665	343.18
230.131	193.39
230.597	319.78
231.062	331.48
231.528	305.73
231.994	310.41
232.459	254.24
232.925	270.62
233.39	272.96
233.856	272.96
234.321	265.94
234.786	289.35
235.252	317.44
235.717	312.75
236.182	256.58
236.647	249.56
237.112	312.75
237.577	317.44
238.042	296.37
238.507	296.37
238.972	291.69
239.436	296.37
239.901	265.94
240.366	282.33
240.83	291.69
241.295	256.58
241.76	296.37
242.224	315.09
242.688	336.16
243.153	308.07
243.617	240.2
244.081	315.09
244.545	301.05
245.01	294.03
245.474	322.12
245.938	352.54
246.402	282.33
246.866	261.26
247.33	287.01
247.793	329.14
248.257	277.65
248.721	247.22
249.185	247.22
249.648	287.01
250.112	256.58
250.575	287.01
251.039	319.78
251.502	277.65
251.965	272.96
252.429	338.5
252.892	301.05
253.355	345.52
253.818	343.18
254.281	354.88
254.744	247.22
255.207	331.48
255.67	303.39
256.133	226.15
256.596	242.54
257.059	310.41
257.522	315.09
257.984	343.18
258.447	270.62
258.909	303.39
259.372	261.26
259.834	296.37
260.297	296.37
260.759	247.22
261.221	357.22
261.684	340.84
262.146	235.52
262.608	296.37
263.07	329.14
263.532	368.93
263.994	357.22
264.456	378.29
264.918	357.22
265.38	294.03
265.842	282.33
266.303	308.07
266.765	254.24
267.227	308.07
267.688	282.33
268.15	289.35
268.611	322.12
269.072	331.48
269.534	354.88
269.995	373.61
270.456	350.2
270.918	310.41
271.379	375.95
271.84	294.03
272.301	279.99
272.762	310.41
273.223	354.88
273.684	289.35
274.144	282.33
274.605	373.61
275.066	261.26
275.527	251.9
275.987	298.71
276.448	312.75
276.908	354.88
277.369	340.84
277.829	350.2
278.289	275.31
278.75	366.59
279.21	354.88
279.67	287.01
280.13	291.69
280.59	371.27
281.05	294.03
281.51	294.03
281.97	333.82
282.43	331.48
282.89	352.54
283.35	244.88
283.809	343.18
284.269	352.54
284.729	343.18
285.188	333.82
285.648	350.2
286.107	324.46
286.567	310.41
287.026	352.54
287.485	366.59
287.944	333.82
288.404	375.95
288.863	326.8
289.322	291.69
289.781	284.67
290.24	324.46
290.699	308.07
291.158	265.94
291.616	373.61
292.075	343.18
292.534	389.99
292.992	294.03
293.451	366.59
293.91	247.22
294.368	352.54
294.827	413.4
295.285	287.01
295.743	368.93
296.202	352.54
296.66	329.14
297.118	331.48
297.576	329.14
298.034	310.41
298.492	282.33
298.95	275.31
299.408	310.41
299.866	261.26
300.324	364.25
300.781	322.12
301.239	343.18
301.697	326.8
302.154	308.07
302.612	340.84
303.069	291.69
303.527	310.41
303.984	284.67
304.441	397.01
304.899	333.82
305.356	331.48
305.813	322.12
306.27	301.05
306.727	291.69
307.184	361.91
307.641	310.41
308.098	268.28
308.555	289.35
309.012	326.8
309.468	296.37
309.925	294.03
310.382	301.05
310.838	317.44
311.295	298.71
311.751	296.37
312.208	282.33
312.664	275.31
313.12	359.56
313.577	340.84
314.033	352.54
314.489	289.35
314.945	310.41
315.401	240.2
315.857	343.18
316.313	291.69
316.769	289.35
317.225	294.03
317.681	371.27
318.136	329.14
318.592	289.35
319.048	368.93
319.503	315.09
319.959	319.78
320.414	322.12
320.869	308.07
321.325	329.14
321.78	310.41
322.235	359.56
322.691	263.6
323.146	359.56
323.601	289.35
324.056	331.48
324.511	310.41
324.966	308.07
325.421	324.46
325.875	345.52
326.33	324.46
326.785	364.25
327.24	387.65
327.694	375.95
328.149	378.29
328.603	319.78
329.058	312.75
329.512	291.69
329.966	303.39
330.421	315.09
330.875	326.8
331.329	315.09
331.783	317.44
332.237	301.05
332.691	315.09
333.145	336.16
333.599	272.96
334.053	336.16
334.507	354.88
334.96	305.73
335.414	256.58
335.868	312.75
336.321	354.88
336.775	326.8
337.228	347.86
337.682	254.24
338.135	357.22
338.588	326.8
339.042	308.07
339.495	279.99
339.948	317.44
340.401	312.75
340.854	378.29
341.307	350.2
341.76	336.16
342.213	378.29
342.666	305.73
343.119	343.18
343.571	371.27
344.024	336.16
344.477	352.54
344.929	347.86
345.382	272.96
345.834	310.41
346.287	308.07
346.739	375.95
347.191	279.99
347.644	294.03
348.096	322.12
348.548	340.84
349	359.56
349.452	340.84
349.904	324.46
350.356	301.05
350.808	338.5
351.26	319.78
351.711	310.41
352.163	324.46
352.615	294.03
353.066	345.52
353.518	387.65
353.969	326.8
354.421	361.91
354.872	366.59
355.324	359.56
355.775	338.5
356.226	303.39
356.677	352.54
357.128	265.94
357.579	357.22
358.03	317.44
358.481	319.78
358.932	296.37
359.383	305.73
359.834	294.03
360.285	401.69
360.735	308.07
361.186	394.67
361.637	389.99
362.087	375.95
362.538	354.88
362.988	387.65
363.438	350.2
363.889	310.41
364.339	308.07
364.789	364.25
365.239	338.5
365.689	394.67
366.139	373.61
366.589	350.2
367.039	298.71
367.489	298.71
367.939	279.99
368.389	392.33
368.839	394.67
369.288	279.99
369.738	279.99
370.187	411.06
370.637	429.78
371.086	308.07
371.536	401.69
371.985	322.12
372.434	322.12
372.884	378.29
373.333	345.52
373.782	312.75
374.231	347.86
374.68	301.05
375.129	324.46
375.578	331.48
376.027	371.27
376.475	279.99
376.924	303.39
377.373	361.91
377.822	357.22
378.27	305.73
378.719	256.58
379.167	436.8
379.616	371.27
380.064	368.93
380.512	305.73
380.961	305.73
381.409	333.82
381.857	375.95
382.305	329.14
382.753	310.41
383.201	347.86
383.649	305.73
384.097	317.44
384.545	331.48
384.992	378.29
385.44	317.44
385.888	347.86
386.335	373.61
386.783	333.82
387.231	315.09
387.678	368.93
388.125	340.84
388.573	378.29
389.02	319.78
389.467	305.73
389.914	324.46
390.362	371.27
390.809	287.01
391.256	415.74
391.703	310.41
392.15	338.5
392.596	282.33
393.043	352.54
393.49	319.78
393.937	331.48
394.383	420.42
394.83	265.94
395.276	333.82
395.723	270.62
396.169	310.41
396.616	336.16
397.062	347.86
397.508	329.14
397.954	284.67
398.401	368.93
398.847	373.61
399.293	312.75
399.739	368.93
400.185	385.31
400.631	333.82
401.076	397.01
401.522	310.41
401.968	338.5
402.414	298.71
402.859	347.86
403.305	361.91
403.75	279.99
404.196	270.62
404.641	392.33
405.086	350.2
405.532	315.09
405.977	308.07
406.422	308.07
406.867	378.29
407.312	324.46
407.757	385.31
408.202	345.52
408.647	359.56
409.092	389.99
409.537	287.01
409.982	331.48
410.426	312.75
410.871	343.18
411.316	361.91
411.76	404.03
412.205	375.95
412.649	343.18
413.093	357.22
413.538	287.01
413.982	303.39
414.426	289.35
414.87	329.14
415.314	289.35
415.758	296.37
416.202	329.14
416.646	340.84
417.09	298.71
417.534	312.75
417.978	338.5
418.421	294.03
418.865	404.03
419.309	401.69
419.752	389.99
420.196	294.03
420.639	343.18
421.083	387.65
421.526	354.88
421.969	282.33
422.412	418.08
422.856	324.46
423.299	272.96
423.742	331.48
424.185	322.12
424.628	394.67
425.071	329.14
425.513	382.97
425.956	343.18
426.399	338.5
426.842	373.61
427.284	336.16
427.727	392.33
428.169	319.78
428.612	382.97
429.054	322.12
429.497	331.48
429.939	345.52
430.381	336.16
430.823	387.65
431.265	347.86
431.707	347.86
432.149	331.48
432.591	298.71
433.033	324.46
433.475	284.67
433.917	350.2
434.359	361.91
434.8	298.71
435.242	291.69
435.684	291.69
436.125	380.63
436.567	361.91
437.008	401.69
437.449	340.84
437.891	350.2
438.332	296.37
438.773	310.41
439.214	289.35
439.656	352.54
440.097	329.14
440.538	315.09
440.978	359.56
441.419	303.39
441.86	343.18
442.301	312.75
442.742	329.14
443.182	343.18
443.623	244.88
444.063	305.73
444.504	347.86
444.944	364.25
445.385	282.33
445.825	308.07
446.265	366.59
446.706	340.84
447.146	331.48
447.586	303.39
448.026	373.61
448.466	326.8
448.906	291.69
449.346	287.01
449.786	277.65
450.225	373.61
450.665	275.31
451.105	289.35
451.544	343.18
451.984	333.82
452.424	308.07
452.863	361.91
453.302	326.8
453.742	357.22
454.181	319.78
454.62	312.75
455.059	366.59
455.499	378.29
455.938	340.84
456.377	401.69
456.816	301.05
457.254	279.99
457.693	357.22
458.132	291.69
458.571	354.88
459.01	317.44
459.448	373.61
459.887	312.75
460.325	340.84
460.764	317.44
461.202	233.18
461.641	359.56
462.079	315.09
462.517	277.65
462.955	270.62
463.393	368.93
463.832	319.78
464.27	263.6
464.708	371.27
465.145	317.44
465.583	343.18
466.021	340.84
466.459	382.97
466.897	338.5
467.334	331.48
467.772	352.54
468.209	352.54
468.647	359.56
469.084	322.12
469.522	413.4
469.959	385.31
470.396	296.37
470.833	338.5
471.271	343.18
471.708	373.61
472.145	401.69
472.582	254.24
473.019	378.29
473.456	310.41
473.892	368.93
474.329	350.2
474.766	312.75
475.202	291.69
475.639	275.31
476.076	343.18
476.512	338.5
476.949	371.27
477.385	382.97
477.821	282.33
478.258	305.73
478.694	340.84
479.13	357.22
479.566	298.71
480.002	331.48
480.438	287.01
480.874	357.22
481.31	308.07
481.746	322.12
482.181	366.59
482.617	319.78
483.053	340.84
483.488	317.44
483.924	371.27
484.36	354.88
484.795	336.16
485.23	380.63
485.666	350.2
486.101	389.99
486.536	331.48
486.971	354.88
487.407	333.82
487.842	296.37
488.277	357.22
488.712	352.54
489.146	279.99
489.581	380.63
490.016	329.14
490.451	294.03
490.885	282.33
491.32	322.12
491.755	380.63
492.189	331.48
492.624	352.54
493.058	294.03
493.492	385.31
493.927	338.5
494.361	333.82
494.795	361.91
495.229	301.05
495.663	364.25
496.097	303.39
496.531	310.41
496.965	333.82
497.399	322.12
497.833	284.67
498.266	352.54
498.7	354.88
499.134	319.78
499.567	310.41
500.001	301.05
500.434	338.5
500.868	336.16
501.301	350.2
501.734	308.07
502.168	284.67
502.601	397.01
503.034	261.26
503.467	338.5
503.9	331.48
504.333	301.05
504.766	324.46
505.199	373.61
505.632	387.65
506.064	277.65
506.497	289.35
506.93	287.01
507.362	354.88
507.795	361.91
508.227	329.14
508.66	308.07
509.092	319.78
509.524	322.12
509.956	324.46
510.389	294.03
510.821	326.8
511.253	331.48
511.685	338.5
512.117	315.09
512.549	315.09
512.981	279.99
513.412	361.91
513.844	322.12
514.276	394.67
514.707	366.59
515.139	326.8
515.571	315.09
516.002	343.18
516.433	340.84
516.865	326.8
517.296	308.07
517.727	366.59
518.159	296.37
518.59	347.86
519.021	354.88
519.452	429.78
519.883	308.07
520.314	366.59
520.744	312.75
521.175	373.61
521.606	308.07
522.037	294.03
522.467	265.94
522.898	343.18
523.328	340.84
523.759	340.84
524.189	282.33
524.62	338.5
525.05	357.22
525.48	347.86
525.91	385.31
526.341	373.61
526.771	354.88
527.201	317.44
527.631	392.33
528.061	340.84
528.49	340.84
528.92	345.52
529.35	350.2
529.78	331.48
530.209	282.33
530.639	287.01
531.068	322.12
531.498	371.27
531.927	357.22
532.357	345.52
532.786	343.18
533.215	333.82
533.644	329.14
534.074	364.25
534.503	411.06
534.932	352.54
535.361	333.82
535.79	378.29
536.218	322.12
536.647	350.2
537.076	371.27
537.505	301.05
537.933	319.78
538.362	352.54
538.79	343.18
539.219	371.27
539.647	350.2
540.076	368.93
540.504	352.54
540.932	329.14
541.36	310.41
541.788	329.14
542.217	296.37
542.645	338.5
543.073	322.12
543.5	298.71
543.928	364.25
544.356	329.14
544.784	354.88
545.211	310.41
545.639	312.75
546.067	303.39
546.494	294.03
546.922	308.07
547.349	336.16
547.776	389.99
548.204	329.14
548.631	329.14
549.058	350.2
549.485	294.03
549.912	249.56
550.339	392.33
550.766	308.07
551.193	347.86
551.62	282.33
552.047	380.63
552.474	289.35
552.9	354.88
553.327	350.2
553.754	317.44
554.18	305.73
554.607	256.58
555.033	298.71
555.459	366.59
555.886	279.99
556.312	357.22
556.738	357.22
557.164	340.84
557.59	312.75
558.016	331.48
558.442	331.48
558.868	345.52
559.294	310.41
559.72	404.03
560.145	338.5
560.571	357.22
560.997	312.75
561.422	345.52
561.848	322.12
562.273	368.93
562.699	322.12
563.124	343.18
563.549	336.16
563.974	315.09
564.4	333.82
564.825	272.96
565.25	366.59
565.675	397.01
566.1	315.09
566.525	375.95
566.95	279.99
567.374	289.35
567.799	324.46
568.224	338.5
568.648	326.8
569.073	308.07
569.497	340.84
569.922	389.99
570.346	345.52
570.771	312.75
571.195	289.35
571.619	343.18
572.043	366.59
572.467	312.75
572.891	357.22
573.315	350.2
573.739	305.73
574.163	378.29
574.587	319.78
575.011	312.75
575.435	254.24
575.858	380.63
576.282	338.5
576.705	317.44
577.129	329.14
577.552	368.93
577.976	380.63
578.399	354.88
578.822	326.8
579.245	345.52
579.669	408.72
580.092	352.54
580.515	326.8
580.938	345.52
581.361	336.16
581.784	310.41
582.206	375.95
582.629	364.25
583.052	312.75
583.474	326.8
583.897	317.44
584.32	294.03
584.742	298.71
585.165	375.95
585.587	289.35
586.009	378.29
586.431	347.86
586.854	317.44
587.276	373.61
587.698	312.75
588.12	310.41
588.542	289.35
588.964	336.16
589.386	289.35
589.807	315.09
590.229	308.07
590.651	289.35
591.073	331.48
591.494	350.2
591.916	305.73
592.337	298.71
592.759	331.48
593.18	343.18
593.601	305.73
594.022	352.54
594.444	312.75
594.865	366.59
595.286	282.33
595.707	305.73
596.128	352.54
596.549	244.88
596.97	336.16
597.39	331.48
597.811	287.01
598.232	338.5
598.652	331.48
599.073	336.16
599.494	296.37
599.914	389.99
600.334	322.12
600.755	329.14
601.175	336.16
601.595	319.78
602.015	371.27
602.436	296.37
602.856	457.87
603.276	350.2
603.696	340.84
604.115	291.69
604.535	310.41
604.955	303.39
605.375	329.14
605.794	296.37
606.214	373.61
606.634	378.29
607.053	347.86
607.473	368.93
607.892	371.27
608.311	308.07
608.731	385.31
609.15	322.12
609.569	329.14
609.988	366.59
610.407	354.88
610.826	392.33
611.245	366.59
611.664	298.71
612.083	303.39
612.501	368.93
612.92	340.84
613.339	275.31
613.757	298.71
614.176	343.18
614.594	380.63
615.013	282.33
615.431	347.86
615.85	392.33
616.268	329.14
616.686	301.05
617.104	378.29
617.522	350.2
617.94	345.52
618.358	303.39
618.776	303.39
619.194	352.54
619.612	338.5
620.03	294.03
620.447	343.18
620.865	277.65
621.282	301.05
621.7	308.07
622.117	310.41
622.535	389.99
622.952	301.05
623.369	247.22
623.787	378.29
624.204	294.03
624.621	338.5
625.038	354.88
625.455	371.27
625.872	324.46
626.289	310.41
626.706	270.62
627.123	312.75
627.539	343.18
627.956	389.99
628.373	326.8
628.789	345.52
629.206	296.37
629.622	343.18
630.038	375.95
630.455	308.07
630.871	345.52
631.287	338.5
631.703	319.78
632.12	265.94
632.536	326.8
632.952	350.2
633.368	317.44
633.783	354.88
634.199	329.14
634.615	350.2
635.031	310.41
635.446	312.75
635.862	382.97
636.277	415.74
636.693	338.5
637.108	345.52
637.524	413.4
637.939	336.16
638.354	361.91
638.77	317.44
639.185	359.56
639.6	336.16
640.015	364.25
640.43	333.82
640.845	378.29
641.259	301.05
641.674	340.84
642.089	364.25
642.504	329.14
642.918	352.54
643.333	345.52
643.747	301.05
644.162	294.03
644.576	345.52
644.991	272.96
645.405	298.71
645.819	364.25
646.233	287.01
646.647	364.25
647.061	368.93
647.475	336.16
647.889	368.93
648.303	272.96
648.717	345.52
649.131	240.2
649.545	359.56
649.958	272.96
650.372	378.29
650.785	331.48
651.199	329.14
651.612	296.37
652.026	378.29
652.439	352.54
652.852	287.01
653.266	322.12
653.679	343.18
654.092	305.73
654.505	301.05
654.918	361.91
655.331	347.86
655.744	324.46
656.156	319.78
656.569	317.44
656.982	357.22
657.394	270.62
657.807	315.09
658.22	312.75
658.632	308.07
659.044	312.75
659.457	359.56
659.869	305.73
660.281	333.82
660.693	340.84
661.106	371.27
661.518	272.96
661.93	296.37
662.342	305.73
662.754	343.18
663.165	333.82
663.577	308.07
663.989	315.09
664.401	366.59
664.812	319.78
665.224	347.86
665.635	340.84
666.047	347.86
666.458	322.12
666.869	354.88
667.281	354.88
667.692	343.18
668.103	331.48
668.514	371.27
668.925	354.88
669.336	322.12
669.747	371.27
670.158	371.27
670.569	319.78
670.979	387.65
671.39	315.09
671.801	413.4
672.211	296.37
672.622	354.88
673.032	352.54
673.443	347.86
673.853	294.03
674.263	347.86
674.674	364.25
675.084	287.01
675.494	326.8
675.904	366.59
676.314	331.48
676.724	322.12
677.134	404.03
677.544	336.16
677.953	308.07
678.363	333.82
678.773	371.27
679.182	326.8
679.592	354.88
680.001	322.12
680.411	296.37
680.82	333.82
681.23	340.84
681.639	326.8
682.048	375.95
682.457	329.14
682.866	254.24
683.275	272.96
683.684	350.2
684.093	406.38
684.502	359.56
684.911	387.65
685.32	340.84
685.728	310.41
686.137	333.82
686.546	366.59
686.954	366.59
687.363	310.41
687.771	317.44
688.179	371.27
688.588	382.97
688.996	322.12
689.404	298.71
689.812	336.16
690.22	343.18
690.628	317.44
691.036	338.5
691.444	326.8
691.852	368.93
692.26	296.37
692.667	326.8
693.075	326.8
693.483	317.44
693.89	324.46
694.298	371.27
694.705	326.8
695.112	340.84
695.52	345.52
695.927	324.46
696.334	319.78
696.741	359.56
697.148	347.86
697.555	294.03
697.962	357.22
698.369	242.54
698.776	333.82
699.183	219.13
699.59	361.91
699.996	312.75
700.403	345.52
700.81	357.22
701.216	338.5
701.623	333.82
702.029	338.5
702.435	373.61
702.842	345.52
703.248	373.61
703.654	343.18
704.06	284.67
704.466	308.07
704.872	336.16
705.278	308.07
705.684	338.5
706.09	357.22
706.496	298.71
706.901	336.16
707.307	340.84
707.712	228.49
708.118	354.88
708.523	382.97
708.929	415.74
709.334	357.22
709.74	357.22
710.145	354.88
710.55	326.8
710.955	324.46
711.36	322.12
711.765	345.52
712.17	331.48
712.575	326.8
712.98	787.88
713.385	305.73
713.789	279.99
714.194	301.05
714.599	294.03
715.003	284.67
715.408	305.73
715.812	359.56
716.217	373.61
716.621	338.5
717.025	333.82
717.429	338.5
717.833	380.63
718.238	294.03
718.642	387.65
719.046	347.86
719.449	294.03
719.853	394.67
720.257	338.5
720.661	333.82
721.065	378.29
721.468	319.78
721.872	322.12
722.275	359.56
722.679	305.73
723.082	352.54
723.485	275.31
723.889	394.67
724.292	357.22
724.695	296.37
725.098	319.78
725.501	254.24
725.904	331.48
726.307	340.84
726.71	319.78
727.113	378.29
727.516	336.16
727.918	375.95
728.321	343.18
728.724	308.07
729.126	305.73
729.529	331.48
729.931	364.25
730.333	333.82
730.736	322.12
731.138	361.91
731.54	282.33
731.942	303.39
732.344	333.82
732.746	366.59
733.148	310.41
733.55	284.67
733.952	315.09
734.354	333.82
734.756	340.84
735.157	326.8
735.559	361.91
735.96	371.27
736.362	385.31
736.763	315.09
737.165	340.84
737.566	399.35
737.967	357.22
738.368	340.84
738.77	380.63
739.171	380.63
739.572	408.72
739.973	364.25
740.374	357.22
740.774	315.09
741.175	315.09
741.576	399.35
741.977	364.25
742.377	228.49
742.778	385.31
743.178	301.05
743.579	343.18
743.979	308.07
744.379	333.82
744.78	322.12
745.18	359.56
745.58	324.46
745.98	303.39
746.38	291.69
746.78	385.31
747.18	380.63
747.58	333.82
747.98	291.69
748.38	387.65
748.779	364.25
749.179	319.78
749.578	343.18
749.978	336.16
750.377	301.05
750.777	317.44
751.176	340.84
751.575	254.24
751.975	303.39
752.374	350.2
752.773	378.29
753.172	385.31
753.571	359.56
753.97	338.5
754.369	343.18
754.768	315.09
755.166	317.44
755.565	366.59
755.964	378.29
756.362	347.86
756.761	333.82
757.159	359.56
757.558	345.52
757.956	333.82
758.354	359.56
758.753	305.73
759.151	389.99
759.549	382.97
759.947	404.03
760.345	333.82
760.743	310.41
761.141	343.18
761.539	317.44
761.936	298.71
762.334	324.46
762.732	326.8
763.129	338.5
763.527	350.2
763.924	359.56
764.322	338.5
