Data from Al_FLMS009871__1217__16-42-07-479.txt Node

Date: Fri Mar 08 16:42:07 CST 2024
User: pe5414po
Spectrometer: FLMS00987
Trigger mode: 0
Integration Time (sec): 1.000000E-1
Scans to average: 1
Electric dark correction enabled: true
Nonlinearity correction enabled: false
Boxcar width: 0
XAxis mode: Wavelengths
Number of Pixels in Spectrum: 2048
>>>>>Begin Spectral Data<<<<<
188.938	-73.73
189.409	-73.73
189.879	-73.73
190.349	-132.24
190.819	-125.22
191.29	-40.96
191.76	-19.89
192.23	-66.71
192.7	-66.71
193.17	-57.34
193.64	-57.34
194.109	-1.17
194.579	-5.85
195.049	-38.62
195.519	-15.21
195.988	12.87
196.458	31.6
196.927	43.3
197.397	12.87
197.866	127.56
198.336	141.6
198.805	155.65
199.274	115.86
199.744	202.46
200.213	209.48
200.682	225.86
201.151	270.33
201.62	230.54
202.089	260.97
202.558	249.27
203.027	267.99
203.495	204.8
203.964	279.69
204.433	270.33
204.902	321.82
205.37	326.5
205.839	293.74
206.307	289.06
206.776	275.01
207.244	291.4
207.712	326.5
208.181	291.4
208.649	331.19
209.117	300.76
209.585	291.4
210.053	331.19
210.521	244.59
210.989	333.53
211.457	305.44
211.925	300.76
212.393	300.76
212.861	267.99
213.328	317.14
213.796	317.14
214.264	267.99
214.731	277.35
215.199	284.38
215.666	186.07
216.133	312.46
216.601	275.01
217.068	303.1
217.535	267.99
218.003	260.97
218.47	249.27
218.937	286.72
219.404	272.67
219.871	242.25
220.338	270.33
220.805	260.97
221.271	303.1
221.738	300.76
222.205	279.69
222.671	312.46
223.138	289.06
223.605	225.86
224.071	272.67
224.538	251.61
225.004	193.09
225.47	293.74
225.937	296.08
226.403	216.5
226.869	242.25
227.335	321.82
227.801	263.31
228.267	237.56
228.733	272.67
229.199	289.06
229.665	300.76
230.131	258.63
230.597	286.72
231.062	282.03
231.528	256.29
231.994	263.31
232.459	270.33
232.925	279.69
233.39	244.59
233.856	291.4
234.321	286.72
234.786	260.97
235.252	331.19
235.717	221.18
236.182	249.27
236.647	284.38
237.112	321.82
237.577	338.21
238.042	326.5
238.507	303.1
238.972	277.35
239.436	207.14
239.901	324.16
240.366	293.74
240.83	277.35
241.295	345.23
241.76	291.4
242.224	293.74
242.688	338.21
243.153	293.74
243.617	242.25
244.081	291.4
244.545	342.89
245.01	338.21
245.474	333.53
245.938	289.06
246.402	286.72
246.866	354.59
247.33	366.29
247.793	293.74
248.257	209.48
248.721	270.33
249.185	312.46
249.648	300.76
250.112	282.03
250.575	328.85
251.039	237.56
251.502	286.72
251.965	258.63
252.429	291.4
252.892	253.95
253.355	352.25
253.818	275.01
254.281	335.87
254.744	347.57
255.207	291.4
255.67	265.65
256.133	324.16
256.596	312.46
257.059	286.72
257.522	310.12
257.984	282.03
258.447	331.19
258.909	338.21
259.372	270.33
259.834	305.44
260.297	338.21
260.759	314.8
261.221	324.16
261.684	303.1
262.146	321.82
262.608	277.35
263.07	256.29
263.532	298.42
263.994	324.16
264.456	356.93
264.918	312.46
265.38	230.54
265.842	303.1
266.303	368.63
266.765	305.44
267.227	319.48
267.688	256.29
268.15	296.08
268.611	319.48
269.072	298.42
269.534	319.48
269.995	347.57
270.456	298.42
270.918	324.16
271.379	279.69
271.84	333.53
272.301	319.48
272.762	335.87
273.223	289.06
273.684	312.46
274.144	335.87
274.605	249.27
275.066	237.56
275.527	289.06
275.987	324.16
276.448	260.97
276.908	326.5
277.369	277.35
277.829	335.87
278.289	382.68
278.75	363.95
279.21	284.38
279.67	265.65
280.13	289.06
280.59	354.59
281.05	331.19
281.51	300.76
281.97	361.61
282.43	340.55
282.89	317.14
283.35	296.08
283.809	361.61
284.269	307.78
284.729	267.99
285.188	251.61
285.648	326.5
286.107	307.78
286.567	237.56
287.026	335.87
287.485	317.14
287.944	317.14
288.404	317.14
288.863	314.8
289.322	340.55
289.781	321.82
290.24	326.5
290.699	331.19
291.158	307.78
291.616	319.48
292.075	305.44
292.534	354.59
292.992	272.67
293.451	270.33
293.91	310.12
294.368	326.5
294.827	345.23
295.285	286.72
295.743	298.42
296.202	352.25
296.66	275.01
297.118	298.42
297.576	298.42
298.034	349.91
298.492	335.87
298.95	286.72
299.408	256.29
299.866	284.38
300.324	296.08
300.781	429.49
301.239	359.27
301.697	291.4
302.154	291.4
302.612	363.95
303.069	279.69
303.527	314.8
303.984	347.57
304.441	366.29
304.899	279.69
305.356	349.91
305.813	279.69
306.27	333.53
306.727	356.93
307.184	270.33
307.641	230.54
308.098	335.87
308.555	307.78
309.012	277.35
309.468	307.78
309.925	303.1
310.382	289.06
310.838	349.91
311.295	317.14
311.751	331.19
312.208	328.85
312.664	340.55
313.12	356.93
313.577	293.74
314.033	356.93
314.489	291.4
314.945	324.16
315.401	324.16
315.857	328.85
316.313	314.8
316.769	333.53
317.225	335.87
317.681	392.04
318.136	282.03
318.592	345.23
319.048	326.5
319.503	298.42
319.959	312.46
320.414	342.89
320.869	303.1
321.325	284.38
321.78	359.27
322.235	286.72
322.691	312.46
323.146	258.63
323.601	342.89
324.056	277.35
324.511	289.06
324.966	300.76
325.421	331.19
325.875	289.06
326.33	345.23
326.785	373.32
327.24	291.4
327.694	305.44
328.149	293.74
328.603	345.23
329.058	270.33
329.512	347.57
329.966	340.55
330.421	286.72
330.875	349.91
331.329	298.42
331.783	291.4
332.237	319.48
332.691	345.23
333.145	282.03
333.599	307.78
334.053	347.57
334.507	361.61
334.96	387.36
335.414	328.85
335.868	335.87
336.321	385.02
336.775	312.46
337.228	328.85
337.682	352.25
338.135	321.82
338.588	328.85
339.042	314.8
339.495	286.72
339.948	340.55
340.401	389.7
340.854	296.08
341.307	293.74
341.76	349.91
342.213	305.44
342.666	354.59
343.119	298.42
343.571	328.85
344.024	310.12
344.477	359.27
344.929	265.65
345.382	345.23
345.834	286.72
346.287	267.99
346.739	314.8
347.191	300.76
347.644	349.91
348.096	307.78
348.548	298.42
349	354.59
349.452	347.57
349.904	408.42
350.356	345.23
350.808	317.14
351.26	307.78
351.711	282.03
352.163	279.69
352.615	312.46
353.066	349.91
353.518	312.46
353.969	310.12
354.421	275.01
354.872	352.25
355.324	356.93
355.775	375.66
356.226	338.21
356.677	314.8
357.128	312.46
357.579	347.57
358.03	324.16
358.481	328.85
358.932	303.1
359.383	291.4
359.834	314.8
360.285	345.23
360.735	319.48
361.186	333.53
361.637	356.93
362.087	289.06
362.538	359.27
362.988	314.8
363.438	284.38
363.889	352.25
364.339	354.59
364.789	356.93
365.239	298.42
365.689	296.08
366.139	368.63
366.589	293.74
367.039	408.42
367.489	317.14
367.939	270.33
368.389	267.99
368.839	389.7
369.288	312.46
369.738	340.55
370.187	368.63
370.637	335.87
371.086	279.69
371.536	356.93
371.985	338.21
372.434	291.4
372.884	359.27
373.333	349.91
373.782	366.29
374.231	314.8
374.68	286.72
375.129	342.89
375.578	333.53
376.027	342.89
376.475	303.1
376.924	373.32
377.373	331.19
377.822	415.45
378.27	363.95
378.719	314.8
379.167	378
379.616	347.57
380.064	328.85
380.512	246.93
380.961	321.82
381.409	333.53
381.857	385.02
382.305	310.12
382.753	286.72
383.201	267.99
383.649	326.5
384.097	347.57
384.545	300.76
384.992	321.82
385.44	373.32
385.888	335.87
386.335	310.12
386.783	370.97
387.231	328.85
387.678	307.78
388.125	335.87
388.573	291.4
389.02	345.23
389.467	272.67
389.914	340.55
390.362	326.5
390.809	342.89
391.256	349.91
391.703	305.44
392.15	324.16
392.596	373.32
393.043	312.46
393.49	319.48
393.937	359.27
394.383	340.55
394.83	312.46
395.276	328.85
395.723	282.03
396.169	380.34
396.616	277.35
397.062	319.48
397.508	300.76
397.954	342.89
398.401	270.33
398.847	317.14
399.293	347.57
399.739	380.34
400.185	382.68
400.631	312.46
401.076	279.69
401.522	314.8
401.968	260.97
402.414	340.55
402.859	300.76
403.305	312.46
403.75	359.27
404.196	298.42
404.641	361.61
405.086	361.61
405.532	305.44
405.977	338.21
406.422	331.19
406.867	345.23
407.312	349.91
407.757	363.95
408.202	385.02
408.647	310.12
409.092	303.1
409.537	314.8
409.982	317.14
410.426	305.44
410.871	305.44
411.316	296.08
411.76	359.27
412.205	331.19
412.649	312.46
413.093	312.46
413.538	354.59
413.982	356.93
414.426	328.85
414.87	310.12
415.314	333.53
415.758	293.74
416.202	347.57
416.646	333.53
417.09	333.53
417.534	349.91
417.978	310.12
418.421	296.08
418.865	312.46
419.309	349.91
419.752	328.85
420.196	338.21
420.639	298.42
421.083	314.8
421.526	338.21
421.969	272.67
422.412	328.85
422.856	289.06
423.299	256.29
423.742	370.97
424.185	370.97
424.628	310.12
425.071	293.74
425.513	239.9
425.956	363.95
426.399	326.5
426.842	347.57
427.284	333.53
427.727	321.82
428.169	382.68
428.612	335.87
429.054	324.16
429.497	321.82
429.939	314.8
430.381	312.46
430.823	312.46
431.265	345.23
431.707	356.93
432.149	359.27
432.591	291.4
433.033	277.35
433.475	359.27
433.917	314.8
434.359	352.25
434.8	328.85
435.242	363.95
435.684	328.85
436.125	349.91
436.567	312.46
437.008	380.34
437.449	293.74
437.891	366.29
438.332	324.16
438.773	328.85
439.214	284.38
439.656	342.89
440.097	356.93
440.538	354.59
440.978	324.16
441.419	267.99
441.86	298.42
442.301	319.48
442.742	378
443.182	363.95
443.623	340.55
444.063	317.14
444.504	305.44
444.944	324.16
445.385	378
445.825	314.8
446.265	331.19
446.706	340.55
447.146	289.06
447.586	324.16
448.026	354.59
448.466	314.8
448.906	333.53
449.346	279.69
449.786	279.69
450.225	340.55
450.665	317.14
451.105	359.27
451.544	307.78
451.984	340.55
452.424	338.21
452.863	298.42
453.302	296.08
453.742	293.74
454.181	370.97
454.62	263.31
455.059	303.1
455.499	307.78
455.938	282.03
456.377	363.95
456.816	314.8
457.254	385.02
457.693	331.19
458.132	296.08
458.571	326.5
459.01	289.06
459.448	333.53
459.887	319.48
460.325	345.23
460.764	265.65
461.202	368.63
461.641	312.46
462.079	342.89
462.517	317.14
462.955	375.66
463.393	380.34
463.832	333.53
464.27	359.27
464.708	326.5
465.145	286.72
465.583	307.78
466.021	396.72
466.459	296.08
466.897	335.87
467.334	331.19
467.772	317.14
468.209	328.85
468.647	303.1
469.084	307.78
469.522	366.29
469.959	363.95
470.396	347.57
470.833	324.16
471.271	321.82
471.708	366.29
472.145	275.01
472.582	305.44
473.019	354.59
473.456	314.8
473.892	333.53
474.329	286.72
474.766	298.42
475.202	368.63
475.639	312.46
476.076	270.33
476.512	326.5
476.949	326.5
477.385	352.25
477.821	328.85
478.258	335.87
478.694	354.59
479.13	298.42
479.566	378
480.002	300.76
480.438	368.63
480.874	349.91
481.31	289.06
481.746	300.76
482.181	319.48
482.617	310.12
483.053	319.48
483.488	317.14
483.924	314.8
484.36	324.16
484.795	328.85
485.23	282.03
485.666	354.59
486.101	312.46
486.536	312.46
486.971	333.53
487.407	263.31
487.842	363.95
488.277	361.61
488.712	319.48
489.146	321.82
489.581	347.57
490.016	303.1
490.451	354.59
490.885	347.57
491.32	352.25
491.755	333.53
492.189	300.76
492.624	326.5
493.058	319.48
493.492	368.63
493.927	378
494.361	310.12
494.795	340.55
495.229	399.06
495.663	333.53
496.097	333.53
496.531	361.61
496.965	380.34
497.399	331.19
497.833	289.06
498.266	373.32
498.7	349.91
499.134	378
499.567	352.25
500.001	349.91
500.434	326.5
500.868	394.38
501.301	314.8
501.734	345.23
502.168	370.97
502.601	275.01
503.034	277.35
503.467	256.29
503.9	289.06
504.333	307.78
504.766	310.12
505.199	284.38
505.632	366.29
506.064	373.32
506.497	354.59
506.93	338.21
507.362	342.89
507.795	361.61
508.227	326.5
508.66	368.63
509.092	333.53
509.524	307.78
509.956	340.55
510.389	284.38
510.821	347.57
511.253	345.23
511.685	378
512.117	319.48
512.549	305.44
512.981	300.76
513.412	321.82
513.844	333.53
514.276	352.25
514.707	349.91
515.139	300.76
515.571	338.21
516.002	349.91
516.433	373.32
516.865	380.34
517.296	333.53
517.727	347.57
518.159	403.74
518.59	317.14
519.021	345.23
519.452	345.23
519.883	328.85
520.314	328.85
520.744	387.36
521.175	382.68
521.606	307.78
522.037	267.99
522.467	380.34
522.898	352.25
523.328	354.59
523.759	321.82
524.189	335.87
524.62	303.1
525.05	452.89
525.48	289.06
525.91	291.4
526.341	265.65
526.771	347.57
527.201	375.66
527.631	312.46
528.061	380.34
528.49	282.03
528.92	319.48
529.35	394.38
529.78	347.57
530.209	321.82
530.639	235.22
531.068	328.85
531.498	338.21
531.927	324.16
532.357	314.8
532.786	296.08
533.215	291.4
533.644	305.44
534.074	340.55
534.503	279.69
534.932	373.32
535.361	333.53
535.79	345.23
536.218	310.12
536.647	298.42
537.076	354.59
537.505	312.46
537.933	345.23
538.362	342.89
538.79	321.82
539.219	335.87
539.647	361.61
540.076	326.5
540.504	307.78
540.932	399.06
541.36	312.46
541.788	331.19
542.217	359.27
542.645	378
543.073	392.04
543.5	310.12
543.928	328.85
544.356	342.89
544.784	347.57
545.211	335.87
545.639	310.12
546.067	324.16
546.494	363.95
546.922	342.89
547.349	345.23
547.776	286.72
548.204	307.78
548.631	307.78
549.058	326.5
549.485	359.27
549.912	317.14
550.339	354.59
550.766	303.1
551.193	349.91
551.62	403.74
552.047	326.5
552.474	340.55
552.9	221.18
553.327	296.08
553.754	352.25
554.18	326.5
554.607	356.93
555.033	331.19
555.459	321.82
555.886	345.23
556.312	340.55
556.738	324.16
557.164	333.53
557.59	352.25
558.016	289.06
558.442	314.8
558.868	340.55
559.294	289.06
559.72	373.32
560.145	382.68
560.571	321.82
560.997	282.03
561.422	349.91
561.848	298.42
562.273	321.82
562.699	277.35
563.124	291.4
563.549	333.53
563.974	368.63
564.4	385.02
564.825	312.46
565.25	300.76
565.675	345.23
566.1	385.02
566.525	380.34
566.95	366.29
567.374	361.61
567.799	392.04
568.224	356.93
568.648	326.5
569.073	305.44
569.497	275.01
569.922	331.19
570.346	300.76
570.771	256.29
571.195	378
571.619	370.97
572.043	310.12
572.467	319.48
572.891	338.21
573.315	338.21
573.739	326.5
574.163	300.76
574.587	277.35
575.011	356.93
575.435	267.99
575.858	340.55
576.282	328.85
576.705	378
577.129	361.61
577.552	382.68
577.976	277.35
578.399	361.61
578.822	352.25
579.245	321.82
579.669	368.63
580.092	317.14
580.515	392.04
580.938	293.74
581.361	296.08
581.784	352.25
582.206	321.82
582.629	363.95
583.052	319.48
583.474	363.95
583.897	312.46
584.32	328.85
584.742	284.38
585.165	300.76
585.587	363.95
586.009	375.66
586.431	403.74
586.854	347.57
587.276	319.48
587.698	363.95
588.12	342.89
588.542	356.93
588.964	310.12
589.386	333.53
589.807	312.46
590.229	279.69
590.651	333.53
591.073	296.08
591.494	326.5
591.916	333.53
592.337	359.27
592.759	303.1
593.18	321.82
593.601	382.68
594.022	359.27
594.444	361.61
594.865	403.74
595.286	305.44
595.707	345.23
596.128	385.02
596.549	317.14
596.97	347.57
597.39	340.55
597.811	429.49
598.232	385.02
598.652	317.14
599.073	380.34
599.494	347.57
599.914	363.95
600.334	263.31
600.755	373.32
601.175	363.95
601.595	310.12
602.015	378
602.436	394.38
602.856	434.17
603.276	317.14
603.696	272.67
604.115	272.67
604.535	291.4
604.955	324.16
605.375	317.14
605.794	258.63
606.214	385.02
606.634	370.97
607.053	307.78
607.473	420.13
607.892	359.27
608.311	361.61
608.731	335.87
609.15	354.59
609.569	275.01
609.988	338.21
610.407	326.5
610.826	345.23
611.245	303.1
611.664	328.85
612.083	389.7
612.501	275.01
612.92	289.06
613.339	380.34
613.757	347.57
614.176	246.93
614.594	319.48
615.013	349.91
615.431	312.46
615.85	333.53
616.268	333.53
616.686	291.4
617.104	347.57
617.522	342.89
617.94	317.14
618.358	368.63
618.776	319.48
619.194	375.66
619.612	373.32
620.03	284.38
620.447	352.25
620.865	347.57
621.282	305.44
621.7	363.95
622.117	338.21
622.535	326.5
622.952	305.44
623.369	349.91
623.787	312.46
624.204	333.53
624.621	354.59
625.038	284.38
625.455	413.1
625.872	333.53
626.289	340.55
626.706	298.42
627.123	310.12
627.539	370.97
627.956	284.38
628.373	310.12
628.789	312.46
629.206	305.44
629.622	312.46
630.038	272.67
630.455	338.21
630.871	324.16
631.287	354.59
631.703	314.8
632.12	314.8
632.536	314.8
632.952	340.55
633.368	289.06
633.783	312.46
634.199	289.06
634.615	368.63
635.031	305.44
635.446	345.23
635.862	319.48
636.277	321.82
636.693	282.03
637.108	284.38
637.524	382.68
637.939	394.38
638.354	310.12
638.77	286.72
639.185	333.53
639.6	312.46
640.015	347.57
640.43	319.48
640.845	256.29
641.259	307.78
641.674	342.89
642.089	282.03
642.504	342.89
642.918	356.93
643.333	265.65
643.747	331.19
644.162	253.95
644.576	354.59
644.991	361.61
645.405	291.4
645.819	328.85
646.233	380.34
646.647	359.27
647.061	354.59
647.475	408.42
647.889	296.08
648.303	303.1
648.717	370.97
649.131	359.27
649.545	312.46
649.958	382.68
650.372	385.02
650.785	349.91
651.199	314.8
651.612	296.08
652.026	340.55
652.439	314.8
652.852	291.4
653.266	326.5
653.679	275.01
654.092	300.76
654.505	345.23
654.918	366.29
655.331	317.14
655.744	380.34
656.156	366.29
656.569	354.59
656.982	366.29
657.394	349.91
657.807	335.87
658.22	375.66
658.632	373.32
659.044	380.34
659.457	370.97
659.869	326.5
660.281	230.54
660.693	265.65
661.106	354.59
661.518	289.06
661.93	349.91
662.342	340.55
662.754	375.66
663.165	345.23
663.577	317.14
663.989	324.16
664.401	356.93
664.812	370.97
665.224	345.23
665.635	307.78
666.047	340.55
666.458	314.8
666.869	326.5
667.281	326.5
667.692	303.1
668.103	296.08
668.514	321.82
668.925	345.23
669.336	298.42
669.747	272.67
670.158	382.68
670.569	305.44
670.979	270.33
671.39	275.01
671.801	347.57
672.211	340.55
672.622	387.36
673.032	349.91
673.443	244.59
673.853	314.8
674.263	314.8
674.674	347.57
675.084	310.12
675.494	342.89
675.904	307.78
676.314	340.55
676.724	319.48
677.134	267.99
677.544	349.91
677.953	321.82
678.363	324.16
678.773	361.61
679.182	317.14
679.592	380.34
680.001	347.57
680.411	359.27
680.82	284.38
681.23	331.19
681.639	326.5
682.048	314.8
682.457	333.53
682.866	328.85
683.275	319.48
683.684	335.87
684.093	340.55
684.502	345.23
684.911	310.12
685.32	286.72
685.728	349.91
686.137	305.44
686.546	298.42
686.954	296.08
687.363	345.23
687.771	356.93
688.179	265.65
688.588	326.5
688.996	340.55
689.404	349.91
689.812	328.85
690.22	286.72
690.628	303.1
691.036	319.48
691.444	310.12
691.852	366.29
692.26	303.1
692.667	314.8
693.075	324.16
693.483	366.29
693.89	347.57
694.298	356.93
694.705	284.38
695.112	312.46
695.52	333.53
695.927	338.21
696.334	342.89
696.741	328.85
697.148	347.57
697.555	335.87
697.962	370.97
698.369	317.14
698.776	272.67
699.183	366.29
699.59	298.42
699.996	410.76
700.403	340.55
700.81	286.72
701.216	324.16
701.623	293.74
702.029	284.38
702.435	286.72
702.842	331.19
703.248	349.91
703.654	324.16
704.06	333.53
704.466	359.27
704.872	286.72
705.278	253.95
705.684	275.01
706.09	326.5
706.496	286.72
706.901	275.01
707.307	356.93
707.712	338.21
708.118	293.74
708.523	335.87
708.929	375.66
709.334	370.97
709.74	370.97
710.145	333.53
710.55	410.76
710.955	366.29
711.36	382.68
711.765	335.87
712.17	363.95
712.575	326.5
712.98	899.94
713.385	373.32
713.789	354.59
714.194	349.91
714.599	373.32
715.003	342.89
715.408	293.74
715.812	335.87
716.217	356.93
716.621	312.46
717.025	373.32
717.429	347.57
717.833	326.5
718.238	441.19
718.642	333.53
719.046	349.91
719.449	370.97
719.853	321.82
720.257	333.53
720.661	270.33
721.065	338.21
721.468	345.23
721.872	319.48
722.275	345.23
722.679	317.14
723.082	342.89
723.485	345.23
723.889	361.61
724.292	317.14
724.695	354.59
725.098	312.46
725.501	401.4
725.904	317.14
726.307	279.69
726.71	303.1
727.113	319.48
727.516	340.55
727.918	378
728.321	378
728.724	282.03
729.126	319.48
729.529	267.99
729.931	380.34
730.333	314.8
730.736	319.48
731.138	338.21
731.54	326.5
731.942	349.91
732.344	317.14
732.746	314.8
733.148	277.35
733.55	373.32
733.952	300.76
734.354	298.42
734.756	335.87
735.157	312.46
735.559	246.93
735.96	310.12
736.362	349.91
736.763	270.33
737.165	324.16
737.566	296.08
737.967	286.72
738.368	356.93
738.77	321.82
739.171	293.74
739.572	284.38
739.973	368.63
740.374	305.44
740.774	342.89
741.175	300.76
741.576	296.08
741.977	310.12
742.377	345.23
742.778	368.63
743.178	342.89
743.579	298.42
743.979	380.34
744.379	349.91
744.78	291.4
745.18	345.23
745.58	368.63
745.98	387.36
746.38	282.03
746.78	305.44
747.18	349.91
747.58	310.12
747.98	291.4
748.38	314.8
748.779	354.59
749.179	347.57
749.578	356.93
749.978	361.61
750.377	354.59
750.777	284.38
751.176	356.93
751.575	385.02
751.975	424.81
752.374	298.42
752.773	338.21
753.172	300.76
753.571	253.95
753.97	305.44
754.369	382.68
754.768	296.08
755.166	300.76
755.565	366.29
755.964	317.14
756.362	317.14
756.761	331.19
757.159	310.12
757.558	328.85
757.956	363.95
758.354	340.55
758.753	342.89
759.151	319.48
759.549	286.72
759.947	275.01
760.345	338.21
760.743	345.23
761.141	328.85
761.539	289.06
761.936	361.61
762.334	328.85
762.732	331.19
763.129	385.02
763.527	331.19
763.924	256.29
764.322	300.76
764.719	361.61
765.117	263.31
765.514	324.16
765.911	300.76
