Data from Al_FLMS009871__1204__16-42-06-179.txt Node

Date: Fri Mar 08 16:42:06 CST 2024
User: pe5414po
Spectrometer: FLMS00987
Trigger mode: 0
Integration Time (sec): 1.000000E-1
Scans to average: 1
Electric dark correction enabled: true
Nonlinearity correction enabled: false
Boxcar width: 0
XAxis mode: Wavelengths
Number of Pixels in Spectrum: 2048
>>>>>Begin Spectral Data<<<<<
188.938	-48.42
189.409	-48.42
189.879	-48.42
190.349	-92.89
190.819	-97.57
191.29	-109.27
191.76	-125.66
192.23	-15.65
192.7	-69.48
193.17	-43.74
193.64	-32.04
194.109	17.12
194.579	-46.08
195.049	7.75
195.519	-36.72
195.988	17.12
196.458	3.07
196.927	84.99
197.397	96.69
197.866	145.84
198.336	106.06
198.805	159.89
199.274	183.29
199.744	220.74
200.213	171.59
200.682	216.06
201.151	225.42
201.62	199.68
202.089	218.4
202.558	253.51
203.027	262.87
203.495	216.06
203.964	290.96
204.433	314.36
204.902	220.74
205.37	305
205.839	262.87
206.307	319.04
206.776	293.3
207.244	363.51
207.712	321.38
208.181	328.41
208.649	258.19
209.117	323.73
209.585	241.81
210.053	319.04
210.521	248.83
210.989	246.49
211.457	237.13
211.925	297.98
212.393	286.28
212.861	279.26
213.328	361.17
213.796	295.64
214.264	269.89
214.731	340.11
215.199	283.94
215.666	237.13
216.133	283.94
216.601	293.3
217.068	300.32
217.535	262.87
218.003	276.91
218.47	258.19
218.937	230.1
219.404	253.51
219.871	234.78
220.338	330.75
220.805	279.26
221.271	227.76
221.738	258.19
222.205	286.28
222.671	281.6
223.138	246.49
223.605	248.83
224.071	241.81
224.538	288.62
225.004	244.15
225.47	309.68
225.937	255.85
226.403	288.62
226.869	204.36
227.335	276.91
227.801	230.1
228.267	300.32
228.733	312.02
229.199	312.02
229.665	312.02
230.131	265.21
230.597	262.87
231.062	281.6
231.528	258.19
231.994	262.87
232.459	276.91
232.925	220.74
233.39	225.42
233.856	307.34
234.321	253.51
234.786	227.76
235.252	302.66
235.717	347.13
236.182	209.04
236.647	328.41
237.112	234.78
237.577	309.68
238.042	333.09
238.507	272.23
238.972	225.42
239.436	262.87
239.901	286.28
240.366	279.26
240.83	286.28
241.295	276.91
241.76	328.41
242.224	363.51
242.688	293.3
243.153	241.81
243.617	269.89
244.081	220.74
244.545	293.3
245.01	342.45
245.474	330.75
245.938	279.26
246.402	269.89
246.866	258.19
247.33	269.89
247.793	258.19
248.257	274.57
248.721	260.53
249.185	251.17
249.648	255.85
250.112	330.75
250.575	234.78
251.039	302.66
251.502	288.62
251.965	365.85
252.429	314.36
252.892	281.6
253.355	309.68
253.818	297.98
254.281	281.6
254.744	283.94
255.207	286.28
255.67	244.15
256.133	312.02
256.596	295.64
257.059	234.78
257.522	288.62
257.984	286.28
258.447	281.6
258.909	260.53
259.372	286.28
259.834	260.53
260.297	293.3
260.759	337.77
261.221	316.7
261.684	274.57
262.146	232.44
262.608	300.32
263.07	300.32
263.532	260.53
263.994	286.28
264.456	297.98
264.918	295.64
265.38	295.64
265.842	279.26
266.303	297.98
266.765	307.34
267.227	316.7
267.688	358.83
268.15	326.07
268.611	354.15
269.072	241.81
269.534	269.89
269.995	300.32
270.456	293.3
270.918	274.57
271.379	335.43
271.84	288.62
272.301	412.67
272.762	300.32
273.223	333.09
273.684	326.07
274.144	321.38
274.605	290.96
275.066	333.09
275.527	344.79
275.987	307.34
276.448	333.09
276.908	370.54
277.369	297.98
277.829	237.13
278.289	326.07
278.75	288.62
279.21	302.66
279.67	288.62
280.13	300.32
280.59	283.94
281.05	330.75
281.51	262.87
281.97	293.3
282.43	333.09
282.89	300.32
283.35	295.64
283.809	319.04
284.269	314.36
284.729	274.57
285.188	295.64
285.648	265.21
286.107	281.6
286.567	251.17
287.026	314.36
287.485	326.07
287.944	281.6
288.404	305
288.863	251.17
289.322	307.34
289.781	297.98
290.24	347.13
290.699	307.34
291.158	283.94
291.616	307.34
292.075	297.98
292.534	300.32
292.992	232.44
293.451	244.15
293.91	349.47
294.368	265.21
294.827	281.6
295.285	321.38
295.743	328.41
296.202	305
296.66	286.28
297.118	328.41
297.576	290.96
298.034	309.68
298.492	344.79
298.95	279.26
299.408	300.32
299.866	342.45
300.324	328.41
300.781	316.7
301.239	321.38
301.697	272.23
302.154	316.7
302.612	276.91
303.069	326.07
303.527	281.6
303.984	258.19
304.441	283.94
304.899	372.88
305.356	335.43
305.813	286.28
306.27	237.13
306.727	328.41
307.184	241.81
307.641	340.11
308.098	265.21
308.555	319.04
309.012	300.32
309.468	326.07
309.925	342.45
310.382	253.51
310.838	300.32
311.295	328.41
311.751	232.44
312.208	335.43
312.664	234.78
313.12	300.32
313.577	337.77
314.033	335.43
314.489	255.85
314.945	319.04
315.401	342.45
315.857	290.96
316.313	340.11
316.769	290.96
317.225	286.28
317.681	335.43
318.136	361.17
318.592	272.23
319.048	314.36
319.503	293.3
319.959	265.21
320.414	382.24
320.869	328.41
321.325	274.57
321.78	281.6
322.235	393.94
322.691	410.33
323.146	319.04
323.601	281.6
324.056	300.32
324.511	276.91
324.966	279.26
325.421	295.64
325.875	276.91
326.33	342.45
326.785	293.3
327.24	321.38
327.694	302.66
328.149	321.38
328.603	358.83
329.058	361.17
329.512	347.13
329.966	295.64
330.421	276.91
330.875	333.09
331.329	307.34
331.783	309.68
332.237	363.51
332.691	302.66
333.145	223.08
333.599	326.07
334.053	393.94
334.507	368.2
334.96	328.41
335.414	274.57
335.868	363.51
336.321	323.73
336.775	272.23
337.228	347.13
337.682	234.78
338.135	316.7
338.588	260.53
339.042	337.77
339.495	342.45
339.948	309.68
340.401	326.07
340.854	321.38
341.307	276.91
341.76	321.38
342.213	258.19
342.666	255.85
343.119	328.41
343.571	297.98
344.024	342.45
344.477	283.94
344.929	300.32
345.382	286.28
345.834	340.11
346.287	396.28
346.739	361.17
347.191	328.41
347.644	330.75
348.096	328.41
348.548	272.23
349	307.34
349.452	342.45
349.904	328.41
350.356	281.6
350.808	403.3
351.26	340.11
351.711	283.94
352.163	309.68
352.615	347.13
353.066	333.09
353.518	295.64
353.969	347.13
354.421	351.81
354.872	272.23
355.324	297.98
355.775	279.26
356.226	239.47
356.677	297.98
357.128	323.73
357.579	307.34
358.03	274.57
358.481	297.98
358.932	340.11
359.383	293.3
359.834	307.34
360.285	272.23
360.735	227.76
361.186	361.17
361.637	314.36
362.087	344.79
362.538	342.45
362.988	262.87
363.438	349.47
363.889	354.15
364.339	316.7
364.789	293.3
365.239	347.13
365.689	333.09
366.139	349.47
366.589	307.34
367.039	361.17
367.489	323.73
367.939	283.94
368.389	342.45
368.839	321.38
369.288	372.88
369.738	297.98
370.187	267.55
370.637	307.34
371.086	370.54
371.536	302.66
371.985	330.75
372.434	288.62
372.884	321.38
373.333	293.3
373.782	351.81
374.231	225.42
374.68	269.89
375.129	356.49
375.578	276.91
376.027	241.81
376.475	290.96
376.924	326.07
377.373	365.85
377.822	349.47
378.27	316.7
378.719	281.6
379.167	283.94
379.616	258.19
380.064	309.68
380.512	288.62
380.961	351.81
381.409	300.32
381.857	358.83
382.305	351.81
382.753	363.51
383.201	354.15
383.649	276.91
384.097	342.45
384.545	321.38
384.992	349.47
385.44	265.21
385.888	354.15
386.335	335.43
386.783	333.09
387.231	319.04
387.678	314.36
388.125	269.89
388.573	297.98
389.02	279.26
389.467	267.55
389.914	316.7
390.362	321.38
390.809	269.89
391.256	326.07
391.703	302.66
392.15	232.44
392.596	309.68
393.043	330.75
393.49	363.51
393.937	314.36
394.383	321.38
394.83	328.41
395.276	300.32
395.723	312.02
396.169	293.3
396.616	281.6
397.062	300.32
397.508	333.09
397.954	314.36
398.401	281.6
398.847	333.09
399.293	379.9
399.739	354.15
400.185	312.02
400.631	314.36
401.076	344.79
401.522	232.44
401.968	316.7
402.414	262.87
402.859	288.62
403.305	251.17
403.75	349.47
404.196	260.53
404.641	403.3
405.086	321.38
405.532	354.15
405.977	333.09
406.422	232.44
406.867	276.91
407.312	337.77
407.757	368.2
408.202	251.17
408.647	316.7
409.092	307.34
409.537	319.04
409.982	365.85
410.426	288.62
410.871	316.7
411.316	274.57
411.76	342.45
412.205	337.77
412.649	326.07
413.093	316.7
413.538	351.81
413.982	326.07
414.426	319.04
414.87	391.6
415.314	316.7
415.758	293.3
416.202	330.75
416.646	267.55
417.09	321.38
417.534	405.64
417.978	323.73
418.421	347.13
418.865	330.75
419.309	384.58
419.752	300.32
420.196	288.62
420.639	337.77
421.083	323.73
421.526	323.73
421.969	328.41
422.412	321.38
422.856	333.09
423.299	377.56
423.742	288.62
424.185	347.13
424.628	323.73
425.071	316.7
425.513	389.26
425.956	227.76
426.399	342.45
426.842	279.26
427.284	316.7
427.727	335.43
428.169	351.81
428.612	279.26
429.054	349.47
429.497	260.53
429.939	349.47
430.381	335.43
430.823	312.02
431.265	305
431.707	372.88
432.149	300.32
432.591	326.07
433.033	248.83
433.475	283.94
433.917	312.02
434.359	337.77
434.8	316.7
435.242	358.83
435.684	309.68
436.125	258.19
436.567	314.36
437.008	321.38
437.449	323.73
437.891	295.64
438.332	307.34
438.773	312.02
439.214	286.28
439.656	321.38
440.097	293.3
440.538	293.3
440.978	356.49
441.419	316.7
441.86	342.45
442.301	211.38
442.742	286.28
443.182	258.19
443.623	330.75
444.063	321.38
444.504	293.3
444.944	335.43
445.385	316.7
445.825	248.83
446.265	347.13
446.706	314.36
447.146	279.26
447.586	279.26
448.026	274.57
448.466	337.77
448.906	344.79
449.346	377.56
449.786	344.79
450.225	337.77
450.665	333.09
451.105	358.83
451.544	300.32
451.984	330.75
452.424	314.36
452.863	316.7
453.302	309.68
453.742	319.04
454.181	290.96
454.62	321.38
455.059	377.56
455.499	393.94
455.938	319.04
456.377	361.17
456.816	276.91
457.254	309.68
457.693	337.77
458.132	356.49
458.571	288.62
459.01	363.51
459.448	347.13
459.887	328.41
460.325	319.04
460.764	312.02
461.202	344.79
461.641	375.22
462.079	337.77
462.517	347.13
462.955	370.54
463.393	349.47
463.832	337.77
464.27	314.36
464.708	370.54
465.145	354.15
465.583	351.81
466.021	290.96
466.459	321.38
466.897	335.43
467.334	312.02
467.772	302.66
468.209	319.04
468.647	328.41
469.084	335.43
469.522	347.13
469.959	290.96
470.396	267.55
470.833	319.04
471.271	316.7
471.708	361.17
472.145	337.77
472.582	340.11
473.019	258.19
473.456	288.62
473.892	344.79
474.329	309.68
474.766	403.3
475.202	363.51
475.639	368.2
476.076	368.2
476.512	370.54
476.949	305
477.385	335.43
477.821	300.32
478.258	314.36
478.694	283.94
479.13	288.62
479.566	344.79
480.002	267.55
480.438	297.98
480.874	319.04
481.31	316.7
481.746	363.51
482.181	265.21
482.617	307.34
483.053	290.96
483.488	358.83
483.924	330.75
484.36	337.77
484.795	326.07
485.23	323.73
485.666	361.17
486.101	333.09
486.536	290.96
486.971	274.57
487.407	330.75
487.842	260.53
488.277	358.83
488.712	328.41
489.146	314.36
489.581	328.41
490.016	344.79
490.451	365.85
490.885	351.81
491.32	288.62
491.755	323.73
492.189	269.89
492.624	365.85
493.058	363.51
493.492	255.85
493.927	307.34
494.361	340.11
494.795	319.04
495.229	321.38
495.663	286.28
496.097	321.38
496.531	262.87
496.965	347.13
497.399	328.41
497.833	363.51
498.266	351.81
498.7	379.9
499.134	379.9
499.567	328.41
500.001	302.66
500.434	283.94
500.868	400.96
501.301	312.02
501.734	342.45
502.168	290.96
502.601	276.91
503.034	312.02
503.467	347.13
503.9	312.02
504.333	295.64
504.766	312.02
505.199	309.68
505.632	305
506.064	361.17
506.497	358.83
506.93	295.64
507.362	328.41
507.795	283.94
508.227	302.66
508.66	389.26
509.092	321.38
509.524	272.23
509.956	309.68
510.389	337.77
510.821	307.34
511.253	365.85
511.685	375.22
512.117	309.68
512.549	328.41
512.981	316.7
513.412	319.04
513.844	290.96
514.276	333.09
514.707	361.17
515.139	316.7
515.571	309.68
516.002	379.9
516.433	288.62
516.865	321.38
517.296	279.26
517.727	309.68
518.159	321.38
518.59	307.34
519.021	333.09
519.452	321.38
519.883	323.73
520.314	300.32
520.744	288.62
521.175	354.15
521.606	337.77
522.037	335.43
522.467	253.51
522.898	326.07
523.328	279.26
523.759	351.81
524.189	302.66
524.62	337.77
525.05	321.38
525.48	382.24
525.91	363.51
526.341	276.91
526.771	314.36
527.201	290.96
527.631	354.15
528.061	335.43
528.49	330.75
528.92	354.15
529.35	333.09
529.78	312.02
530.209	396.28
530.639	286.28
531.068	316.7
531.498	307.34
531.927	300.32
532.357	300.32
532.786	344.79
533.215	302.66
533.644	340.11
534.074	337.77
534.503	319.04
534.932	340.11
535.361	347.13
535.79	319.04
536.218	333.09
536.647	365.85
537.076	342.45
537.505	305
537.933	305
538.362	297.98
538.79	314.36
539.219	335.43
539.647	283.94
540.076	335.43
540.504	368.2
540.932	330.75
541.36	265.21
541.788	300.32
542.217	363.51
542.645	295.64
543.073	295.64
543.5	309.68
543.928	351.81
544.356	279.26
544.784	344.79
545.211	372.88
545.639	356.49
546.067	354.15
546.494	340.11
546.922	326.07
547.349	293.3
547.776	333.09
548.204	391.6
548.631	323.73
549.058	377.56
549.485	351.81
549.912	330.75
550.339	354.15
550.766	293.3
551.193	342.45
551.62	321.38
552.047	356.49
552.474	265.21
552.9	337.77
553.327	288.62
553.754	295.64
554.18	356.49
554.607	342.45
555.033	290.96
555.459	288.62
555.886	405.64
556.312	356.49
556.738	302.66
557.164	319.04
557.59	316.7
558.016	337.77
558.442	328.41
558.868	323.73
559.294	319.04
559.72	340.11
560.145	328.41
560.571	328.41
560.997	274.57
561.422	276.91
561.848	309.68
562.273	314.36
562.699	290.96
563.124	290.96
563.549	307.34
563.974	192.66
564.4	274.57
564.825	337.77
565.25	347.13
565.675	269.89
566.1	302.66
566.525	361.17
566.95	300.32
567.374	305
567.799	335.43
568.224	333.09
568.648	260.53
569.073	342.45
569.497	340.11
569.922	326.07
570.346	297.98
570.771	312.02
571.195	363.51
571.619	309.68
572.043	265.21
572.467	316.7
572.891	305
573.315	302.66
573.739	286.28
574.163	272.23
574.587	340.11
575.011	265.21
575.435	276.91
575.858	358.83
576.282	309.68
576.705	309.68
577.129	333.09
577.552	293.3
577.976	323.73
578.399	323.73
578.822	356.49
579.245	363.51
579.669	333.09
580.092	326.07
580.515	335.43
580.938	290.96
581.361	316.7
581.784	354.15
582.206	340.11
582.629	344.79
583.052	361.17
583.474	321.38
583.897	307.34
584.32	281.6
584.742	349.47
585.165	326.07
585.587	286.28
586.009	283.94
586.431	319.04
586.854	295.64
587.276	302.66
587.698	307.34
588.12	333.09
588.542	342.45
588.964	335.43
589.386	328.41
589.807	372.88
590.229	349.47
590.651	297.98
591.073	372.88
591.494	389.26
591.916	344.79
592.337	333.09
592.759	344.79
593.18	354.15
593.601	312.02
594.022	279.26
594.444	251.17
594.865	255.85
595.286	297.98
595.707	319.04
596.128	297.98
596.549	316.7
596.97	309.68
597.39	316.7
597.811	300.32
598.232	316.7
598.652	340.11
599.073	333.09
599.494	340.11
599.914	356.49
600.334	354.15
600.755	328.41
601.175	326.07
601.595	286.28
602.015	286.28
602.436	260.53
602.856	393.94
603.276	326.07
603.696	297.98
604.115	326.07
604.535	354.15
604.955	337.77
605.375	321.38
605.794	288.62
606.214	335.43
606.634	316.7
607.053	253.51
607.473	328.41
607.892	302.66
608.311	349.47
608.731	340.11
609.15	314.36
609.569	323.73
609.988	305
610.407	412.67
610.826	286.28
611.245	302.66
611.664	316.7
612.083	283.94
612.501	351.81
612.92	251.17
613.339	281.6
613.757	344.79
614.176	356.49
614.594	330.75
615.013	316.7
615.431	328.41
615.85	377.56
616.268	365.85
616.686	328.41
617.104	330.75
617.522	361.17
617.94	333.09
618.358	337.77
618.776	347.13
619.194	337.77
619.612	330.75
620.03	288.62
620.447	300.32
620.865	337.77
621.282	300.32
621.7	337.77
622.117	288.62
622.535	267.55
622.952	342.45
623.369	272.23
623.787	342.45
624.204	307.34
624.621	297.98
625.038	307.34
625.455	281.6
625.872	260.53
626.289	354.15
626.706	340.11
627.123	340.11
627.539	314.36
627.956	312.02
628.373	302.66
628.789	342.45
629.206	300.32
629.622	269.89
630.038	230.1
630.455	337.77
630.871	316.7
631.287	375.22
631.703	330.75
632.12	293.3
632.536	319.04
632.952	269.89
633.368	305
633.783	328.41
634.199	351.81
634.615	356.49
635.031	316.7
635.446	279.26
635.862	351.81
636.277	340.11
636.693	305
637.108	354.15
637.524	372.88
637.939	307.34
638.354	267.55
638.77	330.75
639.185	382.24
639.6	363.51
640.015	354.15
640.43	340.11
640.845	295.64
641.259	330.75
641.674	288.62
642.089	321.38
642.504	262.87
642.918	363.51
643.333	305
643.747	321.38
644.162	225.42
644.576	239.47
644.991	302.66
645.405	368.2
645.819	295.64
646.233	351.81
646.647	293.3
647.061	323.73
647.475	333.09
647.889	415.01
648.303	363.51
648.717	258.19
649.131	386.92
649.545	293.3
649.958	361.17
650.372	368.2
650.785	368.2
651.199	272.23
651.612	342.45
652.026	269.89
652.439	319.04
652.852	314.36
653.266	319.04
653.679	344.79
654.092	269.89
654.505	305
654.918	279.26
655.331	393.94
655.744	297.98
656.156	316.7
656.569	297.98
656.982	391.6
657.394	370.54
657.807	354.15
658.22	335.43
658.632	321.38
659.044	326.07
659.457	260.53
659.869	354.15
660.281	340.11
660.693	309.68
661.106	340.11
661.518	269.89
661.93	288.62
662.342	290.96
662.754	356.49
663.165	370.54
663.577	312.02
663.989	307.34
664.401	281.6
664.812	361.17
665.224	354.15
665.635	365.85
666.047	288.62
666.458	276.91
666.869	344.79
667.281	326.07
667.692	300.32
668.103	326.07
668.514	307.34
668.925	321.38
669.336	312.02
669.747	347.13
670.158	283.94
670.569	246.49
670.979	290.96
671.39	286.28
671.801	281.6
672.211	351.81
672.622	314.36
673.032	319.04
673.443	340.11
673.853	300.32
674.263	335.43
674.674	372.88
675.084	323.73
675.494	239.47
675.904	319.04
676.314	326.07
676.724	283.94
677.134	307.34
677.544	344.79
677.953	333.09
678.363	433.73
678.773	337.77
679.182	269.89
679.592	354.15
680.001	363.51
680.411	300.32
680.82	407.98
681.23	312.02
681.639	354.15
682.048	326.07
682.457	290.96
682.866	283.94
683.275	272.23
683.684	330.75
684.093	302.66
684.502	286.28
684.911	337.77
685.32	351.81
685.728	309.68
686.137	356.49
686.546	382.24
686.954	328.41
687.363	330.75
687.771	281.6
688.179	333.09
688.588	340.11
688.996	253.51
689.404	300.32
689.812	333.09
690.22	368.2
690.628	253.51
691.036	314.36
691.444	342.45
691.852	377.56
692.26	300.32
692.667	351.81
693.075	335.43
693.483	302.66
693.89	379.9
694.298	347.13
694.705	358.83
695.112	344.79
695.52	361.17
695.927	326.07
696.334	286.28
696.741	328.41
697.148	265.21
697.555	288.62
697.962	316.7
698.369	321.38
698.776	272.23
699.183	323.73
699.59	344.79
699.996	297.98
700.403	300.32
700.81	333.09
701.216	330.75
701.623	279.26
702.029	358.83
702.435	379.9
702.842	279.26
703.248	281.6
703.654	297.98
704.06	333.09
704.466	405.64
704.872	321.38
705.278	305
705.684	340.11
706.09	358.83
706.496	323.73
706.901	300.32
707.307	279.26
707.712	347.13
708.118	389.26
708.523	293.3
708.929	319.04
709.334	302.66
709.74	314.36
710.145	321.38
710.55	337.77
710.955	365.85
711.36	300.32
711.765	335.43
712.17	370.54
712.575	323.73
712.98	894.82
713.385	323.73
713.789	283.94
714.194	354.15
714.599	288.62
715.003	307.34
715.408	316.7
715.812	267.55
716.217	293.3
716.621	396.28
717.025	368.2
717.429	293.3
717.833	316.7
718.238	319.04
718.642	356.49
719.046	323.73
719.449	286.28
719.853	312.02
720.257	295.64
720.661	328.41
721.065	283.94
721.468	302.66
721.872	305
722.275	344.79
722.679	272.23
723.082	314.36
723.485	276.91
723.889	321.38
724.292	372.88
724.695	314.36
725.098	386.92
725.501	312.02
725.904	337.77
726.307	326.07
726.71	321.38
727.113	286.28
727.516	267.55
727.918	314.36
728.321	265.21
728.724	314.36
729.126	288.62
729.529	349.47
729.931	354.15
730.333	309.68
730.736	340.11
731.138	283.94
731.54	351.81
731.942	288.62
732.344	286.28
732.746	276.91
733.148	276.91
733.55	316.7
733.952	344.79
734.354	368.2
734.756	321.38
735.157	358.83
735.559	307.34
735.96	349.47
736.362	267.55
736.763	347.13
737.165	328.41
737.566	279.26
737.967	305
738.368	391.6
738.77	342.45
739.171	375.22
739.572	288.62
739.973	293.3
740.374	302.66
740.774	377.56
741.175	300.32
741.576	297.98
741.977	333.09
742.377	286.28
742.778	258.19
743.178	319.04
743.579	349.47
743.979	396.28
744.379	358.83
744.78	260.53
745.18	290.96
745.58	347.13
745.98	305
746.38	323.73
746.78	302.66
747.18	384.58
747.58	276.91
747.98	330.75
748.38	354.15
748.779	319.04
749.179	305
749.578	358.83
749.978	333.09
750.377	312.02
750.777	272.23
751.176	283.94
751.575	267.55
751.975	312.02
752.374	309.68
752.773	309.68
753.172	314.36
753.571	330.75
753.97	351.81
754.369	361.17
754.768	295.64
755.166	321.38
755.565	333.09
755.964	340.11
756.362	297.98
756.761	307.34
757.159	328.41
757.558	330.75
757.956	337.77
758.354	340.11
758.753	368.2
759.151	328.41
759.549	305
759.947	356.49
760.345	319.04
760.743	389.26
761.141	351.81
761.539	368.2
761.936	347.13
762.334	248.83
762.732	293.3
763.129	335.43
763.527	337.77
763.924	309.68
764.322	354.15
764.719	262.87
765.117	321.38
765.514	314.36
765.911	305
766.308	321.38
