Data from Al_FLMS009871__1210__16-42-06-779.txt Node

Date: Fri Mar 08 16:42:06 CST 2024
User: pe5414po
Spectrometer: FLMS00987
Trigger mode: 0
Integration Time (sec): 1.000000E-1
Scans to average: 1
Electric dark correction enabled: true
Nonlinearity correction enabled: false
Boxcar width: 0
XAxis mode: Wavelengths
Number of Pixels in Spectrum: 2048
>>>>>Begin Spectral Data<<<<<
188.938	-96.84
189.409	-96.84
189.879	-96.84
190.349	-117.9
190.819	-129.61
191.29	-61.73
191.76	-73.43
192.23	-92.16
192.7	-82.8
193.17	-40.67
193.64	-64.07
194.109	-12.58
194.579	-50.03
195.049	-31.3
195.519	8.48
195.988	48.27
196.458	83.38
196.927	64.66
197.397	102.11
197.866	106.79
198.336	95.08
198.805	167.64
199.274	177
199.744	181.68
200.213	268.28
200.682	216.79
201.151	195.73
201.62	270.62
202.089	230.84
202.558	223.81
203.027	277.65
203.495	237.86
203.964	205.09
204.433	312.75
204.902	270.62
205.37	312.75
205.839	324.46
206.307	275.31
206.776	343.18
207.244	279.99
207.712	254.24
208.181	265.94
208.649	338.5
209.117	270.62
209.585	331.48
210.053	305.73
210.521	258.92
210.989	263.6
211.457	294.03
211.925	296.37
212.393	275.31
212.861	223.81
213.328	324.46
213.796	310.41
214.264	326.8
214.731	291.69
215.199	303.39
215.666	303.39
216.133	375.95
216.601	275.31
217.068	244.88
217.535	230.84
218.003	249.56
218.47	216.79
218.937	310.41
219.404	272.96
219.871	326.8
220.338	275.31
220.805	277.65
221.271	277.65
221.738	301.05
222.205	205.09
222.671	258.92
223.138	219.13
223.605	261.26
224.071	277.65
224.538	336.16
225.004	275.31
225.47	287.01
225.937	247.22
226.403	279.99
226.869	308.07
227.335	315.09
227.801	284.67
228.267	272.96
228.733	308.07
229.199	322.12
229.665	303.39
230.131	310.41
230.597	343.18
231.062	340.84
231.528	230.84
231.994	371.27
232.459	240.2
232.925	317.44
233.39	268.28
233.856	233.18
234.321	317.44
234.786	247.22
235.252	303.39
235.717	298.71
236.182	275.31
236.647	275.31
237.112	240.2
237.577	263.6
238.042	265.94
238.507	272.96
238.972	287.01
239.436	233.18
239.901	305.73
240.366	301.05
240.83	301.05
241.295	289.35
241.76	265.94
242.224	289.35
242.688	310.41
243.153	240.2
243.617	326.8
244.081	287.01
244.545	289.35
245.01	291.69
245.474	265.94
245.938	270.62
246.402	336.16
246.866	298.71
247.33	324.46
247.793	277.65
248.257	317.44
248.721	247.22
249.185	256.58
249.648	322.12
250.112	247.22
250.575	331.48
251.039	310.41
251.502	287.01
251.965	305.73
252.429	254.24
252.892	282.33
253.355	329.14
253.818	289.35
254.281	284.67
254.744	305.73
255.207	301.05
255.67	310.41
256.133	279.99
256.596	291.69
257.059	322.12
257.522	296.37
257.984	315.09
258.447	289.35
258.909	310.41
259.372	357.22
259.834	312.75
260.297	298.71
260.759	298.71
261.221	361.91
261.684	301.05
262.146	329.14
262.608	289.35
263.07	387.65
263.532	322.12
263.994	329.14
264.456	324.46
264.918	331.48
265.38	254.24
265.842	305.73
266.303	258.92
266.765	279.99
267.227	277.65
267.688	268.28
268.15	275.31
268.611	331.48
269.072	256.58
269.534	387.65
269.995	265.94
270.456	338.5
270.918	338.5
271.379	338.5
271.84	347.86
272.301	347.86
272.762	333.82
273.223	343.18
273.684	296.37
274.144	301.05
274.605	244.88
275.066	289.35
275.527	205.09
275.987	336.16
276.448	301.05
276.908	329.14
277.369	279.99
277.829	289.35
278.289	256.58
278.75	319.78
279.21	319.78
279.67	261.26
280.13	317.44
280.59	324.46
281.05	277.65
281.51	352.54
281.97	326.8
282.43	308.07
282.89	275.31
283.35	359.56
283.809	284.67
284.269	350.2
284.729	359.56
285.188	277.65
285.648	319.78
286.107	272.96
286.567	254.24
287.026	319.78
287.485	317.44
287.944	291.69
288.404	371.27
288.863	310.41
289.322	301.05
289.781	350.2
290.24	338.5
290.699	294.03
291.158	258.92
291.616	333.82
292.075	315.09
292.534	305.73
292.992	385.31
293.451	340.84
293.91	237.86
294.368	354.88
294.827	336.16
295.285	319.78
295.743	324.46
296.202	333.82
296.66	237.86
297.118	308.07
297.576	301.05
298.034	251.9
298.492	247.22
298.95	282.33
299.408	308.07
299.866	347.86
300.324	345.52
300.781	296.37
301.239	310.41
301.697	265.94
302.154	301.05
302.612	261.26
303.069	303.39
303.527	357.22
303.984	301.05
304.441	301.05
304.899	322.12
305.356	305.73
305.813	324.46
306.27	305.73
306.727	315.09
307.184	268.28
307.641	322.12
308.098	359.56
308.555	312.75
309.012	308.07
309.468	336.16
309.925	315.09
310.382	338.5
310.838	399.35
311.295	308.07
311.751	284.67
312.208	275.31
312.664	375.95
313.12	354.88
313.577	345.52
314.033	272.96
314.489	324.46
314.945	287.01
315.401	378.29
315.857	331.48
316.313	329.14
316.769	326.8
317.225	345.52
317.681	291.69
318.136	310.41
318.592	301.05
319.048	294.03
319.503	303.39
319.959	310.41
320.414	310.41
320.869	352.54
321.325	277.65
321.78	380.63
322.235	254.24
322.691	244.88
323.146	331.48
323.601	378.29
324.056	336.16
324.511	305.73
324.966	277.65
325.421	277.65
325.875	319.78
326.33	294.03
326.785	331.48
327.24	350.2
327.694	354.88
328.149	338.5
328.603	301.05
329.058	268.28
329.512	361.91
329.966	317.44
330.421	305.73
330.875	310.41
331.329	359.56
331.783	265.94
332.237	294.03
332.691	303.39
333.145	319.78
333.599	315.09
334.053	375.95
334.507	338.5
334.96	329.14
335.414	305.73
335.868	312.75
336.321	357.22
336.775	272.96
337.228	380.63
337.682	350.2
338.135	361.91
338.588	352.54
339.042	343.18
339.495	331.48
339.948	301.05
340.401	317.44
340.854	312.75
341.307	434.46
341.76	357.22
342.213	361.91
342.666	308.07
343.119	333.82
343.571	357.22
344.024	287.01
344.477	317.44
344.929	303.39
345.382	350.2
345.834	343.18
346.287	336.16
346.739	294.03
347.191	272.96
347.644	352.54
348.096	350.2
348.548	326.8
349	282.33
349.452	347.86
349.904	294.03
350.356	324.46
350.808	373.61
351.26	287.01
351.711	319.78
352.163	301.05
352.615	340.84
353.066	275.31
353.518	312.75
353.969	315.09
354.421	315.09
354.872	287.01
355.324	301.05
355.775	324.46
356.226	350.2
356.677	308.07
357.128	331.48
357.579	296.37
358.03	326.8
358.481	282.33
358.932	359.56
359.383	343.18
359.834	294.03
360.285	312.75
360.735	263.6
361.186	347.86
361.637	256.58
362.087	319.78
362.538	319.78
362.988	361.91
363.438	324.46
363.889	329.14
364.339	366.59
364.789	385.31
365.239	359.56
365.689	354.88
366.139	375.95
366.589	282.33
367.039	366.59
367.489	272.96
367.939	326.8
368.389	315.09
368.839	357.22
369.288	287.01
369.738	324.46
370.187	279.99
370.637	294.03
371.086	324.46
371.536	345.52
371.985	420.42
372.434	345.52
372.884	357.22
373.333	340.84
373.782	317.44
374.231	340.84
374.68	322.12
375.129	371.27
375.578	366.59
376.027	317.44
376.475	277.65
376.924	310.41
377.373	289.35
377.822	357.22
378.27	312.75
378.719	298.71
379.167	305.73
379.616	317.44
380.064	366.59
380.512	272.96
380.961	317.44
381.409	336.16
381.857	331.48
382.305	249.56
382.753	319.78
383.201	284.67
383.649	326.8
384.097	324.46
384.545	298.71
384.992	287.01
385.44	343.18
385.888	340.84
386.335	289.35
386.783	308.07
387.231	326.8
387.678	303.39
388.125	324.46
388.573	336.16
389.02	331.48
389.467	406.38
389.914	329.14
390.362	331.48
390.809	317.44
391.256	329.14
391.703	371.27
392.15	333.82
392.596	301.05
393.043	326.8
393.49	305.73
393.937	322.12
394.383	284.67
394.83	361.91
395.276	336.16
395.723	331.48
396.169	315.09
396.616	296.37
397.062	312.75
397.508	312.75
397.954	324.46
398.401	326.8
398.847	289.35
399.293	404.03
399.739	319.78
400.185	308.07
400.631	284.67
401.076	382.97
401.522	347.86
401.968	277.65
402.414	345.52
402.859	315.09
403.305	345.52
403.75	343.18
404.196	312.75
404.641	317.44
405.086	378.29
405.532	345.52
405.977	392.33
406.422	315.09
406.867	354.88
407.312	329.14
407.757	317.44
408.202	322.12
408.647	322.12
409.092	312.75
409.537	282.33
409.982	317.44
410.426	315.09
410.871	301.05
411.316	254.24
411.76	385.31
412.205	354.88
412.649	322.12
413.093	277.65
413.538	389.99
413.982	310.41
414.426	336.16
414.87	319.78
415.314	340.84
415.758	317.44
416.202	282.33
416.646	317.44
417.09	366.59
417.534	296.37
417.978	322.12
418.421	371.27
418.865	350.2
419.309	305.73
419.752	340.84
420.196	319.78
420.639	289.35
421.083	263.6
421.526	368.93
421.969	347.86
422.412	324.46
422.856	331.48
423.299	333.82
423.742	296.37
424.185	333.82
424.628	340.84
425.071	343.18
425.513	308.07
425.956	326.8
426.399	378.29
426.842	319.78
427.284	378.29
427.727	312.75
428.169	340.84
428.612	347.86
429.054	366.59
429.497	329.14
429.939	287.01
430.381	287.01
430.823	305.73
431.265	315.09
431.707	301.05
432.149	340.84
432.591	289.35
433.033	275.31
433.475	317.44
433.917	319.78
434.359	291.69
434.8	298.71
435.242	296.37
435.684	340.84
436.125	347.86
436.567	310.41
437.008	331.48
437.449	308.07
437.891	277.65
438.332	296.37
438.773	287.01
439.214	361.91
439.656	350.2
440.097	303.39
440.538	284.67
440.978	317.44
441.419	322.12
441.86	319.78
442.301	315.09
442.742	324.46
443.182	350.2
443.623	301.05
444.063	333.82
444.504	326.8
444.944	350.2
445.385	305.73
445.825	338.5
446.265	368.93
446.706	326.8
447.146	310.41
447.586	322.12
448.026	366.59
448.466	324.46
448.906	336.16
449.346	319.78
449.786	319.78
450.225	366.59
450.665	350.2
451.105	373.61
451.544	352.54
451.984	296.37
452.424	375.95
452.863	333.82
453.302	303.39
453.742	345.52
454.181	275.31
454.62	315.09
455.059	373.61
455.499	319.78
455.938	289.35
456.377	296.37
456.816	336.16
457.254	326.8
457.693	301.05
458.132	303.39
458.571	425.1
459.01	336.16
459.448	275.31
459.887	329.14
460.325	352.54
460.764	263.6
461.202	284.67
461.641	338.5
462.079	329.14
462.517	373.61
462.955	291.69
463.393	310.41
463.832	310.41
464.27	319.78
464.708	317.44
465.145	352.54
465.583	287.01
466.021	287.01
466.459	319.78
466.897	298.71
467.334	350.2
467.772	303.39
468.209	350.2
468.647	385.31
469.084	298.71
469.522	315.09
469.959	324.46
470.396	343.18
470.833	333.82
471.271	350.2
471.708	382.97
472.145	275.31
472.582	382.97
473.019	392.33
473.456	357.22
473.892	326.8
474.329	366.59
474.766	312.75
475.202	275.31
475.639	305.73
476.076	359.56
476.512	352.54
476.949	310.41
477.385	361.91
477.821	350.2
478.258	315.09
478.694	294.03
479.13	319.78
479.566	359.56
480.002	380.63
480.438	298.71
480.874	301.05
481.31	333.82
481.746	357.22
482.181	331.48
482.617	336.16
483.053	296.37
483.488	364.25
483.924	282.33
484.36	371.27
484.795	284.67
485.23	294.03
485.666	326.8
486.101	347.86
486.536	331.48
486.971	301.05
487.407	347.86
487.842	340.84
488.277	347.86
488.712	296.37
489.146	329.14
489.581	272.96
490.016	347.86
490.451	296.37
490.885	326.8
491.32	244.88
491.755	371.27
492.189	333.82
492.624	359.56
493.058	312.75
493.492	329.14
493.927	326.8
494.361	284.67
494.795	343.18
495.229	324.46
495.663	333.82
496.097	354.88
496.531	357.22
496.965	364.25
497.399	289.35
497.833	345.52
498.266	284.67
498.7	315.09
499.134	373.61
499.567	340.84
500.001	294.03
500.434	282.33
500.868	317.44
501.301	354.88
501.734	352.54
502.168	361.91
502.601	338.5
503.034	331.48
503.467	340.84
503.9	298.71
504.333	322.12
504.766	315.09
505.199	347.86
505.632	333.82
506.064	368.93
506.497	371.27
506.93	326.8
507.362	329.14
507.795	303.39
508.227	305.73
508.66	345.52
509.092	336.16
509.524	272.96
509.956	385.31
510.389	294.03
510.821	340.84
511.253	331.48
511.685	315.09
512.117	385.31
512.549	329.14
512.981	338.5
513.412	329.14
513.844	270.62
514.276	450.85
514.707	301.05
515.139	347.86
515.571	272.96
516.002	294.03
516.433	343.18
516.865	287.01
517.296	282.33
517.727	436.8
518.159	394.67
518.59	284.67
519.021	294.03
519.452	310.41
519.883	350.2
520.314	343.18
520.744	305.73
521.175	385.31
521.606	352.54
522.037	305.73
522.467	340.84
522.898	317.44
523.328	441.48
523.759	354.88
524.189	298.71
524.62	347.86
525.05	289.35
525.48	380.63
525.91	340.84
526.341	312.75
526.771	324.46
527.201	336.16
527.631	406.38
528.061	371.27
528.49	338.5
528.92	289.35
529.35	298.71
529.78	366.59
530.209	368.93
530.639	371.27
531.068	326.8
531.498	354.88
531.927	333.82
532.357	371.27
532.786	378.29
533.215	425.1
533.644	298.71
534.074	354.88
534.503	289.35
534.932	333.82
535.361	296.37
535.79	387.65
536.218	279.99
536.647	275.31
537.076	401.69
537.505	326.8
537.933	291.69
538.362	265.94
538.79	324.46
539.219	392.33
539.647	322.12
540.076	343.18
540.504	357.22
540.932	312.75
541.36	345.52
541.788	324.46
542.217	322.12
542.645	385.31
543.073	333.82
543.5	322.12
543.928	322.12
544.356	380.63
544.784	361.91
545.211	284.67
545.639	268.28
546.067	329.14
546.494	322.12
546.922	279.99
547.349	380.63
547.776	397.01
548.204	352.54
548.631	310.41
549.058	336.16
549.485	298.71
549.912	347.86
550.339	317.44
550.766	343.18
551.193	312.75
551.62	317.44
552.047	310.41
552.474	336.16
552.9	233.18
553.327	333.82
553.754	317.44
554.18	310.41
554.607	336.16
555.033	336.16
555.459	397.01
555.886	345.52
556.312	315.09
556.738	350.2
557.164	298.71
557.59	352.54
558.016	350.2
558.442	406.38
558.868	352.54
559.294	382.97
559.72	354.88
560.145	305.73
560.571	371.27
560.997	354.88
561.422	359.56
561.848	322.12
562.273	317.44
562.699	322.12
563.124	326.8
563.549	385.31
563.974	361.91
564.4	298.71
564.825	333.82
565.25	317.44
565.675	333.82
566.1	336.16
566.525	308.07
566.95	336.16
567.374	270.62
567.799	350.2
568.224	289.35
568.648	294.03
569.073	294.03
569.497	326.8
569.922	324.46
570.346	279.99
570.771	301.05
571.195	375.95
571.619	373.61
572.043	298.71
572.467	340.84
572.891	319.78
573.315	301.05
573.739	354.88
574.163	359.56
574.587	333.82
575.011	305.73
575.435	324.46
575.858	298.71
576.282	352.54
576.705	373.61
577.129	350.2
577.552	317.44
577.976	303.39
578.399	298.71
578.822	317.44
579.245	338.5
579.669	350.2
580.092	319.78
580.515	340.84
580.938	354.88
581.361	347.86
581.784	277.65
582.206	310.41
582.629	375.95
583.052	378.29
583.474	287.01
583.897	406.38
584.32	352.54
584.742	329.14
585.165	380.63
585.587	251.9
586.009	361.91
586.431	303.39
586.854	333.82
587.276	312.75
587.698	256.58
588.12	336.16
588.542	315.09
588.964	312.75
589.386	366.59
589.807	408.72
590.229	303.39
590.651	345.52
591.073	394.67
591.494	310.41
591.916	326.8
592.337	357.22
592.759	284.67
593.18	296.37
593.601	357.22
594.022	331.48
594.444	282.33
594.865	315.09
595.286	284.67
595.707	282.33
596.128	305.73
596.549	329.14
596.97	392.33
597.39	371.27
597.811	291.69
598.232	289.35
598.652	329.14
599.073	345.52
599.494	345.52
599.914	301.05
600.334	350.2
600.755	361.91
601.175	401.69
601.595	345.52
602.015	324.46
602.436	333.82
602.856	373.61
603.276	308.07
603.696	312.75
604.115	303.39
604.535	308.07
604.955	401.69
605.375	336.16
605.794	343.18
606.214	263.6
606.634	354.88
607.053	336.16
607.473	354.88
607.892	256.58
608.311	301.05
608.731	382.97
609.15	298.71
609.569	312.75
609.988	333.82
610.407	291.69
610.826	265.94
611.245	401.69
611.664	287.01
612.083	354.88
612.501	287.01
612.92	319.78
613.339	331.48
613.757	308.07
614.176	312.75
614.594	322.12
615.013	333.82
615.431	254.24
615.85	289.35
616.268	305.73
616.686	329.14
617.104	312.75
617.522	310.41
617.94	270.62
618.358	359.56
618.776	287.01
619.194	333.82
619.612	282.33
620.03	336.16
620.447	305.73
620.865	378.29
621.282	340.84
621.7	418.08
622.117	322.12
622.535	331.48
622.952	380.63
623.369	324.46
623.787	345.52
624.204	380.63
624.621	296.37
625.038	294.03
625.455	317.44
625.872	354.88
626.289	284.67
626.706	275.31
627.123	310.41
627.539	289.35
627.956	415.74
628.373	277.65
628.789	296.37
629.206	268.28
629.622	289.35
630.038	380.63
630.455	284.67
630.871	270.62
631.287	298.71
631.703	345.52
632.12	298.71
632.536	301.05
632.952	265.94
633.368	354.88
633.783	317.44
634.199	378.29
634.615	333.82
635.031	343.18
635.446	354.88
635.862	350.2
636.277	347.86
636.693	368.93
637.108	382.97
637.524	294.03
637.939	315.09
638.354	347.86
638.77	333.82
639.185	345.52
639.6	291.69
640.015	373.61
640.43	343.18
640.845	368.93
641.259	317.44
641.674	272.96
642.089	340.84
642.504	279.99
642.918	329.14
643.333	354.88
643.747	315.09
644.162	324.46
644.576	312.75
644.991	357.22
645.405	359.56
645.819	406.38
646.233	322.12
646.647	315.09
647.061	310.41
647.475	366.59
647.889	282.33
648.303	258.92
648.717	326.8
649.131	305.73
649.545	361.91
649.958	315.09
650.372	364.25
650.785	350.2
651.199	298.71
651.612	336.16
652.026	364.25
652.439	340.84
652.852	287.01
653.266	265.94
653.679	331.48
654.092	284.67
654.505	385.31
654.918	411.06
655.331	287.01
655.744	329.14
656.156	343.18
656.569	389.99
656.982	303.39
657.394	284.67
657.807	366.59
658.22	303.39
658.632	382.97
659.044	315.09
659.457	333.82
659.869	347.86
660.281	315.09
660.693	308.07
661.106	275.31
661.518	331.48
661.93	408.72
662.342	322.12
662.754	289.35
663.165	338.5
663.577	324.46
663.989	350.2
664.401	301.05
664.812	298.71
665.224	315.09
665.635	317.44
666.047	343.18
666.458	375.95
666.869	387.65
667.281	336.16
667.692	368.93
668.103	397.01
668.514	319.78
668.925	310.41
669.336	336.16
669.747	352.54
670.158	371.27
670.569	347.86
670.979	380.63
671.39	326.8
671.801	340.84
672.211	265.94
672.622	282.33
673.032	340.84
673.443	326.8
673.853	305.73
674.263	347.86
674.674	347.86
675.084	333.82
675.494	303.39
675.904	331.48
676.314	296.37
676.724	315.09
677.134	317.44
677.544	338.5
677.953	399.35
678.363	322.12
678.773	387.65
679.182	322.12
679.592	347.86
680.001	261.26
680.411	343.18
680.82	343.18
681.23	329.14
681.639	394.67
682.048	279.99
682.457	368.93
682.866	284.67
683.275	296.37
683.684	282.33
684.093	354.88
684.502	268.28
684.911	315.09
685.32	289.35
685.728	347.86
686.137	312.75
686.546	265.94
686.954	289.35
687.363	359.56
687.771	324.46
688.179	338.5
688.588	361.91
688.996	322.12
689.404	329.14
689.812	322.12
690.22	329.14
690.628	312.75
691.036	315.09
691.444	361.91
691.852	305.73
692.26	305.73
692.667	305.73
693.075	312.75
693.483	326.8
693.89	340.84
694.298	298.71
694.705	303.39
695.112	310.41
695.52	312.75
695.927	347.86
696.334	336.16
696.741	319.78
697.148	329.14
697.555	291.69
697.962	291.69
698.369	336.16
698.776	301.05
699.183	343.18
699.59	361.91
699.996	263.6
700.403	312.75
700.81	207.43
701.216	345.52
701.623	317.44
702.029	310.41
702.435	324.46
702.842	329.14
703.248	331.48
703.654	275.31
704.06	389.99
704.466	340.84
704.872	324.46
705.278	357.22
705.684	361.91
706.09	298.71
706.496	329.14
706.901	382.97
707.307	319.78
707.712	317.44
708.118	312.75
708.523	371.27
708.929	382.97
709.334	319.78
709.74	303.39
710.145	366.59
710.55	368.93
710.955	308.07
711.36	352.54
711.765	291.69
712.17	352.54
712.575	329.14
712.98	874.48
713.385	373.61
713.789	310.41
714.194	378.29
714.599	301.05
715.003	296.37
715.408	233.18
715.812	296.37
716.217	329.14
716.621	338.5
717.025	312.75
717.429	322.12
717.833	326.8
718.238	352.54
718.642	310.41
719.046	301.05
719.449	343.18
719.853	303.39
720.257	303.39
720.661	315.09
721.065	305.73
721.468	275.31
721.872	305.73
722.275	408.72
722.679	308.07
723.082	364.25
723.485	319.78
723.889	359.56
724.292	294.03
724.695	294.03
725.098	331.48
725.501	329.14
725.904	291.69
726.307	333.82
726.71	310.41
727.113	357.22
727.516	333.82
727.918	366.59
728.321	345.52
728.724	333.82
729.126	333.82
729.529	326.8
729.931	338.5
730.333	251.9
730.736	308.07
731.138	317.44
731.54	368.93
731.942	305.73
732.344	350.2
732.746	265.94
733.148	294.03
733.55	305.73
733.952	336.16
734.354	333.82
734.756	268.28
735.157	301.05
735.559	336.16
735.96	336.16
736.362	354.88
736.763	298.71
737.165	338.5
737.566	336.16
737.967	397.01
738.368	411.06
738.77	294.03
739.171	399.35
739.572	336.16
739.973	319.78
740.374	303.39
740.774	324.46
741.175	331.48
741.576	317.44
741.977	310.41
742.377	319.78
742.778	340.84
743.178	366.59
743.579	298.71
743.979	422.76
744.379	352.54
744.78	333.82
745.18	329.14
745.58	364.25
745.98	338.5
746.38	308.07
746.78	284.67
747.18	301.05
747.58	331.48
747.98	338.5
748.38	289.35
748.779	296.37
749.179	347.86
749.578	258.92
749.978	296.37
750.377	359.56
750.777	303.39
751.176	287.01
751.575	340.84
751.975	326.8
752.374	329.14
752.773	305.73
753.172	368.93
753.571	361.91
753.97	354.88
754.369	305.73
754.768	275.31
755.166	310.41
755.565	322.12
755.964	270.62
756.362	312.75
756.761	324.46
757.159	329.14
757.558	291.69
757.956	298.71
758.354	427.44
758.753	336.16
759.151	296.37
759.549	319.78
759.947	382.97
760.345	326.8
760.743	340.84
761.141	312.75
761.539	263.6
761.936	322.12
762.334	322.12
762.732	305.73
763.129	329.14
763.527	357.22
763.924	310.41
764.322	347.86
