Data from Al_FLMS009871__1215__16-42-07-279.txt Node

Date: Fri Mar 08 16:42:07 CST 2024
User: pe5414po
Spectrometer: FLMS00987
Trigger mode: 0
Integration Time (sec): 1.000000E-1
Scans to average: 1
Electric dark correction enabled: true
Nonlinearity correction enabled: false
Boxcar width: 0
XAxis mode: Wavelengths
Number of Pixels in Spectrum: 2048
>>>>>Begin Spectral Data<<<<<
188.938	-88.5
189.409	-88.5
189.879	-88.5
190.349	-90.84
190.819	-39.35
191.29	-65.1
191.76	-130.63
192.23	-102.54
192.7	-97.86
193.17	-44.03
193.64	-58.07
194.109	21.5
194.579	-81.48
195.049	19.16
195.519	51.93
195.988	73
196.458	61.29
196.927	51.93
197.397	68.31
197.866	168.96
198.336	63.63
198.805	168.96
199.274	145.55
199.744	197.04
200.213	232.15
200.682	218.11
201.151	175.98
201.62	206.41
202.089	194.7
202.558	311.73
203.027	356.2
203.495	278.96
203.964	302.37
204.433	311.73
204.902	295.35
205.37	302.37
205.839	311.73
206.307	281.3
206.776	318.75
207.244	342.16
207.712	337.48
208.181	318.75
208.649	288.32
209.117	297.69
209.585	318.75
210.053	302.37
210.521	330.45
210.989	330.45
211.457	274.28
211.925	283.64
212.393	356.2
212.861	356.2
213.328	276.62
213.796	342.16
214.264	276.62
214.731	307.05
215.199	297.69
215.666	276.62
216.133	267.26
216.601	281.3
217.068	269.6
217.535	246.2
218.003	257.9
218.47	257.9
218.937	325.77
219.404	302.37
219.871	332.79
220.338	271.94
220.805	243.85
221.271	241.51
221.738	314.07
222.205	267.26
222.671	241.51
223.138	278.96
223.605	311.73
224.071	318.75
224.538	225.13
225.004	269.6
225.47	325.77
225.937	239.17
226.403	278.96
226.869	264.92
227.335	269.6
227.801	283.64
228.267	234.49
228.733	316.41
229.199	225.13
229.665	274.28
230.131	248.54
230.597	293.01
231.062	194.7
231.528	269.6
231.994	318.75
232.459	290.67
232.925	285.98
233.39	250.88
233.856	274.28
234.321	302.37
234.786	274.28
235.252	234.49
235.717	246.2
236.182	243.85
236.647	332.79
237.112	328.11
237.577	278.96
238.042	262.58
238.507	278.96
238.972	285.98
239.436	335.14
239.901	278.96
240.366	307.05
240.83	222.79
241.295	243.85
241.76	344.5
242.224	335.14
242.688	246.2
243.153	278.96
243.617	321.09
244.081	269.6
244.545	302.37
245.01	346.84
245.474	288.32
245.938	276.62
246.402	260.24
246.866	300.03
247.33	260.24
247.793	161.94
248.257	234.49
248.721	274.28
249.185	278.96
249.648	246.2
250.112	248.54
250.575	316.41
251.039	314.07
251.502	246.2
251.965	229.81
252.429	220.45
252.892	335.14
253.355	267.26
253.818	328.11
254.281	346.84
254.744	290.67
255.207	335.14
255.67	257.9
256.133	293.01
256.596	302.37
257.059	302.37
257.522	335.14
257.984	300.03
258.447	360.88
258.909	262.58
259.372	300.03
259.834	260.24
260.297	283.64
260.759	285.98
261.221	264.92
261.684	330.45
262.146	316.41
262.608	323.43
263.07	309.39
263.532	285.98
263.994	337.48
264.456	349.18
264.918	300.03
265.38	302.37
265.842	290.67
266.303	344.5
266.765	234.49
267.227	274.28
267.688	253.22
268.15	316.41
268.611	293.01
269.072	302.37
269.534	248.54
269.995	307.05
270.456	325.77
270.918	243.85
271.379	328.11
271.84	285.98
272.301	316.41
272.762	255.56
273.223	250.88
273.684	297.69
274.144	243.85
274.605	325.77
275.066	300.03
275.527	325.77
275.987	325.77
276.448	283.64
276.908	344.5
277.369	278.96
277.829	274.28
278.289	274.28
278.75	323.43
279.21	288.32
279.67	297.69
280.13	356.2
280.59	300.03
281.05	318.75
281.51	255.56
281.97	325.77
282.43	283.64
282.89	288.32
283.35	344.5
283.809	323.43
284.269	269.6
284.729	248.54
285.188	311.73
285.648	311.73
286.107	229.81
286.567	307.05
287.026	257.9
287.485	295.35
287.944	332.79
288.404	253.22
288.863	297.69
289.322	234.49
289.781	271.94
290.24	290.67
290.699	330.45
291.158	405.35
291.616	316.41
292.075	274.28
292.534	316.41
292.992	346.84
293.451	332.79
293.91	321.09
294.368	295.35
294.827	316.41
295.285	339.82
295.743	346.84
296.202	295.35
296.66	300.03
297.118	199.38
297.576	323.43
298.034	307.05
298.492	271.94
298.95	250.88
299.408	337.48
299.866	370.24
300.324	293.01
300.781	269.6
301.239	353.86
301.697	283.64
302.154	351.52
302.612	234.49
303.069	339.82
303.527	311.73
303.984	318.75
304.441	271.94
304.899	297.69
305.356	267.26
305.813	262.58
306.27	260.24
306.727	307.05
307.184	344.5
307.641	304.71
308.098	349.18
308.555	335.14
309.012	335.14
309.468	321.09
309.925	328.11
310.382	309.39
310.838	339.82
311.295	335.14
311.751	314.07
312.208	316.41
312.664	283.64
313.12	304.71
313.577	311.73
314.033	285.98
314.489	316.41
314.945	328.11
315.401	309.39
315.857	351.52
316.313	342.16
316.769	288.32
317.225	349.18
317.681	353.86
318.136	318.75
318.592	332.79
319.048	288.32
319.503	314.07
319.959	349.18
320.414	377.27
320.869	351.52
321.325	321.09
321.78	271.94
322.235	309.39
322.691	337.48
323.146	295.35
323.601	309.39
324.056	302.37
324.511	260.24
324.966	316.41
325.421	290.67
325.875	288.32
326.33	300.03
326.785	358.54
327.24	321.09
327.694	325.77
328.149	321.09
328.603	274.28
329.058	332.79
329.512	403.01
329.966	293.01
330.421	337.48
330.875	285.98
331.329	304.71
331.783	307.05
332.237	271.94
332.691	307.05
333.145	262.58
333.599	332.79
334.053	363.22
334.507	372.58
334.96	302.37
335.414	325.77
335.868	351.52
336.321	274.28
336.775	344.5
337.228	346.84
337.682	293.01
338.135	351.52
338.588	360.88
339.042	325.77
339.495	307.05
339.948	323.43
340.401	271.94
340.854	300.03
341.307	302.37
341.76	264.92
342.213	271.94
342.666	325.77
343.119	339.82
343.571	309.39
344.024	360.88
344.477	283.64
344.929	293.01
345.382	295.35
345.834	344.5
346.287	295.35
346.739	323.43
347.191	328.11
347.644	323.43
348.096	335.14
348.548	290.67
349	346.84
349.452	250.88
349.904	342.16
350.356	367.9
350.808	358.54
351.26	321.09
351.711	260.24
352.163	342.16
352.615	318.75
353.066	332.79
353.518	323.43
353.969	353.86
354.421	304.71
354.872	325.77
355.324	351.52
355.775	281.3
356.226	302.37
356.677	314.07
357.128	367.9
357.579	351.52
358.03	325.77
358.481	342.16
358.932	290.67
359.383	314.07
359.834	309.39
360.285	353.86
360.735	281.3
361.186	358.54
361.637	374.92
362.087	377.27
362.538	325.77
362.988	307.05
363.438	323.43
363.889	330.45
364.339	276.62
364.789	307.05
365.239	381.95
365.689	365.56
366.139	365.56
366.589	285.98
367.039	391.31
367.489	302.37
367.939	335.14
368.389	311.73
368.839	300.03
369.288	363.22
369.738	281.3
370.187	321.09
370.637	356.2
371.086	353.86
371.536	321.09
371.985	391.31
372.434	300.03
372.884	321.09
373.333	414.71
373.782	403.01
374.231	363.22
374.68	363.22
375.129	281.3
375.578	328.11
376.027	302.37
376.475	335.14
376.924	293.01
377.373	335.14
377.822	353.86
378.27	309.39
378.719	316.41
379.167	314.07
379.616	353.86
380.064	344.5
380.512	349.18
380.961	311.73
381.409	323.43
381.857	311.73
382.305	339.82
382.753	323.43
383.201	337.48
383.649	351.52
384.097	374.92
384.545	318.75
384.992	332.79
385.44	339.82
385.888	290.67
386.335	293.01
386.783	288.32
387.231	337.48
387.678	295.35
388.125	363.22
388.573	379.61
389.02	288.32
389.467	293.01
389.914	332.79
390.362	311.73
390.809	300.03
391.256	307.05
391.703	285.98
392.15	342.16
392.596	314.07
393.043	307.05
393.49	311.73
393.937	346.84
394.383	304.71
394.83	342.16
395.276	344.5
395.723	295.35
396.169	321.09
396.616	300.03
397.062	332.79
397.508	321.09
397.954	304.71
398.401	328.11
398.847	335.14
399.293	374.92
399.739	332.79
400.185	309.39
400.631	353.86
401.076	269.6
401.522	339.82
401.968	300.03
402.414	325.77
402.859	381.95
403.305	339.82
403.75	318.75
404.196	381.95
404.641	367.9
405.086	339.82
405.532	304.71
405.977	293.01
406.422	321.09
406.867	314.07
407.312	314.07
407.757	403.01
408.202	300.03
408.647	346.84
409.092	346.84
409.537	290.67
409.982	339.82
410.426	358.54
410.871	288.32
411.316	372.58
411.76	283.64
412.205	323.43
412.649	262.58
413.093	335.14
413.538	358.54
413.982	295.35
414.426	370.24
414.87	363.22
415.314	372.58
415.758	314.07
416.202	351.52
416.646	370.24
417.09	395.99
417.534	363.22
417.978	281.3
418.421	356.2
418.865	276.62
419.309	332.79
419.752	316.41
420.196	353.86
420.639	349.18
421.083	374.92
421.526	304.71
421.969	297.69
422.412	321.09
422.856	384.29
423.299	321.09
423.742	318.75
424.185	363.22
424.628	328.11
425.071	391.31
425.513	379.61
425.956	325.77
426.399	344.5
426.842	302.37
427.284	316.41
427.727	365.56
428.169	278.96
428.612	335.14
429.054	300.03
429.497	283.64
429.939	260.24
430.381	283.64
430.823	264.92
431.265	307.05
431.707	328.11
432.149	325.77
432.591	337.48
433.033	281.3
433.475	363.22
433.917	358.54
434.359	419.39
434.8	321.09
435.242	307.05
435.684	255.56
436.125	314.07
436.567	349.18
437.008	370.24
437.449	330.45
437.891	393.65
438.332	332.79
438.773	360.88
439.214	318.75
439.656	360.88
440.097	325.77
440.538	276.62
440.978	267.26
441.419	260.24
441.86	328.11
442.301	377.27
442.742	295.35
443.182	388.97
443.623	381.95
444.063	321.09
444.504	356.2
444.944	300.03
445.385	393.65
445.825	349.18
446.265	328.11
446.706	395.99
447.146	358.54
447.586	372.58
448.026	351.52
448.466	274.28
448.906	323.43
449.346	304.71
449.786	316.41
450.225	318.75
450.665	351.52
451.105	351.52
451.544	346.84
451.984	283.64
452.424	297.69
452.863	318.75
453.302	300.03
453.742	236.83
454.181	356.2
454.62	367.9
455.059	325.77
455.499	335.14
455.938	257.9
456.377	344.5
456.816	295.35
457.254	358.54
457.693	339.82
458.132	388.97
458.571	335.14
459.01	351.52
459.448	309.39
459.887	384.29
460.325	314.07
460.764	325.77
461.202	295.35
461.641	367.9
462.079	325.77
462.517	342.16
462.955	260.24
463.393	384.29
463.832	332.79
464.27	307.05
464.708	337.48
465.145	274.28
465.583	339.82
466.021	332.79
466.459	307.05
466.897	339.82
467.334	300.03
467.772	351.52
468.209	384.29
468.647	395.99
469.084	356.2
469.522	339.82
469.959	332.79
470.396	283.64
470.833	346.84
471.271	274.28
471.708	276.62
472.145	351.52
472.582	337.48
473.019	349.18
473.456	332.79
473.892	332.79
474.329	360.88
474.766	330.45
475.202	281.3
475.639	290.67
476.076	346.84
476.512	314.07
476.949	346.84
477.385	307.05
477.821	297.69
478.258	344.5
478.694	262.58
479.13	288.32
479.566	414.71
480.002	307.05
480.438	297.69
480.874	330.45
481.31	321.09
481.746	318.75
482.181	344.5
482.617	330.45
483.053	332.79
483.488	365.56
483.924	293.01
484.36	293.01
484.795	365.56
485.23	337.48
485.666	288.32
486.101	318.75
486.536	323.43
486.971	302.37
487.407	363.22
487.842	339.82
488.277	321.09
488.712	351.52
489.146	337.48
489.581	358.54
490.016	323.43
490.451	285.98
490.885	346.84
491.32	349.18
491.755	300.03
492.189	370.24
492.624	346.84
493.058	339.82
493.492	295.35
493.927	377.27
494.361	370.24
494.795	269.6
495.229	346.84
495.663	332.79
496.097	309.39
496.531	346.84
496.965	339.82
497.399	311.73
497.833	323.43
498.266	297.69
498.7	353.86
499.134	285.98
499.567	304.71
500.001	393.65
500.434	297.69
500.868	330.45
501.301	346.84
501.734	290.67
502.168	353.86
502.601	325.77
503.034	323.43
503.467	344.5
503.9	311.73
504.333	400.67
504.766	297.69
505.199	276.62
505.632	339.82
506.064	314.07
506.497	255.56
506.93	297.69
507.362	309.39
507.795	300.03
508.227	300.03
508.66	351.52
509.092	288.32
509.524	395.99
509.956	353.86
510.389	302.37
510.821	323.43
511.253	283.64
511.685	300.03
512.117	349.18
512.549	365.56
512.981	323.43
513.412	337.48
513.844	325.77
514.276	360.88
514.707	283.64
515.139	328.11
515.571	278.96
516.002	264.92
516.433	290.67
516.865	403.01
517.296	400.67
517.727	274.28
518.159	337.48
518.59	358.54
519.021	335.14
519.452	325.77
519.883	318.75
520.314	255.56
520.744	365.56
521.175	316.41
521.606	255.56
522.037	307.05
522.467	337.48
522.898	307.05
523.328	283.64
523.759	360.88
524.189	307.05
524.62	358.54
525.05	316.41
525.48	332.79
525.91	276.62
526.341	330.45
526.771	309.39
527.201	297.69
527.631	295.35
528.061	290.67
528.49	309.39
528.92	293.01
529.35	307.05
529.78	328.11
530.209	302.37
530.639	349.18
531.068	351.52
531.498	321.09
531.927	274.28
532.357	374.92
532.786	290.67
533.215	309.39
533.644	332.79
534.074	332.79
534.503	372.58
534.932	307.05
535.361	283.64
535.79	300.03
536.218	290.67
536.647	363.22
537.076	264.92
537.505	285.98
537.933	311.73
538.362	386.63
538.79	293.01
539.219	323.43
539.647	304.71
540.076	337.48
540.504	346.84
540.932	332.79
541.36	332.79
541.788	346.84
542.217	288.32
542.645	316.41
543.073	309.39
543.5	356.2
543.928	302.37
544.356	353.86
544.784	358.54
545.211	321.09
545.639	358.54
546.067	300.03
546.494	419.39
546.922	271.94
547.349	318.75
547.776	239.17
548.204	311.73
548.631	321.09
549.058	321.09
549.485	297.69
549.912	300.03
550.339	360.88
550.766	300.03
551.193	332.79
551.62	325.77
552.047	335.14
552.474	351.52
552.9	311.73
553.327	346.84
553.754	321.09
554.18	316.41
554.607	379.61
555.033	356.2
555.459	307.05
555.886	309.39
556.312	353.86
556.738	342.16
557.164	381.95
557.59	391.31
558.016	335.14
558.442	293.01
558.868	290.67
559.294	260.24
559.72	283.64
560.145	330.45
560.571	374.92
560.997	335.14
561.422	339.82
561.848	323.43
562.273	309.39
562.699	377.27
563.124	311.73
563.549	384.29
563.974	281.3
564.4	344.5
564.825	323.43
565.25	328.11
565.675	349.18
566.1	363.22
566.525	367.9
566.95	370.24
567.374	325.77
567.799	290.67
568.224	311.73
568.648	295.35
569.073	323.43
569.497	316.41
569.922	330.45
570.346	374.92
570.771	407.69
571.195	346.84
571.619	349.18
572.043	314.07
572.467	293.01
572.891	332.79
573.315	307.05
573.739	346.84
574.163	328.11
574.587	314.07
575.011	300.03
575.435	297.69
575.858	316.41
576.282	330.45
576.705	304.71
577.129	335.14
577.552	283.64
577.976	335.14
578.399	309.39
578.822	318.75
579.245	330.45
579.669	318.75
580.092	316.41
580.515	260.24
580.938	288.32
581.361	388.97
581.784	363.22
582.206	293.01
582.629	297.69
583.052	325.77
583.474	290.67
583.897	297.69
584.32	304.71
584.742	283.64
585.165	307.05
585.587	325.77
586.009	335.14
586.431	360.88
586.854	267.26
587.276	269.6
587.698	386.63
588.12	344.5
588.542	412.37
588.964	332.79
589.386	321.09
589.807	328.11
590.229	367.9
590.651	363.22
591.073	332.79
591.494	309.39
591.916	363.22
592.337	323.43
592.759	307.05
593.18	323.43
593.601	269.6
594.022	353.86
594.444	248.54
594.865	325.77
595.286	309.39
595.707	250.88
596.128	344.5
596.549	342.16
596.97	274.28
597.39	363.22
597.811	283.64
598.232	246.2
598.652	253.22
599.073	295.35
599.494	377.27
599.914	337.48
600.334	290.67
600.755	316.41
601.175	332.79
601.595	276.62
602.015	311.73
602.436	288.32
602.856	419.39
603.276	304.71
603.696	285.98
604.115	342.16
604.535	349.18
604.955	307.05
605.375	332.79
605.794	309.39
606.214	300.03
606.634	267.26
607.053	330.45
607.473	351.52
607.892	321.09
608.311	321.09
608.731	323.43
609.15	304.71
609.569	403.01
609.988	356.2
610.407	300.03
610.826	318.75
611.245	374.92
611.664	344.5
612.083	269.6
612.501	293.01
612.92	325.77
613.339	372.58
613.757	386.63
614.176	297.69
614.594	285.98
615.013	363.22
615.431	311.73
615.85	323.43
616.268	297.69
616.686	356.2
617.104	311.73
617.522	360.88
617.94	360.88
618.358	367.9
618.776	316.41
619.194	281.3
619.612	281.3
620.03	323.43
620.447	351.52
620.865	246.2
621.282	293.01
621.7	335.14
622.117	229.81
622.535	351.52
622.952	304.71
623.369	314.07
623.787	372.58
624.204	384.29
624.621	253.22
625.038	295.35
625.455	314.07
625.872	353.86
626.289	321.09
626.706	363.22
627.123	281.3
627.539	351.52
627.956	419.39
628.373	328.11
628.789	363.22
629.206	297.69
629.622	318.75
630.038	353.86
630.455	293.01
630.871	363.22
631.287	358.54
631.703	367.9
632.12	353.86
632.536	276.62
632.952	363.22
633.368	300.03
633.783	290.67
634.199	307.05
634.615	309.39
635.031	367.9
635.446	330.45
635.862	325.77
636.277	321.09
636.693	321.09
637.108	370.24
637.524	332.79
637.939	269.6
638.354	388.97
638.77	332.79
639.185	370.24
639.6	346.84
640.015	358.54
640.43	356.2
640.845	304.71
641.259	370.24
641.674	293.01
642.089	271.94
642.504	349.18
642.918	281.3
643.333	314.07
643.747	360.88
644.162	335.14
644.576	281.3
644.991	367.9
645.405	342.16
645.819	360.88
646.233	344.5
646.647	293.01
647.061	318.75
647.475	314.07
647.889	323.43
648.303	288.32
648.717	262.58
649.131	321.09
649.545	337.48
649.958	318.75
650.372	395.99
650.785	307.05
651.199	271.94
651.612	377.27
652.026	307.05
652.439	290.67
652.852	349.18
653.266	283.64
653.679	365.56
654.092	293.01
654.505	288.32
654.918	271.94
655.331	374.92
655.744	330.45
656.156	337.48
656.569	372.58
656.982	377.27
657.394	311.73
657.807	337.48
658.22	274.28
658.632	321.09
659.044	304.71
659.457	351.52
659.869	358.54
660.281	351.52
660.693	314.07
661.106	370.24
661.518	379.61
661.93	360.88
662.342	281.3
662.754	314.07
663.165	332.79
663.577	300.03
663.989	351.52
664.401	353.86
664.812	271.94
665.224	332.79
665.635	311.73
666.047	314.07
666.458	269.6
666.869	358.54
667.281	323.43
667.692	285.98
668.103	309.39
668.514	321.09
668.925	323.43
669.336	370.24
669.747	379.61
670.158	274.28
670.569	295.35
670.979	323.43
671.39	337.48
671.801	285.98
672.211	267.26
672.622	379.61
673.032	314.07
673.443	316.41
673.853	417.05
674.263	342.16
674.674	365.56
675.084	309.39
675.494	363.22
675.904	304.71
676.314	342.16
676.724	335.14
677.134	307.05
677.544	358.54
677.953	379.61
678.363	365.56
678.773	330.45
679.182	302.37
679.592	351.52
680.001	332.79
680.411	307.05
680.82	323.43
681.23	407.69
681.639	337.48
682.048	285.98
682.457	363.22
682.866	257.9
683.275	370.24
683.684	311.73
684.093	346.84
684.502	353.86
684.911	300.03
685.32	337.48
685.728	304.71
686.137	307.05
686.546	321.09
686.954	325.77
687.363	386.63
687.771	314.07
688.179	358.54
688.588	271.94
688.996	377.27
689.404	328.11
689.812	304.71
690.22	370.24
690.628	311.73
691.036	332.79
691.444	325.77
691.852	356.2
692.26	295.35
692.667	337.48
693.075	346.84
693.483	307.05
693.89	325.77
694.298	351.52
694.705	316.41
695.112	367.9
695.52	372.58
695.927	307.05
696.334	346.84
696.741	293.01
697.148	356.2
697.555	278.96
697.962	283.64
698.369	335.14
698.776	318.75
699.183	283.64
699.59	344.5
699.996	267.26
700.403	344.5
700.81	307.05
701.216	342.16
701.623	293.01
702.029	314.07
702.435	260.24
702.842	367.9
703.248	271.94
703.654	342.16
704.06	309.39
704.466	344.5
704.872	332.79
705.278	316.41
705.684	318.75
706.09	330.45
706.496	321.09
706.901	370.24
707.307	349.18
707.712	377.27
708.118	360.88
708.523	314.07
708.929	337.48
709.334	271.94
709.74	267.26
710.145	314.07
710.55	271.94
710.955	316.41
711.36	363.22
711.765	342.16
712.17	290.67
712.575	260.24
712.98	878.14
713.385	358.54
713.789	314.07
714.194	339.82
714.599	311.73
715.003	349.18
715.408	384.29
715.812	356.2
716.217	267.26
716.621	388.97
717.025	285.98
717.429	302.37
717.833	325.77
718.238	309.39
718.642	285.98
719.046	384.29
719.449	295.35
719.853	297.69
720.257	241.51
720.661	300.03
721.065	311.73
721.468	370.24
721.872	335.14
722.275	269.6
722.679	288.32
723.082	318.75
723.485	342.16
723.889	311.73
724.292	325.77
724.695	307.05
725.098	330.45
725.501	290.67
725.904	309.39
726.307	339.82
726.71	325.77
727.113	356.2
727.516	330.45
727.918	311.73
728.321	337.48
728.724	307.05
729.126	358.54
729.529	318.75
729.931	365.56
730.333	307.05
730.736	321.09
731.138	253.22
731.54	316.41
731.942	302.37
732.344	316.41
732.746	403.01
733.148	293.01
733.55	260.24
733.952	323.43
734.354	255.56
734.756	293.01
735.157	360.88
735.559	302.37
735.96	332.79
736.362	323.43
736.763	290.67
737.165	360.88
737.566	309.39
737.967	304.71
738.368	351.52
738.77	339.82
739.171	346.84
739.572	372.58
739.973	360.88
740.374	360.88
740.774	267.26
741.175	367.9
741.576	311.73
741.977	398.33
742.377	304.71
742.778	234.49
743.178	342.16
743.579	374.92
743.979	342.16
744.379	295.35
744.78	367.9
745.18	332.79
745.58	363.22
745.98	323.43
746.38	328.11
746.78	346.84
747.18	332.79
747.58	344.5
747.98	346.84
748.38	297.69
748.779	255.56
749.179	318.75
749.578	307.05
749.978	321.09
750.377	330.45
750.777	295.35
751.176	311.73
751.575	372.58
751.975	285.98
752.374	290.67
752.773	346.84
753.172	332.79
753.571	297.69
753.97	314.07
754.369	269.6
754.768	255.56
755.166	403.01
755.565	377.27
755.964	285.98
756.362	395.99
756.761	295.35
757.159	316.41
757.558	300.03
757.956	351.52
758.354	304.71
758.753	332.79
759.151	288.32
759.549	307.05
759.947	304.71
760.345	253.22
760.743	239.17
761.141	269.6
761.539	330.45
761.936	323.43
762.334	302.37
762.732	337.48
763.129	269.6
763.527	337.48
763.924	328.11
764.322	356.2
764.719	311.73
