Data from Al_FLMS009871__1205__16-42-06-279.txt Node

Date: Fri Mar 08 16:42:06 CST 2024
User: pe5414po
Spectrometer: FLMS00987
Trigger mode: 0
Integration Time (sec): 1.000000E-1
Scans to average: 1
Electric dark correction enabled: true
Nonlinearity correction enabled: false
Boxcar width: 0
XAxis mode: Wavelengths
Number of Pixels in Spectrum: 2048
>>>>>Begin Spectral Data<<<<<
188.938	-145.26
189.409	-145.26
189.879	-145.26
190.349	-105.47
190.819	-142.92
191.29	-77.38
191.76	-89.09
192.23	-84.41
192.7	-61
193.17	-75.04
193.64	-37.59
194.109	-11.85
194.579	23.26
195.049	34.96
195.519	9.22
195.988	13.9
196.458	4.53
196.927	44.32
197.397	98.16
197.866	102.84
198.336	105.18
198.805	77.09
199.274	135.6
199.744	189.44
200.213	173.05
200.682	198.8
201.151	212.84
201.62	194.12
202.089	226.89
202.558	175.39
203.027	198.8
203.495	210.5
203.964	261.99
204.433	264.33
204.902	276.04
205.37	269.02
205.839	306.46
206.307	336.89
206.776	339.23
207.244	231.57
207.712	299.44
208.181	276.04
208.649	313.49
209.117	353.27
209.585	238.59
210.053	327.53
210.521	250.29
210.989	203.48
211.457	257.31
211.925	283.06
212.393	318.17
212.861	261.99
213.328	247.95
213.796	259.65
214.264	222.2
214.731	233.91
215.199	308.8
215.666	269.02
216.133	294.76
216.601	266.67
217.068	257.31
217.535	243.27
218.003	290.08
218.47	259.65
218.937	273.7
219.404	222.2
219.871	299.44
220.338	191.78
220.805	196.46
221.271	236.25
221.738	229.23
222.205	238.59
222.671	231.57
223.138	285.4
223.605	278.38
224.071	278.38
224.538	250.29
225.004	266.67
225.47	222.2
225.937	271.36
226.403	229.23
226.869	247.95
227.335	226.89
227.801	285.4
228.267	229.23
228.733	198.8
229.199	283.06
229.665	231.57
230.131	231.57
230.597	269.02
231.062	203.48
231.528	226.89
231.994	271.36
232.459	247.95
232.925	201.14
233.39	215.18
233.856	226.89
234.321	280.72
234.786	283.06
235.252	254.97
235.717	299.44
236.182	269.02
236.647	187.1
237.112	273.7
237.577	226.89
238.042	318.17
238.507	261.99
238.972	318.17
239.436	250.29
239.901	208.16
240.366	276.04
240.83	238.59
241.295	280.72
241.76	304.12
242.224	306.46
242.688	283.06
243.153	306.46
243.617	187.1
244.081	212.84
244.545	219.86
245.01	254.97
245.474	233.91
245.938	318.17
246.402	257.31
246.866	283.06
247.33	245.61
247.793	247.95
248.257	261.99
248.721	264.33
249.185	264.33
249.648	259.65
250.112	311.14
250.575	257.31
251.039	264.33
251.502	264.33
251.965	233.91
252.429	245.61
252.892	245.61
253.355	301.78
253.818	278.38
254.281	229.23
254.744	264.33
255.207	226.89
255.67	343.91
256.133	294.76
256.596	250.29
257.059	170.71
257.522	273.7
257.984	290.08
258.447	226.89
258.909	233.91
259.372	222.2
259.834	306.46
260.297	299.44
260.759	222.2
261.221	276.04
261.684	290.08
262.146	313.49
262.608	290.08
263.07	299.44
263.532	264.33
263.994	313.49
264.456	334.55
264.918	252.63
265.38	266.67
265.842	292.42
266.303	259.65
266.765	304.12
267.227	247.95
267.688	287.74
268.15	297.1
268.611	299.44
269.072	301.78
269.534	259.65
269.995	313.49
270.456	308.8
270.918	280.72
271.379	301.78
271.84	290.08
272.301	236.25
272.762	276.04
273.223	271.36
273.684	278.38
274.144	285.4
274.605	306.46
275.066	311.14
275.527	290.08
275.987	313.49
276.448	269.02
276.908	243.27
277.369	297.1
277.829	318.17
278.289	292.42
278.75	247.95
279.21	276.04
279.67	290.08
280.13	285.4
280.59	283.06
281.05	250.29
281.51	269.02
281.97	233.91
282.43	348.59
282.89	306.46
283.35	280.72
283.809	257.31
284.269	299.44
284.729	297.1
285.188	313.49
285.648	257.31
286.107	254.97
286.567	229.23
287.026	271.36
287.485	273.7
287.944	278.38
288.404	348.59
288.863	245.61
289.322	266.67
289.781	283.06
290.24	308.8
290.699	353.27
291.158	297.1
291.616	264.33
292.075	301.78
292.534	247.95
292.992	261.99
293.451	215.18
293.91	250.29
294.368	269.02
294.827	240.93
295.285	233.91
295.743	276.04
296.202	276.04
296.66	299.44
297.118	379.02
297.576	318.17
298.034	311.14
298.492	329.87
298.95	290.08
299.408	273.7
299.866	261.99
300.324	283.06
300.781	273.7
301.239	238.59
301.697	348.59
302.154	257.31
302.612	254.97
303.069	236.25
303.527	283.06
303.984	348.59
304.441	325.19
304.899	306.46
305.356	240.93
305.813	292.42
306.27	292.42
306.727	261.99
307.184	308.8
307.641	304.12
308.098	236.25
308.555	250.29
309.012	346.25
309.468	261.99
309.925	283.06
310.382	301.78
310.838	374.34
311.295	369.66
311.751	261.99
312.208	231.57
312.664	287.74
313.12	308.8
313.577	269.02
314.033	280.72
314.489	350.93
314.945	332.21
315.401	294.76
315.857	416.47
316.313	247.95
316.769	297.1
317.225	301.78
317.681	240.93
318.136	264.33
318.592	287.74
319.048	247.95
319.503	273.7
319.959	285.4
320.414	329.87
320.869	308.8
321.325	203.48
321.78	320.51
322.235	259.65
322.691	292.42
323.146	318.17
323.601	299.44
324.056	269.02
324.511	322.85
324.966	301.78
325.421	322.85
325.875	252.63
326.33	318.17
326.785	264.33
327.24	278.38
327.694	245.61
328.149	294.76
328.603	313.49
329.058	339.23
329.512	243.27
329.966	273.7
330.421	259.65
330.875	301.78
331.329	311.14
331.783	280.72
332.237	222.2
332.691	294.76
333.145	283.06
333.599	297.1
334.053	322.85
334.507	304.12
334.96	254.97
335.414	329.87
335.868	294.76
336.321	301.78
336.775	250.29
337.228	325.19
337.682	273.7
338.135	278.38
338.588	329.87
339.042	290.08
339.495	294.76
339.948	315.83
340.401	313.49
340.854	273.7
341.307	290.08
341.76	269.02
342.213	266.67
342.666	250.29
343.119	292.42
343.571	299.44
344.024	252.63
344.477	269.02
344.929	313.49
345.382	250.29
345.834	290.08
346.287	271.36
346.739	294.76
347.191	329.87
347.644	336.89
348.096	355.62
348.548	257.31
349	283.06
349.452	254.97
349.904	294.76
350.356	322.85
350.808	259.65
351.26	259.65
351.711	301.78
352.163	278.38
352.615	334.55
353.066	313.49
353.518	257.31
353.969	259.65
354.421	341.57
354.872	304.12
355.324	259.65
355.775	325.19
356.226	294.76
356.677	283.06
357.128	339.23
357.579	308.8
358.03	285.4
358.481	372
358.932	236.25
359.383	311.14
359.834	299.44
360.285	250.29
360.735	276.04
361.186	264.33
361.637	231.57
362.087	299.44
362.538	355.62
362.988	278.38
363.438	311.14
363.889	280.72
364.339	318.17
364.789	299.44
365.239	299.44
365.689	320.51
366.139	271.36
366.589	322.85
367.039	304.12
367.489	276.04
367.939	278.38
368.389	341.57
368.839	320.51
369.288	325.19
369.738	334.55
370.187	313.49
370.637	306.46
371.086	339.23
371.536	318.17
371.985	257.31
372.434	301.78
372.884	299.44
373.333	273.7
373.782	364.98
374.231	343.91
374.68	283.06
375.129	308.8
375.578	236.25
376.027	233.91
376.475	322.85
376.924	353.27
377.373	285.4
377.822	292.42
378.27	243.27
378.719	343.91
379.167	318.17
379.616	226.89
380.064	306.46
380.512	346.25
380.961	285.4
381.409	313.49
381.857	264.33
382.305	346.25
382.753	299.44
383.201	259.65
383.649	357.96
384.097	240.93
384.545	261.99
384.992	280.72
385.44	294.76
385.888	273.7
386.335	304.12
386.783	313.49
387.231	210.5
387.678	306.46
388.125	297.1
388.573	292.42
389.02	273.7
389.467	236.25
389.914	243.27
390.362	346.25
390.809	353.27
391.256	320.51
391.703	348.59
392.15	332.21
392.596	313.49
393.043	276.04
393.49	236.25
393.937	343.91
394.383	250.29
394.83	320.51
395.276	311.14
395.723	329.87
396.169	313.49
396.616	271.36
397.062	287.74
397.508	292.42
397.954	329.87
398.401	287.74
398.847	313.49
399.293	229.23
399.739	357.96
400.185	301.78
400.631	313.49
401.076	226.89
401.522	283.06
401.968	301.78
402.414	306.46
402.859	297.1
403.305	315.83
403.75	217.52
404.196	283.06
404.641	374.34
405.086	257.31
405.532	313.49
405.977	297.1
406.422	273.7
406.867	332.21
407.312	325.19
407.757	273.7
408.202	271.36
408.647	240.93
409.092	297.1
409.537	294.76
409.982	353.27
410.426	327.53
410.871	318.17
411.316	261.99
411.76	297.1
412.205	294.76
412.649	247.95
413.093	285.4
413.538	322.85
413.982	266.67
414.426	231.57
414.87	334.55
415.314	315.83
415.758	325.19
416.202	306.46
416.646	290.08
417.09	336.89
417.534	364.98
417.978	322.85
418.421	290.08
418.865	332.21
419.309	332.21
419.752	280.72
420.196	297.1
420.639	294.76
421.083	287.74
421.526	306.46
421.969	322.85
422.412	294.76
422.856	329.87
423.299	243.27
423.742	261.99
424.185	301.78
424.628	254.97
425.071	329.87
425.513	280.72
425.956	308.8
426.399	287.74
426.842	306.46
427.284	287.74
427.727	341.57
428.169	327.53
428.612	294.76
429.054	252.63
429.497	290.08
429.939	264.33
430.381	327.53
430.823	297.1
431.265	327.53
431.707	271.36
432.149	236.25
432.591	285.4
433.033	294.76
433.475	322.85
433.917	280.72
434.359	226.89
434.8	348.59
435.242	245.61
435.684	320.51
436.125	350.93
436.567	259.65
437.008	297.1
437.449	273.7
437.891	287.74
438.332	311.14
438.773	285.4
439.214	215.18
439.656	287.74
440.097	327.53
440.538	353.27
440.978	311.14
441.419	290.08
441.86	313.49
442.301	350.93
442.742	294.76
443.182	343.91
443.623	332.21
444.063	362.64
444.504	278.38
444.944	236.25
445.385	308.8
445.825	334.55
446.265	266.67
446.706	294.76
447.146	306.46
447.586	299.44
448.026	360.3
448.466	306.46
448.906	297.1
449.346	294.76
449.786	285.4
450.225	343.91
450.665	304.12
451.105	280.72
451.544	264.33
451.984	297.1
452.424	304.12
452.863	339.23
453.302	261.99
453.742	311.14
454.181	205.82
454.62	269.02
455.059	287.74
455.499	346.25
455.938	269.02
456.377	257.31
456.816	271.36
457.254	276.04
457.693	280.72
458.132	299.44
458.571	278.38
459.01	318.17
459.448	301.78
459.887	299.44
460.325	290.08
460.764	257.31
461.202	313.49
461.641	329.87
462.079	276.04
462.517	308.8
462.955	259.65
463.393	287.74
463.832	329.87
464.27	315.83
464.708	332.21
465.145	299.44
465.583	318.17
466.021	301.78
466.459	299.44
466.897	386.04
467.334	322.85
467.772	308.8
468.209	320.51
468.647	336.89
469.084	339.23
469.522	278.38
469.959	308.8
470.396	250.29
470.833	276.04
471.271	254.97
471.708	364.98
472.145	350.93
472.582	304.12
473.019	283.06
473.456	329.87
473.892	308.8
474.329	264.33
474.766	311.14
475.202	297.1
475.639	250.29
476.076	318.17
476.512	339.23
476.949	278.38
477.385	280.72
477.821	308.8
478.258	350.93
478.694	245.61
479.13	294.76
479.566	243.27
480.002	322.85
480.438	320.51
480.874	348.59
481.31	306.46
481.746	308.8
482.181	287.74
482.617	329.87
483.053	278.38
483.488	341.57
483.924	327.53
484.36	308.8
484.795	250.29
485.23	332.21
485.666	254.97
486.101	332.21
486.536	346.25
486.971	336.89
487.407	301.78
487.842	329.87
488.277	311.14
488.712	322.85
489.146	238.59
489.581	334.55
490.016	325.19
490.451	311.14
490.885	357.96
491.32	292.42
491.755	266.67
492.189	285.4
492.624	306.46
493.058	329.87
493.492	348.59
493.927	259.65
494.361	320.51
494.795	294.76
495.229	273.7
495.663	339.23
496.097	304.12
496.531	273.7
496.965	325.19
497.399	311.14
497.833	254.97
498.266	325.19
498.7	278.38
499.134	322.85
499.567	273.7
500.001	343.91
500.434	294.76
500.868	313.49
501.301	306.46
501.734	278.38
502.168	322.85
502.601	343.91
503.034	315.83
503.467	280.72
503.9	290.08
504.333	353.27
504.766	238.59
505.199	261.99
505.632	299.44
506.064	346.25
506.497	276.04
506.93	269.02
507.362	318.17
507.795	271.36
508.227	322.85
508.66	269.02
509.092	313.49
509.524	308.8
509.956	308.8
510.389	325.19
510.821	346.25
511.253	273.7
511.685	327.53
512.117	280.72
512.549	280.72
512.981	201.14
513.412	306.46
513.844	318.17
514.276	332.21
514.707	336.89
515.139	297.1
515.571	285.4
516.002	257.31
516.433	334.55
516.865	224.55
517.296	257.31
517.727	283.06
518.159	306.46
518.59	313.49
519.021	304.12
519.452	278.38
519.883	339.23
520.314	318.17
520.744	348.59
521.175	287.74
521.606	280.72
522.037	301.78
522.467	322.85
522.898	269.02
523.328	299.44
523.759	290.08
524.189	306.46
524.62	315.83
525.05	374.34
525.48	369.66
525.91	308.8
526.341	341.57
526.771	290.08
527.201	341.57
527.631	353.27
528.061	290.08
528.49	287.74
528.92	299.44
529.35	362.64
529.78	322.85
530.209	285.4
530.639	313.49
531.068	290.08
531.498	346.25
531.927	348.59
532.357	306.46
532.786	329.87
533.215	257.31
533.644	308.8
534.074	325.19
534.503	271.36
534.932	311.14
535.361	259.65
535.79	341.57
536.218	313.49
536.647	332.21
537.076	292.42
537.505	346.25
537.933	329.87
538.362	269.02
538.79	259.65
539.219	311.14
539.647	313.49
540.076	320.51
540.504	257.31
540.932	322.85
541.36	287.74
541.788	325.19
542.217	329.87
542.645	390.72
543.073	315.83
543.5	332.21
543.928	294.76
544.356	301.78
544.784	336.89
545.211	247.95
545.639	306.46
546.067	320.51
546.494	334.55
546.922	332.21
547.349	315.83
547.776	266.67
548.204	325.19
548.631	308.8
549.058	301.78
549.485	276.04
549.912	278.38
550.339	271.36
550.766	304.12
551.193	357.96
551.62	362.64
552.047	318.17
552.474	280.72
552.9	315.83
553.327	236.25
553.754	266.67
554.18	276.04
554.607	261.99
555.033	257.31
555.459	339.23
555.886	236.25
556.312	320.51
556.738	266.67
557.164	292.42
557.59	339.23
558.016	259.65
558.442	306.46
558.868	311.14
559.294	297.1
559.72	292.42
560.145	327.53
560.571	341.57
560.997	381.36
561.422	313.49
561.848	283.06
562.273	299.44
562.699	376.68
563.124	313.49
563.549	301.78
563.974	301.78
564.4	290.08
564.825	315.83
565.25	254.97
565.675	278.38
566.1	278.38
566.525	336.89
566.95	243.27
567.374	283.06
567.799	341.57
568.224	290.08
568.648	290.08
569.073	322.85
569.497	245.61
569.922	329.87
570.346	341.57
570.771	276.04
571.195	287.74
571.619	343.91
572.043	297.1
572.467	381.36
572.891	414.13
573.315	290.08
573.739	294.76
574.163	322.85
574.587	346.25
575.011	334.55
575.435	308.8
575.858	311.14
576.282	287.74
576.705	379.02
577.129	322.85
577.552	364.98
577.976	273.7
578.399	355.62
578.822	367.32
579.245	273.7
579.669	271.36
580.092	231.57
580.515	294.76
580.938	254.97
581.361	301.78
581.784	308.8
582.206	332.21
582.629	259.65
583.052	292.42
583.474	269.02
583.897	215.18
584.32	311.14
584.742	276.04
585.165	320.51
585.587	299.44
586.009	276.04
586.431	306.46
586.854	269.02
587.276	315.83
587.698	294.76
588.12	301.78
588.542	280.72
588.964	336.89
589.386	257.31
589.807	334.55
590.229	339.23
590.651	322.85
591.073	276.04
591.494	287.74
591.916	304.12
592.337	264.33
592.759	264.33
593.18	315.83
593.601	411.79
594.022	320.51
594.444	301.78
594.865	283.06
595.286	336.89
595.707	285.4
596.128	372
596.549	329.87
596.97	264.33
597.39	341.57
597.811	297.1
598.232	304.12
598.652	278.38
599.073	250.29
599.494	254.97
599.914	280.72
600.334	311.14
600.755	304.12
601.175	336.89
601.595	269.02
602.015	322.85
602.436	264.33
602.856	395.4
603.276	336.89
603.696	238.59
604.115	329.87
604.535	348.59
604.955	343.91
605.375	341.57
605.794	329.87
606.214	297.1
606.634	348.59
607.053	294.76
607.473	343.91
607.892	301.78
608.311	327.53
608.731	306.46
609.15	278.38
609.569	276.04
609.988	231.57
610.407	299.44
610.826	313.49
611.245	308.8
611.664	386.04
612.083	285.4
612.501	276.04
612.92	250.29
613.339	336.89
613.757	273.7
614.176	311.14
614.594	306.46
615.013	336.89
615.431	271.36
615.85	287.74
616.268	250.29
616.686	233.91
617.104	187.1
617.522	238.59
617.94	346.25
618.358	322.85
618.776	304.12
619.194	243.27
619.612	250.29
620.03	336.89
620.447	372
620.865	264.33
621.282	346.25
621.7	332.21
622.117	304.12
622.535	350.93
622.952	259.65
623.369	313.49
623.787	269.02
624.204	301.78
624.621	339.23
625.038	261.99
625.455	259.65
625.872	346.25
626.289	306.46
626.706	357.96
627.123	318.17
627.539	313.49
627.956	290.08
628.373	355.62
628.789	301.78
629.206	313.49
629.622	297.1
630.038	294.76
630.455	327.53
630.871	292.42
631.287	325.19
631.703	276.04
632.12	283.06
632.536	280.72
632.952	301.78
633.368	322.85
633.783	278.38
634.199	362.64
634.615	304.12
635.031	320.51
635.446	325.19
635.862	341.57
636.277	280.72
636.693	236.25
637.108	283.06
637.524	308.8
637.939	287.74
638.354	341.57
638.77	240.93
639.185	372
639.6	304.12
640.015	247.95
640.43	236.25
640.845	350.93
641.259	261.99
641.674	287.74
642.089	306.46
642.504	269.02
642.918	334.55
643.333	276.04
643.747	243.27
644.162	332.21
644.576	327.53
644.991	299.44
645.405	329.87
645.819	313.49
646.233	334.55
646.647	383.7
647.061	313.49
647.475	315.83
647.889	269.02
648.303	271.36
648.717	318.17
649.131	245.61
649.545	247.95
649.958	290.08
650.372	294.76
650.785	294.76
651.199	292.42
651.612	325.19
652.026	290.08
652.439	292.42
652.852	325.19
653.266	292.42
653.679	360.3
654.092	299.44
654.505	343.91
654.918	341.57
655.331	325.19
655.744	329.87
656.156	346.25
656.569	364.98
656.982	212.84
657.394	294.76
657.807	287.74
658.22	313.49
658.632	369.66
659.044	327.53
659.457	287.74
659.869	308.8
660.281	357.96
660.693	301.78
661.106	332.21
661.518	299.44
661.93	308.8
662.342	348.59
662.754	353.27
663.165	297.1
663.577	332.21
663.989	299.44
664.401	269.02
664.812	276.04
665.224	191.78
665.635	287.74
666.047	313.49
666.458	266.67
666.869	297.1
667.281	329.87
667.692	280.72
668.103	381.36
668.514	264.33
668.925	285.4
669.336	311.14
669.747	294.76
670.158	322.85
670.569	217.52
670.979	254.97
671.39	325.19
671.801	269.02
672.211	325.19
672.622	240.93
673.032	325.19
673.443	261.99
673.853	280.72
674.263	285.4
674.674	280.72
675.084	280.72
675.494	318.17
675.904	280.72
676.314	287.74
676.724	332.21
677.134	290.08
677.544	196.46
677.953	294.76
678.363	285.4
678.773	362.64
679.182	336.89
679.592	327.53
680.001	343.91
680.411	301.78
680.82	360.3
681.23	332.21
681.639	336.89
682.048	327.53
682.457	353.27
682.866	306.46
683.275	217.52
683.684	308.8
684.093	346.25
684.502	304.12
684.911	355.62
685.32	334.55
685.728	276.04
686.137	308.8
686.546	353.27
686.954	308.8
687.363	332.21
687.771	315.83
688.179	266.67
688.588	360.3
688.996	252.63
689.404	264.33
689.812	294.76
690.22	320.51
690.628	311.14
691.036	276.04
691.444	376.68
691.852	250.29
692.26	283.06
692.667	315.83
693.075	240.93
693.483	325.19
693.89	318.17
694.298	222.2
694.705	243.27
695.112	261.99
695.52	290.08
695.927	322.85
696.334	313.49
696.741	243.27
697.148	341.57
697.555	327.53
697.962	315.83
698.369	250.29
698.776	261.99
699.183	292.42
699.59	336.89
699.996	280.72
700.403	318.17
700.81	247.95
701.216	334.55
701.623	322.85
702.029	346.25
702.435	276.04
702.842	325.19
703.248	299.44
703.654	325.19
704.06	318.17
704.466	259.65
704.872	257.31
705.278	350.93
705.684	308.8
706.09	290.08
706.496	322.85
706.901	287.74
707.307	273.7
707.712	280.72
708.118	294.76
708.523	259.65
708.929	355.62
709.334	273.7
709.74	257.31
710.145	315.83
710.55	304.12
710.955	276.04
711.36	236.25
711.765	339.23
712.17	299.44
712.575	329.87
712.98	774.57
713.385	334.55
713.789	236.25
714.194	285.4
714.599	269.02
715.003	238.59
715.408	346.25
715.812	250.29
716.217	264.33
716.621	294.76
717.025	301.78
717.429	294.76
717.833	271.36
718.238	250.29
718.642	264.33
719.046	306.46
719.449	212.84
719.853	308.8
720.257	294.76
720.661	297.1
721.065	276.04
721.468	308.8
721.872	294.76
722.275	297.1
722.679	290.08
723.082	254.97
723.485	290.08
723.889	306.46
724.292	285.4
724.695	280.72
725.098	343.91
725.501	266.67
725.904	313.49
726.307	325.19
726.71	322.85
727.113	332.21
727.516	287.74
727.918	306.46
728.321	327.53
728.724	245.61
729.126	329.87
729.529	290.08
729.931	313.49
730.333	322.85
730.736	292.42
731.138	311.14
731.54	233.91
731.942	278.38
732.344	287.74
732.746	259.65
733.148	315.83
733.55	299.44
733.952	327.53
734.354	271.36
734.756	285.4
735.157	252.63
735.559	364.98
735.96	280.72
736.362	336.89
736.763	208.16
737.165	332.21
737.566	322.85
737.967	360.3
738.368	318.17
738.77	240.93
739.171	259.65
739.572	236.25
739.973	222.2
740.374	266.67
740.774	313.49
741.175	285.4
741.576	269.02
741.977	355.62
742.377	278.38
742.778	269.02
743.178	306.46
743.579	350.93
743.979	308.8
744.379	233.91
744.78	322.85
745.18	308.8
745.58	329.87
745.98	304.12
746.38	294.76
746.78	315.83
747.18	266.67
747.58	320.51
747.98	311.14
748.38	320.51
748.779	318.17
749.179	320.51
749.578	222.2
749.978	320.51
750.377	245.61
750.777	332.21
751.176	254.97
751.575	271.36
751.975	353.27
752.374	311.14
752.773	287.74
753.172	250.29
753.571	355.62
753.97	318.17
754.369	320.51
754.768	299.44
755.166	313.49
755.565	350.93
755.964	252.63
756.362	325.19
756.761	276.04
757.159	297.1
757.558	264.33
757.956	318.17
758.354	285.4
758.753	348.59
759.151	336.89
759.549	348.59
759.947	299.44
760.345	292.42
760.743	292.42
761.141	271.36
761.539	325.19
761.936	327.53
762.334	273.7
762.732	343.91
763.129	294.76
763.527	318.17
763.924	304.12
764.322	306.46
764.719	346.25
765.117	283.06
765.514	355.62
