Data from Al_FLMS009871__1209__16-42-06-679.txt Node

Date: Fri Mar 08 16:42:06 CST 2024
User: pe5414po
Spectrometer: FLMS00987
Trigger mode: 0
Integration Time (sec): 1.000000E-1
Scans to average: 1
Electric dark correction enabled: true
Nonlinearity correction enabled: false
Boxcar width: 0
XAxis mode: Wavelengths
Number of Pixels in Spectrum: 2048
>>>>>Begin Spectral Data<<<<<
188.938	-55.3
189.409	-55.3
189.879	-55.3
190.349	-50.61
190.819	-111.47
191.29	-113.81
191.76	-71.68
192.23	-45.93
192.7	-69.34
193.17	-118.49
193.64	-62.32
194.109	-13.17
194.579	7.9
195.049	-3.8
195.519	28.96
195.988	19.6
196.458	57.05
196.927	106.2
197.397	85.14
197.866	96.84
198.336	96.84
198.805	134.29
199.274	178.76
199.744	167.06
200.213	174.08
200.682	206.84
201.151	211.53
201.62	270.04
202.089	246.63
202.558	258.34
203.027	204.5
203.495	333.23
203.964	298.13
204.433	333.23
204.902	300.47
205.37	321.53
205.839	300.47
206.307	302.81
206.776	337.91
207.244	307.49
207.712	295.79
208.181	279.4
208.649	333.23
209.117	298.13
209.585	288.76
210.053	291.1
210.521	340.26
210.989	286.42
211.457	241.95
211.925	326.21
212.393	279.4
212.861	267.7
213.328	267.7
213.796	302.81
214.264	298.13
214.731	270.04
215.199	328.55
215.666	253.66
216.133	253.66
216.601	260.68
217.068	316.85
217.535	293.44
218.003	256
218.47	349.62
218.937	232.59
219.404	260.68
219.871	248.97
220.338	263.02
220.805	234.93
221.271	251.32
221.738	293.44
222.205	188.12
222.671	279.4
223.138	260.68
223.605	232.59
224.071	234.93
224.538	288.76
225.004	251.32
225.47	213.87
225.937	265.36
226.403	256
226.869	274.72
227.335	293.44
227.801	288.76
228.267	309.83
228.733	300.47
229.199	244.29
229.665	281.74
230.131	284.08
230.597	293.44
231.062	274.72
231.528	232.59
231.994	298.13
232.459	305.15
232.925	314.51
233.39	281.74
233.856	227.91
234.321	256
234.786	342.6
235.252	239.61
235.717	284.08
236.182	244.29
236.647	244.29
237.112	281.74
237.577	239.61
238.042	263.02
238.507	279.4
238.972	260.68
239.436	265.36
239.901	277.06
240.366	241.95
240.83	232.59
241.295	288.76
241.76	319.19
242.224	281.74
242.688	302.81
243.153	279.4
243.617	265.36
244.081	321.53
244.545	321.53
245.01	272.38
245.474	302.81
245.938	305.15
246.402	328.55
246.866	309.83
247.33	260.68
247.793	319.19
248.257	267.7
248.721	237.27
249.185	288.76
249.648	241.95
250.112	298.13
250.575	239.61
251.039	291.1
251.502	279.4
251.965	321.53
252.429	284.08
252.892	244.29
253.355	302.81
253.818	288.76
254.281	398.77
254.744	234.93
255.207	232.59
255.67	380.04
256.133	284.08
256.596	267.7
257.059	307.49
257.522	298.13
257.984	295.79
258.447	281.74
258.909	356.64
259.372	321.53
259.834	391.75
260.297	328.55
260.759	326.21
261.221	312.17
261.684	333.23
262.146	293.44
262.608	270.04
263.07	302.81
263.532	295.79
263.994	309.83
264.456	347.28
264.918	298.13
265.38	277.06
265.842	323.87
266.303	232.59
266.765	288.76
267.227	298.13
267.688	309.83
268.15	333.23
268.611	237.27
269.072	265.36
269.534	274.72
269.995	302.81
270.456	314.51
270.918	291.1
271.379	281.74
271.84	253.66
272.301	291.1
272.762	291.1
273.223	237.27
273.684	302.81
274.144	265.36
274.605	279.4
275.066	270.04
275.527	309.83
275.987	309.83
276.448	295.79
276.908	260.68
277.369	241.95
277.829	368.34
278.289	298.13
278.75	300.47
279.21	326.21
279.67	274.72
280.13	361.32
280.59	293.44
281.05	251.32
281.51	270.04
281.97	328.55
282.43	248.97
282.89	314.51
283.35	326.21
283.809	344.94
284.269	279.4
284.729	319.19
285.188	300.47
285.648	307.49
286.107	321.53
286.567	288.76
287.026	321.53
287.485	312.17
287.944	312.17
288.404	314.51
288.863	312.17
289.322	263.02
289.781	281.74
290.24	366
290.699	347.28
291.158	356.64
291.616	316.85
292.075	316.85
292.534	373.02
292.992	344.94
293.451	293.44
293.91	298.13
294.368	288.76
294.827	293.44
295.285	330.89
295.743	286.42
296.202	288.76
296.66	209.19
297.118	300.47
297.576	295.79
298.034	337.91
298.492	293.44
298.95	295.79
299.408	298.13
299.866	347.28
300.324	373.02
300.781	323.87
301.239	267.7
301.697	321.53
302.154	284.08
302.612	321.53
303.069	277.06
303.527	356.64
303.984	314.51
304.441	361.32
304.899	295.79
305.356	309.83
305.813	307.49
306.27	300.47
306.727	277.06
307.184	337.91
307.641	288.76
308.098	288.76
308.555	298.13
309.012	295.79
309.468	349.62
309.925	298.13
310.382	251.32
310.838	326.21
311.295	347.28
311.751	319.19
312.208	368.34
312.664	330.89
313.12	312.17
313.577	307.49
314.033	312.17
314.489	258.34
314.945	272.38
315.401	272.38
315.857	335.57
316.313	300.47
316.769	272.38
317.225	312.17
317.681	312.17
318.136	335.57
318.592	340.26
319.048	335.57
319.503	337.91
319.959	267.7
320.414	298.13
320.869	291.1
321.325	330.89
321.78	302.81
322.235	272.38
322.691	326.21
323.146	279.4
323.601	291.1
324.056	295.79
324.511	302.81
324.966	312.17
325.421	354.3
325.875	382.39
326.33	323.87
326.785	342.6
327.24	300.47
327.694	307.49
328.149	321.53
328.603	295.79
329.058	281.74
329.512	284.08
329.966	321.53
330.421	314.51
330.875	286.42
331.329	274.72
331.783	366
332.237	361.32
332.691	300.47
333.145	328.55
333.599	267.7
334.053	373.02
334.507	309.83
334.96	316.85
335.414	326.21
335.868	309.83
336.321	265.36
336.775	288.76
337.228	274.72
337.682	326.21
338.135	265.36
338.588	337.91
339.042	302.81
339.495	398.77
339.948	302.81
340.401	309.83
340.854	321.53
341.307	333.23
341.76	263.02
342.213	286.42
342.666	270.04
343.119	342.6
343.571	230.25
344.024	312.17
344.477	342.6
344.929	354.3
345.382	295.79
345.834	305.15
346.287	347.28
346.739	380.04
347.191	288.76
347.644	309.83
348.096	356.64
348.548	326.21
349	337.91
349.452	274.72
349.904	298.13
350.356	326.21
350.808	293.44
351.26	256
351.711	314.51
352.163	321.53
352.615	316.85
353.066	347.28
353.518	258.34
353.969	347.28
354.421	314.51
354.872	335.57
355.324	293.44
355.775	342.6
356.226	321.53
356.677	333.23
357.128	363.66
357.579	258.34
358.03	337.91
358.481	286.42
358.932	267.7
359.383	270.04
359.834	323.87
360.285	293.44
360.735	314.51
361.186	328.55
361.637	363.66
362.087	258.34
362.538	337.91
362.988	366
363.438	321.53
363.889	340.26
364.339	309.83
364.789	401.11
365.239	298.13
365.689	361.32
366.139	347.28
366.589	293.44
367.039	298.13
367.489	265.36
367.939	366
368.389	307.49
368.839	333.23
369.288	321.53
369.738	323.87
370.187	284.08
370.637	260.68
371.086	309.83
371.536	337.91
371.985	305.15
372.434	323.87
372.884	312.17
373.333	312.17
373.782	335.57
374.231	295.79
374.68	319.19
375.129	328.55
375.578	347.28
376.027	349.62
376.475	366
376.924	391.75
377.373	307.49
377.822	307.49
378.27	314.51
378.719	330.89
379.167	344.94
379.616	307.49
380.064	302.81
380.512	356.64
380.961	328.55
381.409	326.21
381.857	288.76
382.305	403.45
382.753	354.3
383.201	424.51
383.649	326.21
384.097	340.26
384.545	307.49
384.992	330.89
385.44	356.64
385.888	279.4
386.335	305.15
386.783	349.62
387.231	366
387.678	330.89
388.125	363.66
388.573	375.36
389.02	351.96
389.467	316.85
389.914	342.6
390.362	358.98
390.809	321.53
391.256	291.1
391.703	377.7
392.15	361.32
392.596	361.32
393.043	375.36
393.49	330.89
393.937	328.55
394.383	319.19
394.83	328.55
395.276	307.49
395.723	323.87
396.169	387.07
396.616	298.13
397.062	405.79
397.508	302.81
397.954	356.64
398.401	351.96
398.847	340.26
399.293	277.06
399.739	328.55
400.185	340.26
400.631	319.19
401.076	394.09
401.522	351.96
401.968	340.26
402.414	272.38
402.859	344.94
403.305	349.62
403.75	300.47
404.196	398.77
404.641	354.3
405.086	293.44
405.532	328.55
405.977	344.94
406.422	342.6
406.867	293.44
407.312	323.87
407.757	302.81
408.202	330.89
408.647	361.32
409.092	356.64
409.537	319.19
409.982	333.23
410.426	347.28
410.871	295.79
411.316	358.98
411.76	279.4
412.205	323.87
412.649	335.57
413.093	333.23
413.538	342.6
413.982	279.4
414.426	328.55
414.87	316.85
415.314	375.36
415.758	295.79
416.202	284.08
416.646	316.85
417.09	316.85
417.534	321.53
417.978	295.79
418.421	333.23
418.865	326.21
419.309	344.94
419.752	286.42
420.196	248.97
420.639	375.36
421.083	293.44
421.526	330.89
421.969	314.51
422.412	337.91
422.856	326.21
423.299	361.32
423.742	333.23
424.185	347.28
424.628	326.21
425.071	321.53
425.513	319.19
425.956	337.91
426.399	340.26
426.842	316.85
427.284	333.23
427.727	316.85
428.169	307.49
428.612	375.36
429.054	279.4
429.497	305.15
429.939	382.39
430.381	321.53
430.823	349.62
431.265	293.44
431.707	281.74
432.149	363.66
432.591	337.91
433.033	305.15
433.475	263.02
433.917	284.08
434.359	316.85
434.8	293.44
435.242	370.68
435.684	302.81
436.125	305.15
436.567	312.17
437.008	375.36
437.449	337.91
437.891	258.34
438.332	356.64
438.773	351.96
439.214	307.49
439.656	330.89
440.097	394.09
440.538	302.81
440.978	309.83
441.419	391.75
441.86	394.09
442.301	307.49
442.742	309.83
443.182	302.81
443.623	344.94
444.063	288.76
444.504	298.13
444.944	396.43
445.385	366
445.825	265.36
446.265	321.53
446.706	316.85
447.146	253.66
447.586	330.89
448.026	361.32
448.466	263.02
448.906	344.94
449.346	363.66
449.786	309.83
450.225	366
450.665	288.76
451.105	330.89
451.544	354.3
451.984	368.34
452.424	340.26
452.863	335.57
453.302	267.7
453.742	330.89
454.181	328.55
454.62	366
455.059	340.26
455.499	319.19
455.938	342.6
456.377	387.07
456.816	363.66
457.254	314.51
457.693	335.57
458.132	342.6
458.571	394.09
459.01	307.49
459.448	408.13
459.887	284.08
460.325	370.68
460.764	429.2
461.202	340.26
461.641	337.91
462.079	286.42
462.517	351.96
462.955	237.27
463.393	314.51
463.832	321.53
464.27	272.38
464.708	314.51
465.145	351.96
465.583	319.19
466.021	333.23
466.459	424.51
466.897	295.79
467.334	328.55
467.772	363.66
468.209	337.91
468.647	417.49
469.084	314.51
469.522	307.49
469.959	307.49
470.396	363.66
470.833	342.6
471.271	366
471.708	344.94
472.145	368.34
472.582	316.85
473.019	370.68
473.456	256
473.892	288.76
474.329	314.51
474.766	387.07
475.202	370.68
475.639	305.15
476.076	284.08
476.512	300.47
476.949	328.55
477.385	300.47
477.821	319.19
478.258	272.38
478.694	335.57
479.13	293.44
479.566	298.13
480.002	382.39
480.438	298.13
480.874	284.08
481.31	361.32
481.746	274.72
482.181	358.98
482.617	373.02
483.053	333.23
483.488	351.96
483.924	323.87
484.36	314.51
484.795	335.57
485.23	333.23
485.666	323.87
486.101	328.55
486.536	319.19
486.971	401.11
487.407	295.79
487.842	398.77
488.277	340.26
488.712	438.56
489.146	330.89
489.581	323.87
490.016	356.64
490.451	337.91
490.885	335.57
491.32	337.91
491.755	277.06
492.189	288.76
492.624	321.53
493.058	302.81
493.492	316.85
493.927	323.87
494.361	344.94
494.795	314.51
495.229	333.23
495.663	312.17
496.097	356.64
496.531	363.66
496.965	337.91
497.399	300.47
497.833	375.36
498.266	373.02
498.7	312.17
499.134	256
499.567	284.08
500.001	335.57
500.434	373.02
500.868	286.42
501.301	366
501.734	286.42
502.168	344.94
502.601	293.44
503.034	333.23
503.467	256
503.9	291.1
504.333	344.94
504.766	258.34
505.199	291.1
505.632	366
506.064	326.21
506.497	354.3
506.93	342.6
507.362	312.17
507.795	312.17
508.227	232.59
508.66	382.39
509.092	319.19
509.524	356.64
509.956	356.64
510.389	293.44
510.821	293.44
511.253	307.49
511.685	279.4
512.117	298.13
512.549	380.04
512.981	366
513.412	363.66
513.844	316.85
514.276	349.62
514.707	351.96
515.139	330.89
515.571	298.13
516.002	340.26
516.433	319.19
516.865	394.09
517.296	319.19
517.727	288.76
518.159	366
518.59	279.4
519.021	312.17
519.452	274.72
519.883	326.21
520.314	326.21
520.744	358.98
521.175	328.55
521.606	319.19
522.037	344.94
522.467	284.08
522.898	277.06
523.328	298.13
523.759	298.13
524.189	288.76
524.62	291.1
525.05	309.83
525.48	321.53
525.91	316.85
526.341	330.89
526.771	260.68
527.201	293.44
527.631	305.15
528.061	302.81
528.49	291.1
528.92	316.85
529.35	295.79
529.78	356.64
530.209	351.96
530.639	330.89
531.068	274.72
531.498	347.28
531.927	307.49
532.357	394.09
532.786	361.32
533.215	347.28
533.644	335.57
534.074	358.98
534.503	302.81
534.932	291.1
535.361	358.98
535.79	363.66
536.218	366
536.647	309.83
537.076	293.44
537.505	319.19
537.933	270.04
538.362	344.94
538.79	330.89
539.219	398.77
539.647	363.66
540.076	330.89
540.504	288.76
540.932	347.28
541.36	356.64
541.788	316.85
542.217	347.28
542.645	302.81
543.073	274.72
543.5	284.08
543.928	307.49
544.356	340.26
544.784	361.32
545.211	337.91
545.639	295.79
546.067	270.04
546.494	337.91
546.922	295.79
547.349	302.81
547.776	263.02
548.204	288.76
548.631	316.85
549.058	333.23
549.485	286.42
549.912	354.3
550.339	312.17
550.766	316.85
551.193	361.32
551.62	351.96
552.047	326.21
552.474	309.83
552.9	326.21
553.327	263.02
553.754	333.23
554.18	377.7
554.607	274.72
555.033	321.53
555.459	279.4
555.886	342.6
556.312	258.34
556.738	356.64
557.164	351.96
557.59	316.85
558.016	291.1
558.442	375.36
558.868	316.85
559.294	342.6
559.72	321.53
560.145	326.21
560.571	279.4
560.997	302.81
561.422	267.7
561.848	281.74
562.273	344.94
562.699	321.53
563.124	319.19
563.549	309.83
563.974	335.57
564.4	349.62
564.825	300.47
565.25	358.98
565.675	321.53
566.1	368.34
566.525	361.32
566.95	344.94
567.374	305.15
567.799	366
568.224	305.15
568.648	328.55
569.073	316.85
569.497	342.6
569.922	326.21
570.346	323.87
570.771	316.85
571.195	368.34
571.619	356.64
572.043	284.08
572.467	323.87
572.891	302.81
573.315	263.02
573.739	373.02
574.163	314.51
574.587	328.55
575.011	361.32
575.435	344.94
575.858	368.34
576.282	347.28
576.705	274.72
577.129	328.55
577.552	307.49
577.976	272.38
578.399	293.44
578.822	286.42
579.245	340.26
579.669	288.76
580.092	316.85
580.515	328.55
580.938	291.1
581.361	337.91
581.784	321.53
582.206	391.75
582.629	344.94
583.052	326.21
583.474	321.53
583.897	333.23
584.32	382.39
584.742	373.02
585.165	298.13
585.587	375.36
586.009	300.47
586.431	307.49
586.854	274.72
587.276	382.39
587.698	373.02
588.12	354.3
588.542	344.94
588.964	394.09
589.386	373.02
589.807	363.66
590.229	349.62
590.651	302.81
591.073	354.3
591.494	284.08
591.916	349.62
592.337	356.64
592.759	319.19
593.18	316.85
593.601	295.79
594.022	263.02
594.444	354.3
594.865	284.08
595.286	312.17
595.707	277.06
596.128	316.85
596.549	340.26
596.97	314.51
597.39	300.47
597.811	277.06
598.232	293.44
598.652	305.15
599.073	342.6
599.494	344.94
599.914	281.74
600.334	295.79
600.755	277.06
601.175	351.96
601.595	340.26
602.015	298.13
602.436	281.74
602.856	459.62
603.276	305.15
603.696	314.51
604.115	274.72
604.535	288.76
604.955	363.66
605.375	328.55
605.794	267.7
606.214	295.79
606.634	284.08
607.053	340.26
607.473	396.43
607.892	337.91
608.311	361.32
608.731	328.55
609.15	309.83
609.569	333.23
609.988	363.66
610.407	319.19
610.826	321.53
611.245	288.76
611.664	309.83
612.083	298.13
612.501	363.66
612.92	337.91
613.339	354.3
613.757	279.4
614.176	382.39
614.594	288.76
615.013	307.49
615.431	326.21
615.85	298.13
616.268	274.72
616.686	330.89
617.104	260.68
617.522	312.17
617.94	279.4
618.358	351.96
618.776	333.23
619.194	256
619.612	286.42
620.03	302.81
620.447	333.23
620.865	305.15
621.282	337.91
621.7	305.15
622.117	333.23
622.535	342.6
622.952	277.06
623.369	284.08
623.787	267.7
624.204	342.6
624.621	370.68
625.038	305.15
625.455	319.19
625.872	272.38
626.289	361.32
626.706	351.96
627.123	291.1
627.539	354.3
627.956	358.98
628.373	347.28
628.789	314.51
629.206	349.62
629.622	340.26
630.038	305.15
630.455	298.13
630.871	323.87
631.287	323.87
631.703	319.19
632.12	323.87
632.536	302.81
632.952	323.87
633.368	323.87
633.783	368.34
634.199	361.32
634.615	281.74
635.031	319.19
635.446	389.41
635.862	337.91
636.277	323.87
636.693	270.04
637.108	330.89
637.524	380.04
637.939	279.4
638.354	295.79
638.77	373.02
639.185	314.51
639.6	328.55
640.015	377.7
640.43	333.23
640.845	293.44
641.259	333.23
641.674	368.34
642.089	309.83
642.504	220.89
642.918	342.6
643.333	333.23
643.747	366
644.162	344.94
644.576	370.68
644.991	333.23
645.405	356.64
645.819	382.39
646.233	326.21
646.647	389.41
647.061	342.6
647.475	387.07
647.889	335.57
648.303	307.49
648.717	291.1
649.131	309.83
649.545	323.87
649.958	335.57
650.372	330.89
650.785	312.17
651.199	326.21
651.612	295.79
652.026	349.62
652.439	300.47
652.852	319.19
653.266	316.85
653.679	342.6
654.092	319.19
654.505	321.53
654.918	270.04
655.331	344.94
655.744	309.83
656.156	288.76
656.569	309.83
656.982	344.94
657.394	316.85
657.807	354.3
658.22	340.26
658.632	401.11
659.044	321.53
659.457	373.02
659.869	330.89
660.281	351.96
660.693	349.62
661.106	389.41
661.518	321.53
661.93	291.1
662.342	337.91
662.754	300.47
663.165	323.87
663.577	244.29
663.989	316.85
664.401	368.34
664.812	354.3
665.224	305.15
665.635	330.89
666.047	256
666.458	351.96
666.869	358.98
667.281	366
667.692	323.87
668.103	281.74
668.514	347.28
668.925	309.83
669.336	433.88
669.747	366
670.158	274.72
670.569	358.98
670.979	298.13
671.39	281.74
671.801	373.02
672.211	328.55
672.622	351.96
673.032	396.43
673.443	349.62
673.853	368.34
674.263	316.85
674.674	351.96
675.084	281.74
675.494	342.6
675.904	305.15
676.314	382.39
676.724	277.06
677.134	326.21
677.544	342.6
677.953	337.91
678.363	373.02
678.773	305.15
679.182	326.21
679.592	305.15
680.001	387.07
680.411	316.85
680.82	328.55
681.23	358.98
681.639	309.83
682.048	394.09
682.457	335.57
682.866	405.79
683.275	272.38
683.684	284.08
684.093	335.57
684.502	373.02
684.911	314.51
685.32	237.27
685.728	333.23
686.137	307.49
686.546	354.3
686.954	281.74
687.363	248.97
687.771	361.32
688.179	312.17
688.588	326.21
688.996	349.62
689.404	323.87
689.812	356.64
690.22	305.15
690.628	209.19
691.036	305.15
691.444	328.55
691.852	373.02
692.26	408.13
692.667	319.19
693.075	347.28
693.483	330.89
693.89	349.62
694.298	300.47
694.705	354.3
695.112	335.57
695.52	347.28
695.927	384.73
696.334	288.76
696.741	373.02
697.148	279.4
697.555	316.85
697.962	349.62
698.369	349.62
698.776	349.62
699.183	265.36
699.59	293.44
699.996	309.83
700.403	356.64
700.81	300.47
701.216	323.87
701.623	286.42
702.029	340.26
702.435	358.98
702.842	326.21
703.248	314.51
703.654	356.64
704.06	319.19
704.466	380.04
704.872	340.26
705.278	333.23
705.684	340.26
706.09	340.26
706.496	295.79
706.901	319.19
707.307	300.47
707.712	309.83
708.118	314.51
708.523	314.51
708.929	298.13
709.334	354.3
709.74	260.68
710.145	300.47
710.55	309.83
710.955	354.3
711.36	284.08
711.765	298.13
712.17	349.62
712.575	307.49
712.98	845.81
713.385	370.68
713.789	344.94
714.194	319.19
714.599	302.81
715.003	286.42
715.408	314.51
715.812	363.66
716.217	344.94
716.621	272.38
717.025	375.36
717.429	328.55
717.833	284.08
718.238	307.49
718.642	354.3
719.046	302.81
719.449	256
719.853	305.15
720.257	335.57
720.661	330.89
721.065	309.83
721.468	366
721.872	319.19
722.275	340.26
722.679	342.6
723.082	326.21
723.485	340.26
723.889	316.85
724.292	253.66
724.695	337.91
725.098	326.21
725.501	309.83
725.904	330.89
726.307	302.81
726.71	316.85
727.113	340.26
727.516	340.26
727.918	286.42
728.321	291.1
728.724	335.57
729.126	347.28
729.529	258.34
729.931	366
730.333	340.26
730.736	326.21
731.138	344.94
731.54	347.28
731.942	302.81
732.344	342.6
732.746	307.49
733.148	321.53
733.55	298.13
733.952	351.96
734.354	267.7
734.756	307.49
735.157	300.47
735.559	349.62
735.96	314.51
736.362	314.51
736.763	335.57
737.165	298.13
737.566	319.19
737.967	366
738.368	328.55
738.77	256
739.171	307.49
739.572	288.76
739.973	340.26
740.374	316.85
740.774	291.1
741.175	307.49
741.576	321.53
741.977	333.23
742.377	344.94
742.778	298.13
743.178	349.62
743.579	333.23
743.979	337.91
744.379	293.44
744.78	363.66
745.18	319.19
745.58	328.55
745.98	391.75
746.38	366
746.78	284.08
747.18	321.53
747.58	344.94
747.98	284.08
748.38	302.81
748.779	248.97
749.179	314.51
749.578	274.72
749.978	291.1
750.377	272.38
750.777	337.91
751.176	351.96
751.575	347.28
751.975	293.44
752.374	288.76
752.773	293.44
753.172	286.42
753.571	326.21
753.97	333.23
754.369	307.49
754.768	323.87
755.166	286.42
755.565	326.21
755.964	337.91
756.362	330.89
756.761	333.23
757.159	277.06
757.558	316.85
757.956	358.98
758.354	408.13
758.753	375.36
759.151	347.28
759.549	326.21
759.947	412.81
760.345	333.23
760.743	382.39
761.141	344.94
761.539	326.21
761.936	302.81
762.334	305.15
762.732	330.89
763.129	288.76
763.527	326.21
763.924	361.32
764.322	267.7
764.719	291.1
765.117	358.98
765.514	270.04
765.911	309.83
766.308	328.55
766.705	312.17
767.102	333.23
