Data from Al_FLMS009871__1213__16-42-07-079.txt Node

Date: Fri Mar 08 16:42:07 CST 2024
User: pe5414po
Spectrometer: FLMS00987
Trigger mode: 0
Integration Time (sec): 1.000000E-1
Scans to average: 1
Electric dark correction enabled: true
Nonlinearity correction enabled: false
Boxcar width: 0
XAxis mode: Wavelengths
Number of Pixels in Spectrum: 2048
>>>>>Begin Spectral Data<<<<<
188.938	-7.31
189.409	-7.31
189.879	-7.31
190.349	-89.23
190.819	-122
191.29	-147.75
191.76	-86.89
192.23	-107.96
192.7	-56.47
193.17	-35.4
193.64	-26.04
194.109	-33.06
194.579	-51.78
195.049	6.73
195.519	25.45
195.988	20.77
196.458	41.84
196.927	112.05
197.397	112.05
197.866	79.29
198.336	147.16
198.805	168.23
199.274	161.2
199.744	128.44
200.213	158.86
200.682	238.44
201.151	226.74
201.62	203.33
202.089	224.4
202.558	184.61
203.027	308.66
203.495	278.23
203.964	313.34
204.433	353.13
204.902	266.53
205.37	240.78
205.839	289.93
206.307	360.15
206.776	336.74
207.244	294.61
207.712	327.38
208.181	245.46
208.649	229.08
209.117	236.1
209.585	285.25
210.053	292.27
210.521	367.17
210.989	294.61
211.457	278.23
211.925	360.15
212.393	231.42
212.861	240.78
213.328	266.53
213.796	238.44
214.264	289.93
214.731	313.34
215.199	355.47
215.666	280.57
216.133	219.72
216.601	273.55
217.068	266.53
217.535	240.78
218.003	231.42
218.47	271.21
218.937	282.91
219.404	299.3
219.871	303.98
220.338	294.61
220.805	254.83
221.271	282.91
221.738	203.33
222.205	294.61
222.671	233.76
223.138	292.27
223.605	292.27
224.071	215.04
224.538	266.53
225.004	236.1
225.47	250.14
225.937	245.46
226.403	254.83
226.869	289.93
227.335	334.4
227.801	224.4
228.267	175.25
228.733	296.96
229.199	315.68
229.665	247.8
230.131	315.68
230.597	219.72
231.062	299.3
231.528	266.53
231.994	196.31
232.459	332.06
232.925	308.66
233.39	240.78
233.856	247.8
234.321	282.91
234.786	229.08
235.252	264.19
235.717	275.89
236.182	275.89
236.647	245.46
237.112	313.34
237.577	259.51
238.042	261.85
238.507	275.89
238.972	226.74
239.436	303.98
239.901	261.85
240.366	329.72
240.83	299.3
241.295	268.87
241.76	280.57
242.224	203.33
242.688	315.68
243.153	278.23
243.617	219.72
244.081	273.55
244.545	243.12
245.01	224.4
245.474	266.53
245.938	294.61
246.402	273.55
246.866	292.27
247.33	329.72
247.793	280.57
248.257	308.66
248.721	320.36
249.185	287.59
249.648	278.23
250.112	306.32
250.575	236.1
251.039	222.06
251.502	219.72
251.965	224.4
252.429	285.25
252.892	339.09
253.355	350.79
253.818	289.93
254.281	334.4
254.744	229.08
255.207	259.51
255.67	266.53
256.133	315.68
256.596	327.38
257.059	322.7
257.522	294.61
257.984	289.93
258.447	355.47
258.909	273.55
259.372	275.89
259.834	275.89
260.297	287.59
260.759	268.87
261.221	311
261.684	243.12
262.146	299.3
262.608	299.3
263.07	294.61
263.532	231.42
263.994	287.59
264.456	334.4
264.918	329.72
265.38	294.61
265.842	318.02
266.303	289.93
266.765	332.06
267.227	348.45
267.688	280.57
268.15	282.91
268.611	240.78
269.072	266.53
269.534	287.59
269.995	296.96
270.456	268.87
270.918	280.57
271.379	247.8
271.84	303.98
272.301	238.44
272.762	299.3
273.223	250.14
273.684	341.43
274.144	303.98
274.605	346.11
275.066	325.04
275.527	308.66
275.987	266.53
276.448	271.21
276.908	254.83
277.369	271.21
277.829	245.46
278.289	238.44
278.75	296.96
279.21	371.85
279.67	306.32
280.13	245.46
280.59	280.57
281.05	341.43
281.51	261.85
281.97	308.66
282.43	325.04
282.89	334.4
283.35	299.3
283.809	329.72
284.269	315.68
284.729	257.17
285.188	336.74
285.648	315.68
286.107	306.32
286.567	313.34
287.026	271.21
287.485	315.68
287.944	261.85
288.404	294.61
288.863	266.53
289.322	259.51
289.781	327.38
290.24	343.77
290.699	332.06
291.158	327.38
291.616	308.66
292.075	311
292.534	336.74
292.992	238.44
293.451	236.1
293.91	250.14
294.368	273.55
294.827	278.23
295.285	243.12
295.743	348.45
296.202	327.38
296.66	296.96
297.118	360.15
297.576	329.72
298.034	334.4
298.492	296.96
298.95	299.3
299.408	313.34
299.866	287.59
300.324	261.85
300.781	299.3
301.239	292.27
301.697	360.15
302.154	313.34
302.612	311
303.069	259.51
303.527	301.64
303.984	275.89
304.441	238.44
304.899	278.23
305.356	313.34
305.813	245.46
306.27	257.17
306.727	332.06
307.184	303.98
307.641	318.02
308.098	320.36
308.555	308.66
309.012	308.66
309.468	280.57
309.925	320.36
310.382	357.81
310.838	343.77
311.295	278.23
311.751	343.77
312.208	287.59
312.664	226.74
313.12	289.93
313.577	294.61
314.033	322.7
314.489	308.66
314.945	315.68
315.401	376.53
315.857	257.17
316.313	299.3
316.769	357.81
317.225	322.7
317.681	325.04
318.136	285.25
318.592	296.96
319.048	282.91
319.503	299.3
319.959	261.85
320.414	346.11
320.869	275.89
321.325	278.23
321.78	362.49
322.235	236.1
322.691	278.23
323.146	294.61
323.601	289.93
324.056	294.61
324.511	282.91
324.966	280.57
325.421	285.25
325.875	296.96
326.33	313.34
326.785	348.45
327.24	273.55
327.694	388.24
328.149	313.34
328.603	308.66
329.058	315.68
329.512	334.4
329.966	341.43
330.421	364.83
330.875	325.04
331.329	266.53
331.783	275.89
332.237	275.89
332.691	367.17
333.145	336.74
333.599	233.76
334.053	327.38
334.507	303.98
334.96	282.91
335.414	301.64
335.868	278.23
336.321	287.59
336.775	369.51
337.228	353.13
337.682	301.64
338.135	238.44
338.588	392.92
339.042	327.38
339.495	355.47
339.948	306.32
340.401	313.34
340.854	348.45
341.307	301.64
341.76	296.96
342.213	318.02
342.666	350.79
343.119	278.23
343.571	296.96
344.024	280.57
344.477	343.77
344.929	327.38
345.382	364.83
345.834	383.56
346.287	343.77
346.739	275.89
347.191	348.45
347.644	287.59
348.096	357.81
348.548	341.43
349	318.02
349.452	268.87
349.904	341.43
350.356	325.04
350.808	336.74
351.26	296.96
351.711	318.02
352.163	289.93
352.615	303.98
353.066	329.72
353.518	360.15
353.969	296.96
354.421	254.83
354.872	313.34
355.324	264.19
355.775	275.89
356.226	313.34
356.677	259.51
357.128	308.66
357.579	292.27
358.03	303.98
358.481	275.89
358.932	275.89
359.383	325.04
359.834	311
360.285	303.98
360.735	322.7
361.186	355.47
361.637	322.7
362.087	311
362.538	336.74
362.988	224.4
363.438	306.32
363.889	327.38
364.339	320.36
364.789	311
365.239	371.85
365.689	294.61
366.139	254.83
366.589	315.68
367.039	306.32
367.489	332.06
367.939	252.49
368.389	315.68
368.839	360.15
369.288	308.66
369.738	322.7
370.187	339.09
370.637	364.83
371.086	355.47
371.536	301.64
371.985	332.06
372.434	339.09
372.884	334.4
373.333	296.96
373.782	301.64
374.231	299.3
374.68	325.04
375.129	313.34
375.578	285.25
376.027	245.46
376.475	329.72
376.924	355.47
377.373	229.08
377.822	341.43
378.27	339.09
378.719	348.45
379.167	301.64
379.616	289.93
380.064	313.34
380.512	329.72
380.961	371.85
381.409	282.91
381.857	315.68
382.305	364.83
382.753	278.23
383.201	271.21
383.649	264.19
384.097	303.98
384.545	329.72
384.992	303.98
385.44	268.87
385.888	325.04
386.335	350.79
386.783	296.96
387.231	360.15
387.678	247.8
388.125	289.93
388.573	303.98
389.02	360.15
389.467	327.38
389.914	303.98
390.362	329.72
390.809	313.34
391.256	332.06
391.703	268.87
392.15	332.06
392.596	278.23
393.043	303.98
393.49	327.38
393.937	346.11
394.383	308.66
394.83	275.89
395.276	280.57
395.723	362.49
396.169	311
396.616	367.17
397.062	308.66
397.508	320.36
397.954	247.8
398.401	311
398.847	273.55
399.293	292.27
399.739	320.36
400.185	360.15
400.631	334.4
401.076	320.36
401.522	325.04
401.968	311
402.414	355.47
402.859	308.66
403.305	296.96
403.75	369.51
404.196	287.59
404.641	371.85
405.086	301.64
405.532	294.61
405.977	275.89
406.422	271.21
406.867	322.7
407.312	329.72
407.757	341.43
408.202	289.93
408.647	348.45
409.092	322.7
409.537	320.36
409.982	313.34
410.426	334.4
410.871	292.27
411.316	336.74
411.76	325.04
412.205	336.74
412.649	303.98
413.093	268.87
413.538	296.96
413.982	322.7
414.426	311
414.87	369.51
415.314	308.66
415.758	271.21
416.202	299.3
416.646	311
417.09	285.25
417.534	315.68
417.978	315.68
418.421	311
418.865	367.17
419.309	318.02
419.752	294.61
420.196	364.83
420.639	376.53
421.083	296.96
421.526	273.55
421.969	318.02
422.412	259.51
422.856	329.72
423.299	341.43
423.742	367.17
424.185	306.32
424.628	280.57
425.071	325.04
425.513	299.3
425.956	343.77
426.399	280.57
426.842	325.04
427.284	332.06
427.727	296.96
428.169	294.61
428.612	381.21
429.054	275.89
429.497	285.25
429.939	336.74
430.381	336.74
430.823	318.02
431.265	318.02
431.707	402.28
432.149	311
432.591	301.64
433.033	343.77
433.475	362.49
433.917	371.85
434.359	362.49
434.8	334.4
435.242	313.34
435.684	275.89
436.125	275.89
436.567	275.89
437.008	308.66
437.449	332.06
437.891	280.57
438.332	280.57
438.773	280.57
439.214	254.83
439.656	350.79
440.097	306.32
440.538	278.23
440.978	301.64
441.419	339.09
441.86	243.12
442.301	318.02
442.742	303.98
443.182	371.85
443.623	240.78
444.063	273.55
444.504	311
444.944	318.02
445.385	318.02
445.825	346.11
446.265	339.09
446.706	362.49
447.146	301.64
447.586	278.23
448.026	320.36
448.466	268.87
448.906	346.11
449.346	325.04
449.786	332.06
450.225	222.06
450.665	303.98
451.105	268.87
451.544	285.25
451.984	299.3
452.424	350.79
452.863	266.53
453.302	341.43
453.742	322.7
454.181	315.68
454.62	294.61
455.059	299.3
455.499	289.93
455.938	355.47
456.377	332.06
456.816	346.11
457.254	268.87
457.693	334.4
458.132	353.13
458.571	313.34
459.01	287.59
459.448	336.74
459.887	332.06
460.325	308.66
460.764	364.83
461.202	336.74
461.641	278.23
462.079	383.56
462.517	376.53
462.955	334.4
463.393	301.64
463.832	289.93
464.27	348.45
464.708	315.68
465.145	294.61
465.583	296.96
466.021	296.96
466.459	273.55
466.897	275.89
467.334	346.11
467.772	247.8
468.209	252.49
468.647	311
469.084	313.34
469.522	282.91
469.959	360.15
470.396	329.72
470.833	306.32
471.271	313.34
471.708	329.72
472.145	280.57
472.582	339.09
473.019	383.56
473.456	346.11
473.892	240.78
474.329	362.49
474.766	334.4
475.202	259.51
475.639	320.36
476.076	322.7
476.512	346.11
476.949	322.7
477.385	322.7
477.821	315.68
478.258	280.57
478.694	339.09
479.13	261.85
479.566	266.53
480.002	350.79
480.438	287.59
480.874	329.72
481.31	348.45
481.746	285.25
482.181	257.17
482.617	289.93
483.053	292.27
483.488	343.77
483.924	369.51
484.36	313.34
484.795	292.27
485.23	334.4
485.666	318.02
486.101	360.15
486.536	341.43
486.971	320.36
487.407	275.89
487.842	334.4
488.277	388.24
488.712	341.43
489.146	193.97
489.581	369.51
490.016	360.15
490.451	350.79
490.885	266.53
491.32	308.66
491.755	313.34
492.189	327.38
492.624	275.89
493.058	280.57
493.492	334.4
493.927	247.8
494.361	343.77
494.795	318.02
495.229	296.96
495.663	350.79
496.097	308.66
496.531	318.02
496.965	348.45
497.399	289.93
497.833	275.89
498.266	301.64
498.7	264.19
499.134	301.64
499.567	311
500.001	280.57
500.434	282.91
500.868	278.23
501.301	348.45
501.734	325.04
502.168	353.13
502.601	315.68
503.034	294.61
503.467	367.17
503.9	350.79
504.333	388.24
504.766	346.11
505.199	346.11
505.632	329.72
506.064	360.15
506.497	350.79
506.93	357.81
507.362	315.68
507.795	376.53
508.227	280.57
508.66	360.15
509.092	292.27
509.524	327.38
509.956	311
510.389	287.59
510.821	318.02
511.253	325.04
511.685	292.27
512.117	343.77
512.549	364.83
512.981	315.68
513.412	318.02
513.844	320.36
514.276	346.11
514.707	343.77
515.139	388.24
515.571	353.13
516.002	343.77
516.433	311
516.865	327.38
517.296	303.98
517.727	308.66
518.159	261.85
518.59	320.36
519.021	292.27
519.452	313.34
519.883	296.96
520.314	339.09
520.744	325.04
521.175	296.96
521.606	360.15
522.037	303.98
522.467	353.13
522.898	341.43
523.328	336.74
523.759	275.89
524.189	341.43
524.62	266.53
525.05	332.06
525.48	292.27
525.91	350.79
526.341	303.98
526.771	318.02
527.201	289.93
527.631	292.27
528.061	322.7
528.49	261.85
528.92	315.68
529.35	343.77
529.78	301.64
530.209	327.38
530.639	348.45
531.068	257.17
531.498	327.38
531.927	320.36
532.357	329.72
532.786	334.4
533.215	308.66
533.644	292.27
534.074	334.4
534.503	367.17
534.932	322.7
535.361	311
535.79	320.36
536.218	318.02
536.647	371.85
537.076	322.7
537.505	306.32
537.933	320.36
538.362	325.04
538.79	318.02
539.219	346.11
539.647	275.89
540.076	325.04
540.504	322.7
540.932	311
541.36	339.09
541.788	275.89
542.217	341.43
542.645	336.74
543.073	320.36
543.5	348.45
543.928	308.66
544.356	341.43
544.784	381.21
545.211	311
545.639	278.23
546.067	315.68
546.494	332.06
546.922	285.25
547.349	315.68
547.776	327.38
548.204	303.98
548.631	402.28
549.058	271.21
549.485	303.98
549.912	278.23
550.339	322.7
550.766	315.68
551.193	357.81
551.62	275.89
552.047	308.66
552.474	313.34
552.9	303.98
553.327	329.72
553.754	322.7
554.18	296.96
554.607	346.11
555.033	252.49
555.459	226.74
555.886	313.34
556.312	318.02
556.738	357.81
557.164	278.23
557.59	348.45
558.016	341.43
558.442	367.17
558.868	357.81
559.294	313.34
559.72	278.23
560.145	308.66
560.571	334.4
560.997	329.72
561.422	275.89
561.848	369.51
562.273	320.36
562.699	336.74
563.124	273.55
563.549	318.02
563.974	299.3
564.4	325.04
564.825	268.87
565.25	250.14
565.675	273.55
566.1	301.64
566.525	308.66
566.95	336.74
567.374	322.7
567.799	268.87
568.224	329.72
568.648	282.91
569.073	353.13
569.497	364.83
569.922	280.57
570.346	334.4
570.771	296.96
571.195	327.38
571.619	301.64
572.043	306.32
572.467	303.98
572.891	318.02
573.315	357.81
573.739	343.77
574.163	303.98
574.587	350.79
575.011	325.04
575.435	315.68
575.858	332.06
576.282	318.02
576.705	303.98
577.129	341.43
577.552	336.74
577.976	313.34
578.399	292.27
578.822	327.38
579.245	289.93
579.669	282.91
580.092	313.34
580.515	311
580.938	296.96
581.361	329.72
581.784	306.32
582.206	308.66
582.629	325.04
583.052	308.66
583.474	296.96
583.897	294.61
584.32	273.55
584.742	271.21
585.165	301.64
585.587	322.7
586.009	224.4
586.431	301.64
586.854	311
587.276	292.27
587.698	350.79
588.12	357.81
588.542	325.04
588.964	301.64
589.386	353.13
589.807	318.02
590.229	343.77
590.651	247.8
591.073	381.21
591.494	388.24
591.916	315.68
592.337	303.98
592.759	332.06
593.18	336.74
593.601	346.11
594.022	247.8
594.444	294.61
594.865	360.15
595.286	339.09
595.707	311
596.128	275.89
596.549	318.02
596.97	350.79
597.39	311
597.811	353.13
598.232	303.98
598.652	306.32
599.073	294.61
599.494	259.51
599.914	299.3
600.334	322.7
600.755	299.3
601.175	327.38
601.595	308.66
602.015	376.53
602.436	341.43
602.856	456.11
603.276	311
603.696	334.4
604.115	278.23
604.535	360.15
604.955	294.61
605.375	329.72
605.794	280.57
606.214	275.89
606.634	313.34
607.053	266.53
607.473	292.27
607.892	315.68
608.311	364.83
608.731	299.3
609.15	322.7
609.569	311
609.988	238.44
610.407	348.45
610.826	343.77
611.245	289.93
611.664	418.66
612.083	322.7
612.501	339.09
612.92	355.47
613.339	329.72
613.757	341.43
614.176	280.57
614.594	268.87
615.013	362.49
615.431	236.1
615.85	285.25
616.268	306.32
616.686	275.89
617.104	289.93
617.522	296.96
617.94	308.66
618.358	299.3
618.776	318.02
619.194	287.59
619.612	322.7
620.03	334.4
620.447	343.77
620.865	259.51
621.282	327.38
621.7	327.38
622.117	341.43
622.535	322.7
622.952	332.06
623.369	385.9
623.787	325.04
624.204	289.93
624.621	318.02
625.038	318.02
625.455	320.36
625.872	285.25
626.289	268.87
626.706	273.55
627.123	296.96
627.539	320.36
627.956	285.25
628.373	303.98
628.789	325.04
629.206	247.8
629.622	301.64
630.038	327.38
630.455	322.7
630.871	350.79
631.287	289.93
631.703	287.59
632.12	353.13
632.536	322.7
632.952	196.31
633.368	250.14
633.783	346.11
634.199	294.61
634.615	233.76
635.031	268.87
635.446	322.7
635.862	339.09
636.277	308.66
636.693	315.68
637.108	350.79
637.524	355.47
637.939	343.77
638.354	273.55
638.77	322.7
639.185	285.25
639.6	339.09
640.015	378.87
640.43	301.64
640.845	336.74
641.259	318.02
641.674	362.49
642.089	266.53
642.504	376.53
642.918	268.87
643.333	325.04
643.747	350.79
644.162	313.34
644.576	301.64
644.991	364.83
645.405	285.25
645.819	327.38
646.233	360.15
646.647	329.72
647.061	311
647.475	247.8
647.889	306.32
648.303	336.74
648.717	311
649.131	301.64
649.545	313.34
649.958	308.66
650.372	325.04
650.785	268.87
651.199	315.68
651.612	327.38
652.026	376.53
652.439	327.38
652.852	360.15
653.266	289.93
653.679	306.32
654.092	306.32
654.505	320.36
654.918	318.02
655.331	315.68
655.744	350.79
656.156	289.93
656.569	282.91
656.982	259.51
657.394	243.12
657.807	332.06
658.22	287.59
658.632	315.68
659.044	280.57
659.457	325.04
659.869	299.3
660.281	266.53
660.693	313.34
661.106	259.51
661.518	322.7
661.93	240.78
662.342	336.74
662.754	285.25
663.165	299.3
663.577	289.93
663.989	350.79
664.401	273.55
664.812	294.61
665.224	301.64
665.635	325.04
666.047	252.49
666.458	292.27
666.869	322.7
667.281	301.64
667.692	313.34
668.103	315.68
668.514	348.45
668.925	266.53
669.336	399.94
669.747	299.3
670.158	285.25
670.569	264.19
670.979	271.21
671.39	285.25
671.801	385.9
672.211	294.61
672.622	339.09
673.032	329.72
673.443	289.93
673.853	287.59
674.263	229.08
674.674	315.68
675.084	296.96
675.494	273.55
675.904	336.74
676.314	271.21
676.724	332.06
677.134	271.21
677.544	339.09
677.953	339.09
678.363	395.26
678.773	402.28
679.182	273.55
679.592	343.77
680.001	254.83
680.411	348.45
680.82	357.81
681.23	362.49
681.639	285.25
682.048	329.72
682.457	315.68
682.866	268.87
683.275	275.89
683.684	388.24
684.093	311
684.502	285.25
684.911	313.34
685.32	313.34
685.728	322.7
686.137	301.64
686.546	336.74
686.954	303.98
687.363	252.49
687.771	261.85
688.179	311
688.588	334.4
688.996	308.66
689.404	264.19
689.812	268.87
690.22	259.51
690.628	322.7
691.036	329.72
691.444	273.55
691.852	327.38
692.26	322.7
692.667	383.56
693.075	334.4
693.483	301.64
693.89	339.09
694.298	285.25
694.705	311
695.112	294.61
695.52	240.78
695.927	413.98
696.334	299.3
696.741	301.64
697.148	341.43
697.555	322.7
697.962	367.17
698.369	292.27
698.776	339.09
699.183	313.34
699.59	313.34
699.996	306.32
700.403	296.96
700.81	306.32
701.216	332.06
701.623	355.47
702.029	350.79
702.435	322.7
702.842	308.66
703.248	308.66
703.654	282.91
704.06	294.61
704.466	261.85
704.872	292.27
705.278	278.23
705.684	278.23
706.09	322.7
706.496	250.14
706.901	311
707.307	360.15
707.712	322.7
708.118	313.34
708.523	322.7
708.929	240.78
709.334	299.3
709.74	336.74
710.145	336.74
710.55	257.17
710.955	336.74
711.36	329.72
711.765	264.19
712.17	296.96
712.575	322.7
712.98	839.96
713.385	329.72
713.789	273.55
714.194	280.57
714.599	294.61
715.003	285.25
715.408	236.1
715.812	343.77
716.217	245.46
716.621	346.11
717.025	369.51
717.429	273.55
717.833	289.93
718.238	343.77
718.642	325.04
719.046	322.7
719.449	371.85
719.853	273.55
720.257	318.02
720.661	313.34
721.065	313.34
721.468	238.44
721.872	296.96
722.275	334.4
722.679	266.53
723.082	275.89
723.485	294.61
723.889	294.61
724.292	327.38
724.695	299.3
725.098	322.7
725.501	299.3
725.904	289.93
726.307	236.1
726.71	301.64
727.113	243.12
727.516	278.23
727.918	296.96
728.321	273.55
728.724	259.51
729.126	296.96
729.529	308.66
729.931	322.7
730.333	334.4
730.736	289.93
731.138	318.02
731.54	301.64
731.942	233.76
732.344	299.3
732.746	320.36
733.148	325.04
733.55	334.4
733.952	311
734.354	282.91
734.756	273.55
735.157	313.34
735.559	336.74
735.96	320.36
736.362	278.23
736.763	334.4
737.165	261.85
737.566	273.55
737.967	320.36
738.368	336.74
738.77	289.93
739.171	273.55
739.572	329.72
739.973	371.85
740.374	371.85
740.774	320.36
741.175	292.27
741.576	311
741.977	341.43
742.377	341.43
742.778	282.91
743.178	296.96
743.579	325.04
743.979	303.98
744.379	327.38
744.78	339.09
745.18	355.47
745.58	350.79
745.98	308.66
746.38	287.59
746.78	325.04
747.18	311
747.58	299.3
747.98	301.64
748.38	327.38
748.779	257.17
749.179	343.77
749.578	311
749.978	325.04
750.377	334.4
750.777	332.06
751.176	332.06
751.575	292.27
751.975	355.47
752.374	280.57
752.773	275.89
753.172	303.98
753.571	268.87
753.97	306.32
754.369	343.77
754.768	318.02
755.166	313.34
755.565	224.4
755.964	355.47
756.362	294.61
756.761	287.59
757.159	336.74
757.558	250.14
757.956	325.04
758.354	402.28
758.753	346.11
759.151	311
759.549	360.15
759.947	299.3
760.345	334.4
760.743	334.4
761.141	259.51
761.539	303.98
761.936	306.32
762.334	266.53
762.732	318.02
763.129	289.93
763.527	294.61
763.924	364.83
764.322	266.53
764.719	301.64
765.117	348.45
765.514	294.61
765.911	292.27
766.308	336.74
766.705	311
767.102	367.17
767.499	266.53
767.896	334.4
768.293	315.68
