Data from Al_FLMS009871__72__11-45-35-100.txt Node

Date: Fri Mar 08 11:45:35 CST 2024
User: pe5414po
Spectrometer: FLMS00987
Trigger mode: 0
Integration Time (sec): 1.000000E-1
Scans to average: 1
Electric dark correction enabled: true
Nonlinearity correction enabled: false
Boxcar width: 0
XAxis mode: Wavelengths
Number of Pixels in Spectrum: 2048
>>>>>Begin Spectral Data<<<<<
188.938	-87.92
189.409	-87.92
189.879	-87.92
190.349	-130.05
190.819	-66.85
191.29	-172.18
191.76	-48.13
192.23	-118.34
192.7	-66.85
193.17	-78.55
193.64	-41.11
194.109	-36.42
194.579	-48.13
195.049	33.79
195.519	33.79
195.988	24.43
196.458	134.43
196.927	61.88
197.397	104.01
197.866	85.28
198.336	132.09
198.805	190.61
199.274	122.73
199.744	185.93
200.213	134.43
200.682	139.12
201.151	204.65
201.62	232.74
202.089	202.31
202.558	279.55
203.027	206.99
203.495	206.99
203.964	314.66
204.433	258.48
204.902	225.72
205.37	293.59
205.839	279.55
206.307	235.08
206.776	314.66
207.244	265.5
207.712	288.91
208.181	300.61
208.649	326.36
209.117	300.61
209.585	265.5
210.053	267.85
210.521	218.69
210.989	258.48
211.457	274.87
211.925	354.44
212.393	281.89
212.861	284.23
213.328	267.85
213.796	270.19
214.264	253.8
214.731	279.55
215.199	218.69
215.666	192.95
216.133	235.08
216.601	265.5
217.068	258.48
217.535	204.65
218.003	202.31
218.47	242.1
218.937	288.91
219.404	221.03
219.871	253.8
220.338	225.72
220.805	235.08
221.271	295.93
221.738	230.4
222.205	270.19
222.671	214.01
223.138	256.14
223.605	225.72
224.071	174.22
224.538	244.44
225.004	206.99
225.47	242.1
225.937	214.01
226.403	267.85
226.869	274.87
227.335	218.69
227.801	211.67
228.267	230.4
228.733	253.8
229.199	256.14
229.665	265.5
230.131	230.4
230.597	230.4
231.062	270.19
231.528	185.93
231.994	223.37
232.459	314.66
232.925	244.44
233.39	221.03
233.856	239.76
234.321	197.63
234.786	253.8
235.252	265.5
235.717	244.44
236.182	239.76
236.647	298.27
237.112	307.63
237.577	270.19
238.042	181.25
238.507	267.85
238.972	235.08
239.436	286.57
239.901	249.12
240.366	232.74
240.83	230.4
241.295	214.01
241.76	281.89
242.224	281.89
242.688	216.35
243.153	258.48
243.617	216.35
244.081	284.23
244.545	209.33
245.01	242.1
245.474	239.76
245.938	228.06
246.402	288.91
246.866	251.46
247.33	239.76
247.793	206.99
248.257	214.01
248.721	272.53
249.185	305.29
249.648	230.4
250.112	274.87
250.575	314.66
251.039	321.68
251.502	300.61
251.965	249.12
252.429	260.82
252.892	286.57
253.355	279.55
253.818	293.59
254.281	300.61
254.744	202.31
255.207	295.93
255.67	295.93
256.133	340.4
256.596	265.5
257.059	319.34
257.522	286.57
257.984	202.31
258.447	237.42
258.909	232.74
259.372	317
259.834	291.25
260.297	272.53
260.759	293.59
261.221	230.4
261.684	281.89
262.146	246.78
262.608	260.82
263.07	270.19
263.532	300.61
263.994	298.27
264.456	354.44
264.918	291.25
265.38	277.21
265.842	298.27
266.303	239.76
266.765	286.57
267.227	260.82
267.688	277.21
268.15	267.85
268.611	300.61
269.072	235.08
269.534	225.72
269.995	272.53
270.456	249.12
270.918	260.82
271.379	260.82
271.84	284.23
272.301	256.14
272.762	291.25
273.223	267.85
273.684	244.44
274.144	293.59
274.605	340.4
275.066	246.78
275.527	300.61
275.987	302.95
276.448	288.91
276.908	256.14
277.369	293.59
277.829	293.59
278.289	302.95
278.75	277.21
279.21	260.82
279.67	251.46
280.13	321.68
280.59	260.82
281.05	286.57
281.51	295.93
281.97	295.93
282.43	242.1
282.89	221.03
283.35	211.67
283.809	300.61
284.269	309.97
284.729	324.02
285.188	300.61
285.648	253.8
286.107	274.87
286.567	279.55
287.026	272.53
287.485	349.76
287.944	298.27
288.404	331.04
288.863	286.57
289.322	288.91
289.781	354.44
290.24	239.76
290.699	321.68
291.158	281.89
291.616	221.03
292.075	281.89
292.534	235.08
292.992	246.78
293.451	256.14
293.91	221.03
294.368	335.72
294.827	312.32
295.285	274.87
295.743	274.87
296.202	295.93
296.66	249.12
297.118	228.06
297.576	293.59
298.034	274.87
298.492	300.61
298.95	286.57
299.408	237.42
299.866	242.1
300.324	293.59
300.781	279.55
301.239	295.93
301.697	359.13
302.154	319.34
302.612	256.14
303.069	361.47
303.527	235.08
303.984	298.27
304.441	279.55
304.899	340.4
305.356	333.38
305.813	307.63
306.27	249.12
306.727	286.57
307.184	340.4
307.641	249.12
308.098	305.29
308.555	338.06
309.012	230.4
309.468	284.23
309.925	267.85
310.382	277.21
310.838	307.63
311.295	253.8
311.751	284.23
312.208	239.76
312.664	258.48
313.12	352.1
313.577	237.42
314.033	298.27
314.489	253.8
314.945	291.25
315.401	235.08
315.857	293.59
316.313	286.57
316.769	293.59
317.225	204.65
317.681	284.23
318.136	284.23
318.592	281.89
319.048	228.06
319.503	286.57
319.959	288.91
320.414	302.95
320.869	251.46
321.325	251.46
321.78	333.38
322.235	281.89
322.691	279.55
323.146	324.02
323.601	286.57
324.056	291.25
324.511	260.82
324.966	300.61
325.421	295.93
325.875	253.8
326.33	251.46
326.785	272.53
327.24	326.36
327.694	239.76
328.149	265.5
328.603	221.03
329.058	302.95
329.512	314.66
329.966	295.93
330.421	265.5
330.875	291.25
331.329	331.04
331.783	277.21
332.237	286.57
332.691	293.59
333.145	302.95
333.599	335.72
334.053	342.74
334.507	235.08
334.96	307.63
335.414	307.63
335.868	314.66
336.321	286.57
336.775	279.55
337.228	314.66
337.682	272.53
338.135	216.35
338.588	272.53
339.042	314.66
339.495	249.12
339.948	331.04
340.401	284.23
340.854	317
341.307	380.19
341.76	333.38
342.213	260.82
342.666	256.14
343.119	230.4
343.571	366.15
344.024	295.93
344.477	309.97
344.929	256.14
345.382	328.7
345.834	251.46
346.287	281.89
346.739	256.14
347.191	209.33
347.644	345.08
348.096	342.74
348.548	270.19
349	260.82
349.452	279.55
349.904	263.16
350.356	277.21
350.808	206.99
351.26	352.1
351.711	333.38
352.163	331.04
352.615	239.76
353.066	284.23
353.518	398.92
353.969	314.66
354.421	279.55
354.872	272.53
355.324	307.63
355.775	267.85
356.226	291.25
356.677	281.89
357.128	354.44
357.579	277.21
358.03	286.57
358.481	251.46
358.932	321.68
359.383	366.15
359.834	295.93
360.285	328.7
360.735	324.02
361.186	307.63
361.637	284.23
362.087	244.44
362.538	331.04
362.988	352.1
363.438	333.38
363.889	312.32
364.339	270.19
364.789	326.36
365.239	319.34
365.689	300.61
366.139	321.68
366.589	324.02
367.039	338.06
367.489	326.36
367.939	288.91
368.389	246.78
368.839	314.66
369.288	232.74
369.738	244.44
370.187	272.53
370.637	307.63
371.086	366.15
371.536	300.61
371.985	345.08
372.434	279.55
372.884	286.57
373.333	335.72
373.782	302.95
374.231	281.89
374.68	244.44
375.129	300.61
375.578	267.85
376.027	326.36
376.475	298.27
376.924	321.68
377.373	279.55
377.822	291.25
378.27	281.89
378.719	291.25
379.167	284.23
379.616	253.8
380.064	326.36
380.512	265.5
380.961	321.68
381.409	321.68
381.857	274.87
382.305	249.12
382.753	298.27
383.201	293.59
383.649	251.46
384.097	354.44
384.545	267.85
384.992	309.97
385.44	298.27
385.888	277.21
386.335	342.74
386.783	267.85
387.231	368.49
387.678	267.85
388.125	291.25
388.573	277.21
389.02	328.7
389.467	293.59
389.914	305.29
390.362	265.5
390.809	366.15
391.256	335.72
391.703	349.76
392.15	258.48
392.596	298.27
393.043	284.23
393.49	263.16
393.937	302.95
394.383	267.85
394.83	305.29
395.276	302.95
395.723	284.23
396.169	317
396.616	263.16
397.062	249.12
397.508	256.14
397.954	288.91
398.401	314.66
398.847	326.36
399.293	366.15
399.739	284.23
400.185	272.53
400.631	281.89
401.076	309.97
401.522	265.5
401.968	298.27
402.414	312.32
402.859	312.32
403.305	260.82
403.75	298.27
404.196	267.85
404.641	317
405.086	340.4
405.532	333.38
405.977	328.7
406.422	281.89
406.867	258.48
407.312	270.19
407.757	267.85
408.202	265.5
408.647	345.08
409.092	249.12
409.537	324.02
409.982	352.1
410.426	312.32
410.871	328.7
411.316	244.44
411.76	314.66
412.205	338.06
412.649	321.68
413.093	284.23
413.538	298.27
413.982	305.29
414.426	293.59
414.87	298.27
415.314	349.76
415.758	342.74
416.202	338.06
416.646	274.87
417.09	333.38
417.534	307.63
417.978	333.38
418.421	293.59
418.865	321.68
419.309	211.67
419.752	300.61
420.196	267.85
420.639	279.55
421.083	317
421.526	305.29
421.969	293.59
422.412	366.15
422.856	305.29
423.299	305.29
423.742	286.57
424.185	284.23
424.628	349.76
425.071	380.19
425.513	314.66
425.956	305.29
426.399	284.23
426.842	359.13
427.284	398.92
427.727	342.74
428.169	361.47
428.612	345.08
429.054	349.76
429.497	272.53
429.939	342.74
430.381	300.61
430.823	333.38
431.265	349.76
431.707	345.08
432.149	380.19
432.591	368.49
433.033	380.19
433.475	363.81
433.917	427
434.359	483.17
434.8	415.3
435.242	567.43
435.684	511.26
436.125	445.73
436.567	417.64
437.008	405.94
437.449	370.83
437.891	417.64
438.332	394.23
438.773	389.55
439.214	401.26
439.656	422.32
440.097	441.04
440.538	382.53
440.978	455.09
441.419	398.92
441.86	452.75
442.301	490.2
442.742	459.77
443.182	469.13
443.623	455.09
444.063	462.11
444.504	410.62
444.944	452.75
445.385	368.49
445.825	473.81
446.265	387.21
446.706	501.9
447.146	480.83
447.586	462.11
448.026	469.13
448.466	443.39
448.906	469.13
449.346	518.28
449.786	448.07
450.225	405.94
450.665	382.53
451.105	401.26
451.544	513.6
451.984	464.45
452.424	560.41
452.863	469.13
453.302	398.92
453.742	450.41
454.181	473.81
454.62	398.92
455.059	443.39
455.499	450.41
455.938	396.57
456.377	483.17
456.816	370.83
457.254	396.57
457.693	382.53
458.132	434.02
458.571	366.15
459.01	356.79
459.448	354.44
459.887	328.7
460.325	335.72
460.764	443.39
461.202	419.98
461.641	338.06
462.079	312.32
462.517	417.64
462.955	387.21
463.393	342.74
463.832	345.08
464.27	396.57
464.708	328.7
465.145	410.62
465.583	398.92
466.021	389.55
466.459	307.63
466.897	377.85
467.334	281.89
467.772	370.83
468.209	366.15
468.647	436.36
469.084	298.27
469.522	321.68
469.959	361.47
470.396	354.44
470.833	361.47
471.271	408.28
471.708	340.4
472.145	366.15
472.582	366.15
473.019	352.1
473.456	338.06
473.892	340.4
474.329	354.44
474.766	331.04
475.202	398.92
475.639	288.91
476.076	377.85
476.512	258.48
476.949	354.44
477.385	394.23
477.821	347.42
478.258	354.44
478.694	347.42
479.13	366.15
479.566	349.76
480.002	349.76
480.438	398.92
480.874	293.59
481.31	391.89
481.746	363.81
482.181	363.81
482.617	370.83
483.053	396.57
483.488	384.87
483.924	347.42
484.36	328.7
484.795	352.1
485.23	377.85
485.666	452.75
486.101	396.57
486.536	387.21
486.971	394.23
487.407	438.7
487.842	434.02
488.277	387.21
488.712	424.66
489.146	382.53
489.581	384.87
490.016	391.89
490.451	396.57
490.885	363.81
491.32	394.23
491.755	382.53
492.189	403.6
492.624	438.7
493.058	483.17
493.492	363.81
493.927	394.23
494.361	373.17
494.795	384.87
495.229	366.15
495.663	417.64
496.097	405.94
496.531	394.23
496.965	354.44
497.399	359.13
497.833	394.23
498.266	391.89
498.7	457.43
499.134	394.23
499.567	373.17
500.001	354.44
500.434	370.83
500.868	370.83
501.301	438.7
501.734	314.66
502.168	408.28
502.601	356.79
503.034	380.19
503.467	398.92
503.9	394.23
504.333	370.83
504.766	443.39
505.199	366.15
505.632	338.06
506.064	368.49
506.497	328.7
506.93	368.49
507.362	415.3
507.795	396.57
508.227	363.81
508.66	415.3
509.092	340.4
509.524	424.66
509.956	391.89
510.389	328.7
510.821	377.85
511.253	387.21
511.685	331.04
512.117	398.92
512.549	349.76
512.981	359.13
513.412	405.94
513.844	284.23
514.276	389.55
514.707	321.68
515.139	382.53
515.571	331.04
516.002	396.57
516.433	403.6
516.865	424.66
517.296	356.79
517.727	373.17
518.159	387.21
518.59	434.02
519.021	373.17
519.452	410.62
519.883	394.23
520.314	387.21
520.744	419.98
521.175	319.34
521.606	380.19
522.037	415.3
522.467	396.57
522.898	342.74
523.328	359.13
523.759	427
524.189	340.4
524.62	382.53
525.05	389.55
525.48	359.13
525.91	389.55
526.341	331.04
526.771	338.06
527.201	389.55
527.631	340.4
528.061	384.87
528.49	415.3
528.92	382.53
529.35	384.87
529.78	382.53
530.209	368.49
530.639	359.13
531.068	389.55
531.498	410.62
531.927	412.96
532.357	434.02
532.786	349.76
533.215	408.28
533.644	342.74
534.074	363.81
534.503	452.75
534.932	434.02
535.361	356.79
535.79	295.93
536.218	412.96
536.647	377.85
537.076	434.02
537.505	424.66
537.933	408.28
538.362	438.7
538.79	415.3
539.219	391.89
539.647	438.7
540.076	450.41
540.504	459.77
540.932	532.33
541.36	572.11
541.788	548.71
542.217	625.95
542.645	700.84
543.073	717.23
543.5	728.93
543.928	745.31
544.356	717.23
544.784	651.69
545.211	689.14
545.639	665.74
546.067	628.29
546.494	576.8
546.922	562.75
547.349	632.97
547.776	401.26
548.204	537.01
548.631	506.58
549.058	471.47
549.485	497.22
549.912	492.54
550.339	443.39
550.766	434.02
551.193	504.24
551.62	405.94
552.047	473.81
552.474	424.66
552.9	462.11
553.327	497.22
553.754	377.85
554.18	366.15
554.607	396.57
555.033	373.17
555.459	401.26
555.886	405.94
556.312	405.94
556.738	391.89
557.164	319.34
557.59	394.23
558.016	401.26
558.442	401.26
558.868	347.42
559.294	373.17
559.72	387.21
560.145	384.87
560.571	441.04
560.997	434.02
561.422	333.38
561.848	345.08
562.273	377.85
562.699	363.81
563.124	443.39
563.549	375.51
563.974	338.06
564.4	345.08
564.825	408.28
565.25	396.57
565.675	373.17
566.1	387.21
566.525	412.96
566.95	478.49
567.374	359.13
567.799	398.92
568.224	368.49
568.648	359.13
569.073	326.36
569.497	359.13
569.922	408.28
570.346	377.85
570.771	345.08
571.195	370.83
571.619	377.85
572.043	375.51
572.467	401.26
572.891	394.23
573.315	427
573.739	391.89
574.163	382.53
574.587	422.32
575.011	396.57
575.435	380.19
575.858	394.23
576.282	398.92
576.705	405.94
577.129	419.98
577.552	366.15
577.976	340.4
578.399	394.23
578.822	377.85
579.245	408.28
579.669	438.7
580.092	391.89
580.515	377.85
580.938	368.49
581.361	398.92
581.784	450.41
582.206	375.51
582.629	391.89
583.052	462.11
583.474	417.64
583.897	391.89
584.32	448.07
584.742	394.23
585.165	415.3
585.587	436.36
586.009	445.73
586.431	455.09
586.854	419.98
587.276	462.11
587.698	436.36
588.12	441.04
588.542	408.28
588.964	436.36
589.386	373.17
589.807	436.36
590.229	419.98
590.651	403.6
591.073	403.6
591.494	403.6
591.916	394.23
592.337	450.41
592.759	335.72
593.18	377.85
593.601	429.34
594.022	382.53
594.444	382.53
594.865	291.25
595.286	391.89
595.707	380.19
596.128	366.15
596.549	389.55
596.97	396.57
597.39	380.19
597.811	361.47
598.232	340.4
598.652	398.92
599.073	368.49
599.494	366.15
599.914	342.74
600.334	345.08
600.755	370.83
601.175	359.13
601.595	331.04
602.015	389.55
602.436	403.6
602.856	473.81
603.276	368.49
603.696	382.53
604.115	333.38
604.535	312.32
604.955	366.15
605.375	349.76
605.794	403.6
606.214	417.64
606.634	363.81
607.053	340.4
607.473	434.02
607.892	377.85
608.311	389.55
608.731	338.06
609.15	349.76
609.569	476.15
609.988	616.58
610.407	661.06
610.826	813.19
611.245	799.15
611.664	684.46
612.083	661.06
612.501	679.78
612.92	595.52
613.339	574.46
613.757	490.2
614.176	501.9
614.594	473.81
615.013	506.58
615.431	429.34
615.85	345.08
616.268	506.58
616.686	361.47
617.104	382.53
617.522	352.1
617.94	422.32
618.358	340.4
618.776	366.15
619.194	352.1
619.612	445.73
620.03	434.02
620.447	382.53
620.865	335.72
621.282	384.87
621.7	408.28
622.117	448.07
622.535	398.92
622.952	380.19
623.369	312.32
623.787	380.19
624.204	347.42
624.621	412.96
625.038	356.79
625.455	396.57
625.872	366.15
626.289	312.32
626.706	363.81
627.123	363.81
627.539	354.44
627.956	307.63
628.373	335.72
628.789	370.83
629.206	403.6
629.622	394.23
630.038	375.51
630.455	375.51
630.871	328.7
631.287	377.85
631.703	345.08
632.12	340.4
632.536	317
632.952	340.4
633.368	373.17
633.783	375.51
634.199	317
634.615	309.97
635.031	265.5
635.446	309.97
635.862	326.36
636.277	333.38
636.693	288.91
637.108	256.14
637.524	405.94
637.939	412.96
638.354	324.02
638.77	314.66
639.185	363.81
639.6	321.68
640.015	349.76
640.43	319.34
640.845	361.47
641.259	356.79
641.674	307.63
642.089	288.91
642.504	279.55
642.918	267.85
643.333	288.91
643.747	295.93
644.162	366.15
644.576	305.29
644.991	305.29
645.405	342.74
645.819	324.02
646.233	326.36
646.647	342.74
647.061	380.19
647.475	305.29
647.889	380.19
648.303	305.29
648.717	286.57
649.131	352.1
649.545	333.38
649.958	352.1
650.372	338.06
650.785	305.29
651.199	319.34
651.612	333.38
652.026	347.42
652.439	331.04
652.852	309.97
653.266	326.36
653.679	244.44
654.092	284.23
654.505	307.63
654.918	368.49
655.331	347.42
655.744	302.95
656.156	265.5
656.569	309.97
656.982	237.42
657.394	302.95
657.807	293.59
658.22	293.59
658.632	302.95
659.044	302.95
659.457	298.27
659.869	302.95
660.281	326.36
660.693	251.46
661.106	345.08
661.518	366.15
661.93	298.27
662.342	305.29
662.754	319.34
663.165	281.89
663.577	284.23
663.989	300.61
664.401	300.61
664.812	307.63
665.224	284.23
665.635	274.87
666.047	340.4
666.458	302.95
666.869	235.08
667.281	284.23
667.692	321.68
668.103	368.49
668.514	288.91
668.925	274.87
669.336	279.55
669.747	293.59
670.158	270.19
670.569	305.29
670.979	284.23
671.39	394.23
671.801	312.32
672.211	295.93
672.622	314.66
673.032	265.5
673.443	274.87
673.853	335.72
674.263	338.06
674.674	338.06
675.084	382.53
675.494	265.5
675.904	356.79
676.314	321.68
676.724	321.68
677.134	291.25
677.544	279.55
677.953	377.85
678.363	354.44
678.773	345.08
679.182	270.19
679.592	356.79
680.001	312.32
680.411	258.48
680.82	305.29
681.23	314.66
681.639	317
682.048	312.32
682.457	361.47
682.866	281.89
683.275	309.97
683.684	272.53
684.093	284.23
684.502	263.16
684.911	302.95
685.32	363.81
685.728	246.78
686.137	359.13
686.546	354.44
686.954	256.14
687.363	333.38
687.771	265.5
688.179	354.44
688.588	277.21
688.996	288.91
689.404	338.06
689.812	288.91
690.22	342.74
690.628	338.06
691.036	314.66
691.444	340.4
691.852	324.02
692.26	328.7
692.667	242.1
693.075	319.34
693.483	312.32
693.89	338.06
694.298	382.53
694.705	244.44
695.112	321.68
695.52	312.32
695.927	284.23
696.334	258.48
696.741	307.63
697.148	270.19
697.555	209.33
697.962	270.19
698.369	267.85
698.776	300.61
699.183	300.61
699.59	312.32
699.996	328.7
700.403	342.74
700.81	270.19
701.216	279.55
701.623	279.55
702.029	260.82
702.435	300.61
702.842	258.48
703.248	370.83
703.654	300.61
704.06	309.97
704.466	354.44
704.872	197.63
705.278	258.48
705.684	242.1
706.09	345.08
706.496	277.21
706.901	331.04
707.307	375.51
707.712	291.25
708.118	286.57
708.523	342.74
708.929	312.32
709.334	401.26
709.74	307.63
710.145	249.12
710.55	291.25
710.955	321.68
711.36	342.74
711.765	328.7
712.17	338.06
712.575	274.87
712.98	1009.79
713.385	403.6
713.789	274.87
714.194	307.63
714.599	312.32
715.003	342.74
715.408	331.04
715.812	307.63
716.217	286.57
716.621	335.72
717.025	333.38
717.429	298.27
717.833	263.16
718.238	253.8
718.642	281.89
719.046	305.29
719.449	295.93
719.853	251.46
720.257	302.95
720.661	331.04
721.065	272.53
721.468	314.66
721.872	324.02
722.275	284.23
722.679	349.76
723.082	321.68
723.485	225.72
723.889	221.03
724.292	223.37
724.695	307.63
725.098	293.59
725.501	363.81
725.904	338.06
726.307	328.7
726.71	221.03
727.113	345.08
727.516	333.38
727.918	326.36
728.321	251.46
728.724	249.12
729.126	286.57
729.529	352.1
729.931	314.66
730.333	295.93
730.736	333.38
731.138	263.16
731.54	249.12
731.942	239.76
732.344	319.34
732.746	333.38
733.148	270.19
733.55	277.21
733.952	286.57
734.354	359.13
734.756	295.93
735.157	309.97
735.559	263.16
735.96	342.74
736.362	251.46
736.763	263.16
737.165	302.95
737.566	284.23
737.967	244.44
738.368	309.97
738.77	349.76
739.171	312.32
739.572	321.68
739.973	345.08
740.374	331.04
740.774	265.5
741.175	312.32
741.576	302.95
741.977	263.16
742.377	391.89
742.778	265.5
743.178	279.55
743.579	340.4
743.979	232.74
744.379	244.44
744.78	293.59
745.18	267.85
745.58	349.76
745.98	277.21
746.38	270.19
746.78	312.32
747.18	328.7
747.58	246.78
747.98	394.23
748.38	328.7
748.779	260.82
749.179	331.04
749.578	256.14
749.978	270.19
750.377	256.14
750.777	300.61
751.176	279.55
751.575	265.5
751.975	305.29
752.374	260.82
752.773	251.46
753.172	277.21
753.571	293.59
753.97	281.89
754.369	281.89
754.768	361.47
755.166	309.97
755.565	321.68
755.964	326.36
756.362	345.08
756.761	356.79
757.159	274.87
757.558	214.01
757.956	253.8
758.354	319.34
758.753	284.23
759.151	321.68
759.549	328.7
759.947	359.13
760.345	274.87
760.743	354.44
761.141	302.95
761.539	345.08
761.936	284.23
762.334	232.74
762.732	333.38
763.129	288.91
763.527	202.31
763.924	246.78
764.322	309.97
764.719	291.25
765.117	295.93
765.514	347.42
