Data from Al_FLMS009871__60__11-45-33-899.txt Node

Date: Fri Mar 08 11:45:33 CST 2024
User: pe5414po
Spectrometer: FLMS00987
Trigger mode: 0
Integration Time (sec): 1.000000E-1
Scans to average: 1
Electric dark correction enabled: true
Nonlinearity correction enabled: false
Boxcar width: 0
XAxis mode: Wavelengths
Number of Pixels in Spectrum: 2048
>>>>>Begin Spectral Data<<<<<
188.938	-119.51
189.409	-119.51
189.879	-119.51
190.349	-86.75
190.819	-126.54
191.29	-126.54
191.76	-121.85
192.23	-70.36
192.7	-68.02
193.17	-103.13
193.64	-61
194.109	11.56
194.579	-0.15
195.049	25.6
195.519	16.24
195.988	13.9
196.458	93.48
196.927	49
197.397	137.95
197.866	105.18
198.336	98.16
198.805	91.13
199.274	135.6
199.744	184.76
200.213	182.42
200.682	205.82
201.151	217.52
201.62	219.86
202.089	226.89
202.558	201.14
203.027	269.02
203.495	229.23
203.964	257.31
204.433	261.99
204.902	247.95
205.37	278.38
205.839	290.08
206.307	308.8
206.776	273.7
207.244	346.25
207.712	334.55
208.181	297.1
208.649	320.51
209.117	201.14
209.585	273.7
210.053	306.46
210.521	343.91
210.989	243.27
211.457	318.17
211.925	219.86
212.393	287.74
212.861	311.14
213.328	297.1
213.796	311.14
214.264	276.04
214.731	273.7
215.199	238.59
215.666	212.84
216.133	332.21
216.601	271.36
217.068	280.72
217.535	294.76
218.003	320.51
218.47	290.08
218.937	306.46
219.404	194.12
219.871	243.27
220.338	252.63
220.805	240.93
221.271	212.84
221.738	217.52
222.205	287.74
222.671	264.33
223.138	306.46
223.605	325.19
224.071	215.18
224.538	161.35
225.004	261.99
225.47	226.89
225.937	240.93
226.403	226.89
226.869	130.92
227.335	273.7
227.801	313.49
228.267	297.1
228.733	304.12
229.199	250.29
229.665	290.08
230.131	285.4
230.597	292.42
231.062	247.95
231.528	292.42
231.994	278.38
232.459	257.31
232.925	280.72
233.39	252.63
233.856	247.95
234.321	287.74
234.786	261.99
235.252	283.06
235.717	269.02
236.182	308.8
236.647	325.19
237.112	315.83
237.577	252.63
238.042	264.33
238.507	226.89
238.972	292.42
239.436	240.93
239.901	329.87
240.366	304.12
240.83	280.72
241.295	224.55
241.76	301.78
242.224	327.53
242.688	313.49
243.153	287.74
243.617	254.97
244.081	285.4
244.545	264.33
245.01	257.31
245.474	329.87
245.938	266.67
246.402	322.85
246.866	261.99
247.33	276.04
247.793	229.23
248.257	308.8
248.721	299.44
249.185	306.46
249.648	318.17
250.112	257.31
250.575	283.06
251.039	301.78
251.502	278.38
251.965	320.51
252.429	294.76
252.892	299.44
253.355	252.63
253.818	306.46
254.281	304.12
254.744	243.27
255.207	386.04
255.67	357.96
256.133	236.25
256.596	313.49
257.059	334.55
257.522	304.12
257.984	294.76
258.447	257.31
258.909	280.72
259.372	325.19
259.834	257.31
260.297	290.08
260.759	411.79
261.221	353.27
261.684	259.65
262.146	332.21
262.608	292.42
263.07	283.06
263.532	250.29
263.994	297.1
264.456	355.62
264.918	257.31
265.38	280.72
265.842	292.42
266.303	259.65
266.765	339.23
267.227	252.63
267.688	311.14
268.15	285.4
268.611	269.02
269.072	261.99
269.534	297.1
269.995	257.31
270.456	313.49
270.918	339.23
271.379	306.46
271.84	357.96
272.301	271.36
272.762	336.89
273.223	271.36
273.684	287.74
274.144	280.72
274.605	315.83
275.066	334.55
275.527	301.78
275.987	297.1
276.448	212.84
276.908	315.83
277.369	269.02
277.829	290.08
278.289	292.42
278.75	198.8
279.21	297.1
279.67	306.46
280.13	269.02
280.59	299.44
281.05	261.99
281.51	287.74
281.97	283.06
282.43	306.46
282.89	320.51
283.35	343.91
283.809	292.42
284.269	294.76
284.729	320.51
285.188	304.12
285.648	231.57
286.107	304.12
286.567	304.12
287.026	308.8
287.485	341.57
287.944	311.14
288.404	299.44
288.863	364.98
289.322	254.97
289.781	327.53
290.24	327.53
290.699	357.96
291.158	320.51
291.616	313.49
292.075	269.02
292.534	329.87
292.992	290.08
293.451	233.91
293.91	318.17
294.368	301.78
294.827	299.44
295.285	264.33
295.743	306.46
296.202	339.23
296.66	266.67
297.118	320.51
297.576	285.4
298.034	301.78
298.492	332.21
298.95	355.62
299.408	294.76
299.866	257.31
300.324	276.04
300.781	313.49
301.239	315.83
301.697	233.91
302.154	271.36
302.612	257.31
303.069	252.63
303.527	254.97
303.984	287.74
304.441	306.46
304.899	341.57
305.356	278.38
305.813	318.17
306.27	278.38
306.727	311.14
307.184	299.44
307.641	320.51
308.098	339.23
308.555	339.23
309.012	346.25
309.468	236.25
309.925	276.04
310.382	271.36
310.838	304.12
311.295	278.38
311.751	346.25
312.208	290.08
312.664	353.27
313.12	238.59
313.577	334.55
314.033	287.74
314.489	311.14
314.945	320.51
315.401	322.85
315.857	311.14
316.313	231.57
316.769	243.27
317.225	238.59
317.681	280.72
318.136	322.85
318.592	315.83
319.048	306.46
319.503	238.59
319.959	273.7
320.414	304.12
320.869	301.78
321.325	297.1
321.78	276.04
322.235	355.62
322.691	360.3
323.146	280.72
323.601	273.7
324.056	332.21
324.511	320.51
324.966	318.17
325.421	343.91
325.875	304.12
326.33	271.36
326.785	336.89
327.24	301.78
327.694	348.59
328.149	346.25
328.603	325.19
329.058	254.97
329.512	276.04
329.966	383.7
330.421	297.1
330.875	301.78
331.329	299.44
331.783	257.31
332.237	269.02
332.691	315.83
333.145	261.99
333.599	315.83
334.053	360.3
334.507	334.55
334.96	315.83
335.414	297.1
335.868	283.06
336.321	257.31
336.775	273.7
337.228	264.33
337.682	231.57
338.135	322.85
338.588	308.8
339.042	350.93
339.495	299.44
339.948	339.23
340.401	346.25
340.854	301.78
341.307	322.85
341.76	315.83
342.213	336.89
342.666	301.78
343.119	233.91
343.571	285.4
344.024	334.55
344.477	376.68
344.929	285.4
345.382	315.83
345.834	364.98
346.287	315.83
346.739	327.53
347.191	341.57
347.644	343.91
348.096	348.59
348.548	250.29
349	306.46
349.452	327.53
349.904	287.74
350.356	364.98
350.808	325.19
351.26	357.96
351.711	311.14
352.163	325.19
352.615	404.77
353.066	311.14
353.518	327.53
353.969	346.25
354.421	381.36
354.872	257.31
355.324	369.66
355.775	362.64
356.226	269.02
356.677	301.78
357.128	393.06
357.579	332.21
358.03	250.29
358.481	306.46
358.932	294.76
359.383	334.55
359.834	247.95
360.285	357.96
360.735	329.87
361.186	327.53
361.637	372
362.087	332.21
362.538	360.3
362.988	332.21
363.438	226.89
363.889	306.46
364.339	280.72
364.789	280.72
365.239	318.17
365.689	313.49
366.139	343.91
366.589	283.06
367.039	329.87
367.489	297.1
367.939	280.72
368.389	339.23
368.839	294.76
369.288	341.57
369.738	343.91
370.187	301.78
370.637	299.44
371.086	271.36
371.536	280.72
371.985	329.87
372.434	393.06
372.884	306.46
373.333	339.23
373.782	334.55
374.231	271.36
374.68	250.29
375.129	301.78
375.578	327.53
376.027	348.59
376.475	315.83
376.924	395.4
377.373	285.4
377.822	315.83
378.27	285.4
378.719	306.46
379.167	290.08
379.616	318.17
380.064	339.23
380.512	280.72
380.961	329.87
381.409	278.38
381.857	259.65
382.305	332.21
382.753	320.51
383.201	313.49
383.649	348.59
384.097	348.59
384.545	308.8
384.992	271.36
385.44	294.76
385.888	346.25
386.335	308.8
386.783	315.83
387.231	311.14
387.678	229.23
388.125	283.06
388.573	343.91
389.02	301.78
389.467	346.25
389.914	346.25
390.362	407.11
390.809	353.27
391.256	318.17
391.703	301.78
392.15	320.51
392.596	346.25
393.043	306.46
393.49	273.7
393.937	350.93
394.383	299.44
394.83	325.19
395.276	357.96
395.723	322.85
396.169	285.4
396.616	325.19
397.062	381.36
397.508	383.7
397.954	308.8
398.401	290.08
398.847	292.42
399.293	325.19
399.739	357.96
400.185	320.51
400.631	301.78
401.076	360.3
401.522	395.4
401.968	336.89
402.414	285.4
402.859	327.53
403.305	294.76
403.75	327.53
404.196	301.78
404.641	308.8
405.086	376.68
405.532	393.06
405.977	325.19
406.422	355.62
406.867	278.38
407.312	383.7
407.757	292.42
408.202	339.23
408.647	353.27
409.092	367.32
409.537	306.46
409.982	294.76
410.426	280.72
410.871	339.23
411.316	294.76
411.76	353.27
412.205	313.49
412.649	315.83
413.093	355.62
413.538	346.25
413.982	287.74
414.426	271.36
414.87	315.83
415.314	325.19
415.758	301.78
416.202	278.38
416.646	320.51
417.09	367.32
417.534	353.27
417.978	290.08
418.421	348.59
418.865	360.3
419.309	299.44
419.752	334.55
420.196	325.19
420.639	290.08
421.083	350.93
421.526	301.78
421.969	339.23
422.412	315.83
422.856	414.13
423.299	308.8
423.742	388.38
424.185	313.49
424.628	357.96
425.071	369.66
425.513	372
425.956	313.49
426.399	318.17
426.842	360.3
427.284	425.83
427.727	381.36
428.169	341.57
428.612	343.91
429.054	313.49
429.497	393.06
429.939	372
430.381	322.85
430.823	390.72
431.265	374.34
431.707	381.36
432.149	418.81
432.591	397.74
433.033	409.45
433.475	390.72
433.917	367.32
434.359	437.53
434.8	472.64
435.242	503.07
435.684	638.82
436.125	533.5
436.567	456.26
437.008	538.18
437.449	395.4
437.891	435.19
438.332	437.53
438.773	362.64
439.214	402.43
439.656	407.11
440.097	416.47
440.538	460.94
440.978	479.66
441.419	446.9
441.86	482
442.301	393.06
442.742	463.28
443.182	510.09
443.623	451.58
444.063	453.92
444.504	428.17
444.944	514.77
445.385	383.7
445.825	421.15
446.265	491.37
446.706	451.58
447.146	493.71
447.586	437.53
448.026	437.53
448.466	421.15
448.906	467.96
449.346	409.45
449.786	474.98
450.225	465.62
450.665	479.66
451.105	456.26
451.544	423.49
451.984	474.98
452.424	456.26
452.863	416.47
453.302	456.26
453.742	435.19
454.181	465.62
454.62	456.26
455.059	374.34
455.499	460.94
455.938	421.15
456.377	400.09
456.816	460.94
457.254	446.9
457.693	467.96
458.132	423.49
458.571	414.13
459.01	360.3
459.448	386.04
459.887	451.58
460.325	346.25
460.764	388.38
461.202	402.43
461.641	364.98
462.079	407.11
462.517	442.21
462.955	407.11
463.393	372
463.832	353.27
464.27	397.74
464.708	383.7
465.145	364.98
465.583	395.4
466.021	339.23
466.459	379.02
466.897	367.32
467.334	367.32
467.772	360.3
468.209	336.89
468.647	393.06
469.084	407.11
469.522	425.83
469.959	411.79
470.396	357.96
470.833	428.17
471.271	379.02
471.708	341.57
472.145	381.36
472.582	374.34
473.019	372
473.456	364.98
473.892	397.74
474.329	414.13
474.766	451.58
475.202	376.68
475.639	418.81
476.076	411.79
476.512	322.85
476.949	397.74
477.385	388.38
477.821	381.36
478.258	287.74
478.694	322.85
479.13	355.62
479.566	379.02
480.002	329.87
480.438	362.64
480.874	393.06
481.31	357.96
481.746	397.74
482.181	364.98
482.617	362.64
483.053	348.59
483.488	355.62
483.924	402.43
484.36	437.53
484.795	470.3
485.23	355.62
485.666	446.9
486.101	386.04
486.536	437.53
486.971	421.15
487.407	428.17
487.842	456.26
488.277	482
488.712	460.94
489.146	390.72
489.581	460.94
490.016	451.58
490.451	439.87
490.885	416.47
491.32	400.09
491.755	388.38
492.189	421.15
492.624	376.68
493.058	416.47
493.492	367.32
493.927	430.51
494.361	428.17
494.795	407.11
495.229	407.11
495.663	463.28
496.097	395.4
496.531	460.94
496.965	346.25
497.399	388.38
497.833	374.34
498.266	383.7
498.7	388.38
499.134	395.4
499.567	379.02
500.001	311.14
500.434	404.77
500.868	393.06
501.301	355.62
501.734	383.7
502.168	449.24
502.601	369.66
503.034	343.91
503.467	372
503.9	334.55
504.333	442.21
504.766	383.7
505.199	418.81
505.632	404.77
506.064	386.04
506.497	411.79
506.93	386.04
507.362	334.55
507.795	397.74
508.227	407.11
508.66	400.09
509.092	346.25
509.524	367.32
509.956	453.92
510.389	374.34
510.821	381.36
511.253	362.64
511.685	388.38
512.117	421.15
512.549	414.13
512.981	451.58
513.412	437.53
513.844	411.79
514.276	386.04
514.707	453.92
515.139	435.19
515.571	400.09
516.002	386.04
516.433	360.3
516.865	421.15
517.296	439.87
517.727	367.32
518.159	472.64
518.59	467.96
519.021	386.04
519.452	409.45
519.883	435.19
520.314	467.96
520.744	465.62
521.175	411.79
521.606	357.96
522.037	364.98
522.467	395.4
522.898	460.94
523.328	372
523.759	425.83
524.189	409.45
524.62	430.51
525.05	355.62
525.48	460.94
525.91	388.38
526.341	329.87
526.771	353.27
527.201	367.32
527.631	449.24
528.061	379.02
528.49	425.83
528.92	418.81
529.35	393.06
529.78	381.36
530.209	379.02
530.639	430.51
531.068	334.55
531.498	376.68
531.927	353.27
532.357	379.02
532.786	367.32
533.215	404.77
533.644	467.96
534.074	442.21
534.503	411.79
534.932	411.79
535.361	374.34
535.79	400.09
536.218	374.34
536.647	367.32
537.076	381.36
537.505	446.9
537.933	432.85
538.362	404.77
538.79	514.77
539.219	512.43
539.647	493.71
540.076	519.45
540.504	472.64
540.932	601.37
541.36	582.65
541.788	624.78
542.217	622.44
542.645	673.93
543.073	711.38
543.5	697.33
543.928	690.31
544.356	716.06
544.784	727.76
545.211	732.44
545.639	781.59
546.067	680.95
546.494	678.61
546.922	592.01
547.349	575.63
547.776	486.69
548.204	517.11
548.631	477.32
549.058	524.13
549.485	496.05
549.912	456.26
550.339	458.6
550.766	442.21
551.193	503.07
551.62	479.66
552.047	465.62
552.474	442.21
552.9	482
553.327	470.3
553.754	477.32
554.18	381.36
554.607	430.51
555.033	416.47
555.459	369.66
555.886	367.32
556.312	451.58
556.738	428.17
557.164	393.06
557.59	463.28
558.016	355.62
558.442	416.47
558.868	437.53
559.294	414.13
559.72	379.02
560.145	456.26
560.571	416.47
560.997	418.81
561.422	383.7
561.848	411.79
562.273	395.4
562.699	383.7
563.124	372
563.549	409.45
563.974	437.53
564.4	430.51
564.825	409.45
565.25	418.81
565.675	386.04
566.1	418.81
566.525	353.27
566.95	395.4
567.374	414.13
567.799	421.15
568.224	343.91
568.648	437.53
569.073	435.19
569.497	435.19
569.922	404.77
570.346	343.91
570.771	414.13
571.195	374.34
571.619	477.32
572.043	435.19
572.467	367.32
572.891	393.06
573.315	357.96
573.739	414.13
574.163	425.83
574.587	435.19
575.011	484.34
575.435	425.83
575.858	435.19
576.282	388.38
576.705	346.25
577.129	404.77
577.552	402.43
577.976	364.98
578.399	421.15
578.822	362.64
579.245	374.34
579.669	446.9
580.092	460.94
580.515	428.17
580.938	414.13
581.361	414.13
581.784	493.71
582.206	416.47
582.629	423.49
583.052	453.92
583.474	505.41
583.897	479.66
584.32	411.79
584.742	388.38
585.165	500.73
585.587	428.17
586.009	402.43
586.431	460.94
586.854	458.6
587.276	425.83
587.698	493.71
588.12	460.94
588.542	453.92
588.964	451.58
589.386	439.87
589.807	423.49
590.229	449.24
590.651	444.56
591.073	388.38
591.494	367.32
591.916	369.66
592.337	456.26
592.759	327.53
593.18	453.92
593.601	393.06
594.022	393.06
594.444	348.59
594.865	329.87
595.286	393.06
595.707	367.32
596.128	414.13
596.549	355.62
596.97	421.15
597.39	315.83
597.811	388.38
598.232	336.89
598.652	325.19
599.073	367.32
599.494	409.45
599.914	383.7
600.334	414.13
600.755	372
601.175	379.02
601.595	372
602.015	362.64
602.436	388.38
602.856	535.84
603.276	425.83
603.696	376.68
604.115	334.55
604.535	360.3
604.955	388.38
605.375	444.56
605.794	332.21
606.214	390.72
606.634	355.62
607.053	374.34
607.473	369.66
607.892	341.57
608.311	395.4
608.731	423.49
609.15	451.58
609.569	510.09
609.988	622.44
610.407	739.46
610.826	823.72
611.245	744.14
611.664	762.87
612.083	692.65
612.501	615.41
612.92	638.82
613.339	580.31
613.757	528.81
614.176	489.03
614.594	437.53
615.013	547.54
615.431	474.98
615.85	467.96
616.268	411.79
616.686	428.17
617.104	439.87
617.522	409.45
617.94	470.3
618.358	414.13
618.776	432.85
619.194	460.94
619.612	400.09
620.03	477.32
620.447	407.11
620.865	411.79
621.282	416.47
621.7	512.43
622.117	367.32
622.535	360.3
622.952	306.46
623.369	341.57
623.787	357.96
624.204	294.76
624.621	336.89
625.038	460.94
625.455	374.34
625.872	369.66
626.289	379.02
626.706	432.85
627.123	374.34
627.539	400.09
627.956	355.62
628.373	332.21
628.789	346.25
629.206	353.27
629.622	395.4
630.038	404.77
630.455	402.43
630.871	353.27
631.287	409.45
631.703	407.11
632.12	388.38
632.536	348.59
632.952	320.51
633.368	325.19
633.783	327.53
634.199	332.21
634.615	290.08
635.031	346.25
635.446	292.42
635.862	325.19
636.277	308.8
636.693	381.36
637.108	325.19
637.524	355.62
637.939	386.04
638.354	348.59
638.77	283.06
639.185	343.91
639.6	339.23
640.015	346.25
640.43	308.8
640.845	393.06
641.259	372
641.674	402.43
642.089	339.23
642.504	343.91
642.918	372
643.333	367.32
643.747	311.14
644.162	369.66
644.576	348.59
644.991	320.51
645.405	369.66
645.819	290.08
646.233	360.3
646.647	369.66
647.061	411.79
647.475	243.27
647.889	343.91
648.303	280.72
648.717	341.57
649.131	353.27
649.545	339.23
649.958	362.64
650.372	329.87
650.785	360.3
651.199	381.36
651.612	341.57
652.026	348.59
652.439	341.57
652.852	271.36
653.266	334.55
653.679	285.4
654.092	304.12
654.505	332.21
654.918	315.83
655.331	348.59
655.744	294.76
656.156	350.93
656.569	355.62
656.982	372
657.394	313.49
657.807	308.8
658.22	350.93
658.632	315.83
659.044	343.91
659.457	346.25
659.869	386.04
660.281	332.21
660.693	348.59
661.106	236.25
661.518	325.19
661.93	261.99
662.342	374.34
662.754	238.59
663.165	215.18
663.577	343.91
663.989	297.1
664.401	367.32
664.812	397.74
665.224	315.83
665.635	306.46
666.047	315.83
666.458	332.21
666.869	285.4
667.281	315.83
667.692	315.83
668.103	254.97
668.514	308.8
668.925	402.43
669.336	306.46
669.747	325.19
670.158	341.57
670.569	372
670.979	297.1
671.39	343.91
671.801	287.74
672.211	341.57
672.622	329.87
673.032	381.36
673.443	409.45
673.853	315.83
674.263	313.49
674.674	327.53
675.084	315.83
675.494	390.72
675.904	306.46
676.314	313.49
676.724	297.1
677.134	348.59
677.544	395.4
677.953	339.23
678.363	280.72
678.773	414.13
679.182	318.17
679.592	397.74
680.001	266.67
680.411	325.19
680.82	294.76
681.23	353.27
681.639	364.98
682.048	341.57
682.457	297.1
682.866	336.89
683.275	269.02
683.684	311.14
684.093	322.85
684.502	325.19
684.911	395.4
685.32	297.1
685.728	332.21
686.137	355.62
686.546	292.42
686.954	346.25
687.363	297.1
687.771	304.12
688.179	334.55
688.588	346.25
688.996	301.78
689.404	348.59
689.812	332.21
690.22	315.83
690.628	395.4
691.036	304.12
691.444	332.21
691.852	313.49
692.26	372
692.667	308.8
693.075	374.34
693.483	304.12
693.89	369.66
694.298	278.38
694.705	240.93
695.112	381.36
695.52	318.17
695.927	346.25
696.334	301.78
696.741	301.78
697.148	311.14
697.555	301.78
697.962	301.78
698.369	355.62
698.776	290.08
699.183	308.8
699.59	313.49
699.996	332.21
700.403	315.83
700.81	339.23
701.216	362.64
701.623	336.89
702.029	355.62
702.435	325.19
702.842	355.62
703.248	301.78
703.654	362.64
704.06	297.1
704.466	301.78
704.872	236.25
705.278	318.17
705.684	297.1
706.09	353.27
706.496	407.11
706.901	341.57
707.307	325.19
707.712	334.55
708.118	306.46
708.523	374.34
708.929	355.62
709.334	292.42
709.74	329.87
710.145	297.1
710.55	301.78
710.955	315.83
711.36	313.49
711.765	322.85
712.17	259.65
712.575	341.57
712.98	1060.12
713.385	350.93
713.789	290.08
714.194	367.32
714.599	374.34
715.003	290.08
715.408	318.17
715.812	240.93
716.217	304.12
716.621	278.38
717.025	325.19
717.429	311.14
717.833	404.77
718.238	374.34
718.642	362.64
719.046	348.59
719.449	360.3
719.853	336.89
720.257	334.55
720.661	301.78
721.065	313.49
721.468	332.21
721.872	301.78
722.275	343.91
722.679	271.36
723.082	294.76
723.485	439.87
723.889	341.57
724.292	297.1
724.695	339.23
725.098	346.25
725.501	329.87
725.904	313.49
726.307	301.78
726.71	252.63
727.113	348.59
727.516	318.17
727.918	332.21
728.321	318.17
728.724	320.51
729.126	327.53
729.529	311.14
729.931	336.89
730.333	315.83
730.736	341.57
731.138	278.38
731.54	318.17
731.942	367.32
732.344	367.32
732.746	346.25
733.148	334.55
733.55	306.46
733.952	261.99
734.354	299.44
734.756	348.59
735.157	278.38
735.559	315.83
735.96	339.23
736.362	362.64
736.763	318.17
737.165	269.02
737.566	315.83
737.967	346.25
738.368	362.64
738.77	297.1
739.171	357.96
739.572	376.68
739.973	292.42
740.374	292.42
740.774	339.23
741.175	299.44
741.576	313.49
741.977	374.34
742.377	299.44
742.778	294.76
743.178	292.42
743.579	308.8
743.979	320.51
744.379	254.97
744.78	397.74
745.18	379.02
745.58	311.14
745.98	346.25
746.38	332.21
746.78	276.04
747.18	332.21
747.58	322.85
747.98	315.83
748.38	299.44
748.779	261.99
749.179	332.21
749.578	341.57
749.978	278.38
750.377	254.97
750.777	315.83
751.176	285.4
751.575	294.76
751.975	343.91
752.374	322.85
752.773	254.97
753.172	332.21
753.571	299.44
753.97	301.78
754.369	332.21
754.768	290.08
755.166	341.57
755.565	283.06
755.964	327.53
756.362	313.49
756.761	325.19
757.159	243.27
757.558	318.17
757.956	381.36
758.354	439.87
758.753	367.32
759.151	339.23
759.549	315.83
759.947	315.83
760.345	442.21
760.743	304.12
761.141	313.49
761.539	329.87
761.936	269.02
762.334	308.8
762.732	276.04
763.129	379.02
763.527	341.57
763.924	311.14
764.322	395.4
764.719	304.12
765.117	294.76
765.514	299.44
765.911	341.57
766.308	355.62
