Data from Al_FLMS009871__69__11-45-34-799.txt Node

Date: Fri Mar 08 11:45:34 CST 2024
User: pe5414po
Spectrometer: FLMS00987
Trigger mode: 0
Integration Time (sec): 1.000000E-1
Scans to average: 1
Electric dark correction enabled: true
Nonlinearity correction enabled: false
Boxcar width: 0
XAxis mode: Wavelengths
Number of Pixels in Spectrum: 2048
>>>>>Begin Spectral Data<<<<<
188.938	5.27
189.409	5.27
189.879	5.27
190.349	-46.23
190.819	-67.29
191.29	-132.83
191.76	-64.95
192.23	-83.67
192.7	-125.8
193.17	-55.59
193.64	-41.54
194.109	5.27
194.579	-78.99
195.049	45.06
195.519	9.95
195.988	-43.89
196.458	77.82
196.927	87.18
197.397	136.34
197.866	126.97
198.336	138.68
198.805	157.4
199.274	166.76
199.744	148.04
200.213	283.79
200.682	239.32
201.151	206.55
201.62	187.83
202.089	234.64
202.558	269.75
203.027	218.25
203.495	234.64
203.964	239.32
204.433	300.17
204.902	304.85
205.37	274.43
205.839	286.13
206.307	269.75
206.776	267.41
207.244	293.15
207.712	269.75
208.181	325.92
208.649	342.3
209.117	311.88
209.585	349.32
210.053	262.73
210.521	361.03
210.989	283.79
211.457	269.75
211.925	321.24
212.393	276.77
212.861	269.75
213.328	283.79
213.796	253.36
214.264	274.43
214.731	265.07
215.199	314.22
215.666	241.66
216.133	267.41
216.601	227.62
217.068	269.75
217.535	307.2
218.003	300.17
218.47	302.51
218.937	269.75
219.404	276.77
219.871	267.41
220.338	248.68
220.805	307.2
221.271	206.55
221.738	288.47
222.205	316.56
222.671	279.11
223.138	206.55
223.605	272.09
224.071	304.85
224.538	286.13
225.004	309.54
225.47	286.13
225.937	286.13
226.403	251.02
226.869	213.57
227.335	290.81
227.801	302.51
228.267	190.17
228.733	314.22
229.199	318.9
229.665	276.77
230.131	269.75
230.597	311.88
231.062	283.79
231.528	370.39
231.994	236.98
232.459	272.09
232.925	288.47
233.39	269.75
233.856	325.92
234.321	339.96
234.786	276.77
235.252	300.17
235.717	262.73
236.182	244
236.647	335.28
237.112	311.88
237.577	248.68
238.042	304.85
238.507	286.13
238.972	267.41
239.436	218.25
239.901	316.56
240.366	293.15
240.83	293.15
241.295	279.11
241.76	386.77
242.224	272.09
242.688	283.79
243.153	321.24
243.617	304.85
244.081	335.28
244.545	276.77
245.01	208.89
245.474	316.56
245.938	293.15
246.402	295.49
246.866	279.11
247.33	330.6
247.793	332.94
248.257	265.07
248.721	288.47
249.185	244
249.648	316.56
250.112	321.24
250.575	288.47
251.039	328.26
251.502	253.36
251.965	244
252.429	293.15
252.892	276.77
253.355	318.9
253.818	239.32
254.281	267.41
254.744	222.94
255.207	260.38
255.67	225.28
256.133	316.56
256.596	335.28
257.059	272.09
257.522	318.9
257.984	337.62
258.447	229.96
258.909	286.13
259.372	351.67
259.834	286.13
260.297	286.13
260.759	288.47
261.221	297.83
261.684	302.51
262.146	251.02
262.608	321.24
263.07	304.85
263.532	309.54
263.994	297.83
264.456	309.54
264.918	251.02
265.38	358.69
265.842	258.04
266.303	309.54
266.765	309.54
267.227	356.35
267.688	335.28
268.15	232.3
268.611	258.04
269.072	304.85
269.534	342.3
269.995	290.81
270.456	290.81
270.918	265.07
271.379	311.88
271.84	316.56
272.301	337.62
272.762	323.58
273.223	344.64
273.684	297.83
274.144	258.04
274.605	361.03
275.066	325.92
275.527	276.77
275.987	323.58
276.448	316.56
276.908	265.07
277.369	332.94
277.829	316.56
278.289	354.01
278.75	276.77
279.21	283.79
279.67	293.15
280.13	323.58
280.59	304.85
281.05	363.37
281.51	321.24
281.97	307.2
282.43	321.24
282.89	363.37
283.35	290.81
283.809	288.47
284.269	346.98
284.729	358.69
285.188	290.81
285.648	328.26
286.107	272.09
286.567	309.54
287.026	382.09
287.485	300.17
287.944	337.62
288.404	286.13
288.863	328.26
289.322	342.3
289.781	314.22
290.24	290.81
290.699	344.64
291.158	323.58
291.616	344.64
292.075	368.05
292.534	286.13
292.992	351.67
293.451	297.83
293.91	323.58
294.368	335.28
294.827	330.6
295.285	354.01
295.743	337.62
296.202	339.96
296.66	281.45
297.118	335.28
297.576	346.98
298.034	290.81
298.492	349.32
298.95	281.45
299.408	304.85
299.866	244
300.324	318.9
300.781	302.51
301.239	281.45
301.697	269.75
302.154	332.94
302.612	346.98
303.069	330.6
303.527	276.77
303.984	309.54
304.441	302.51
304.899	276.77
305.356	293.15
305.813	354.01
306.27	281.45
306.727	316.56
307.184	372.73
307.641	283.79
308.098	300.17
308.555	332.94
309.012	300.17
309.468	304.85
309.925	293.15
310.382	318.9
310.838	279.11
311.295	356.35
311.751	335.28
312.208	279.11
312.664	328.26
313.12	323.58
313.577	318.9
314.033	337.62
314.489	272.09
314.945	337.62
315.401	302.51
315.857	314.22
316.313	323.58
316.769	304.85
317.225	281.45
317.681	302.51
318.136	307.2
318.592	339.96
319.048	302.51
319.503	314.22
319.959	372.73
320.414	309.54
320.869	368.05
321.325	302.51
321.78	354.01
322.235	337.62
322.691	365.71
323.146	377.41
323.601	335.28
324.056	225.28
324.511	361.03
324.966	328.26
325.421	321.24
325.875	342.3
326.33	323.58
326.785	316.56
327.24	286.13
327.694	288.47
328.149	368.05
328.603	321.24
329.058	318.9
329.512	386.77
329.966	332.94
330.421	236.98
330.875	260.38
331.329	295.49
331.783	325.92
332.237	302.51
332.691	311.88
333.145	229.96
333.599	325.92
334.053	272.09
334.507	297.83
334.96	269.75
335.414	311.88
335.868	309.54
336.321	295.49
336.775	342.3
337.228	328.26
337.682	368.05
338.135	332.94
338.588	372.73
339.042	325.92
339.495	346.98
339.948	316.56
340.401	321.24
340.854	351.67
341.307	309.54
341.76	286.13
342.213	323.58
342.666	400.82
343.119	368.05
343.571	342.3
344.024	330.6
344.477	330.6
344.929	300.17
345.382	311.88
345.834	279.11
346.287	321.24
346.739	363.37
347.191	300.17
347.644	354.01
348.096	318.9
348.548	297.83
349	332.94
349.452	332.94
349.904	365.71
350.356	370.39
350.808	267.41
351.26	297.83
351.711	335.28
352.163	234.64
352.615	382.09
353.066	288.47
353.518	300.17
353.969	342.3
354.421	300.17
354.872	267.41
355.324	337.62
355.775	248.68
356.226	349.32
356.677	332.94
357.128	279.11
357.579	314.22
358.03	288.47
358.481	372.73
358.932	274.43
359.383	332.94
359.834	382.09
360.285	403.16
360.735	365.71
361.186	325.92
361.637	246.34
362.087	323.58
362.538	337.62
362.988	318.9
363.438	318.9
363.889	283.79
364.339	307.2
364.789	351.67
365.239	314.22
365.689	295.49
366.139	382.09
366.589	389.11
367.039	330.6
367.489	316.56
367.939	302.51
368.389	309.54
368.839	307.2
369.288	349.32
369.738	290.81
370.187	339.96
370.637	342.3
371.086	328.26
371.536	265.07
371.985	314.22
372.434	335.28
372.884	311.88
373.333	389.11
373.782	358.69
374.231	316.56
374.68	332.94
375.129	363.37
375.578	377.41
376.027	302.51
376.475	356.35
376.924	410.18
377.373	384.43
377.822	344.64
378.27	358.69
378.719	309.54
379.167	384.43
379.616	318.9
380.064	323.58
380.512	325.92
380.961	356.35
381.409	346.98
381.857	272.09
382.305	288.47
382.753	309.54
383.201	290.81
383.649	323.58
384.097	342.3
384.545	272.09
384.992	286.13
385.44	323.58
385.888	372.73
386.335	335.28
386.783	248.68
387.231	349.32
387.678	269.75
388.125	286.13
388.573	318.9
389.02	297.83
389.467	311.88
389.914	389.11
390.362	335.28
390.809	318.9
391.256	351.67
391.703	372.73
392.15	325.92
392.596	281.45
393.043	337.62
393.49	311.88
393.937	379.75
394.383	309.54
394.83	328.26
395.276	337.62
395.723	344.64
396.169	311.88
396.616	309.54
397.062	314.22
397.508	393.8
397.954	337.62
398.401	377.41
398.847	309.54
399.293	363.37
399.739	332.94
400.185	328.26
400.631	339.96
401.076	403.16
401.522	281.45
401.968	344.64
402.414	351.67
402.859	325.92
403.305	332.94
403.75	342.3
404.196	375.07
404.641	368.05
405.086	342.3
405.532	382.09
405.977	311.88
406.422	328.26
406.867	358.69
407.312	339.96
407.757	300.17
408.202	316.56
408.647	300.17
409.092	316.56
409.537	288.47
409.982	346.98
410.426	332.94
410.871	370.39
411.316	225.28
411.76	295.49
412.205	332.94
412.649	372.73
413.093	293.15
413.538	318.9
413.982	325.92
414.426	325.92
414.87	365.71
415.314	344.64
415.758	356.35
416.202	370.39
416.646	304.85
417.09	337.62
417.534	375.07
417.978	314.22
418.421	386.77
418.865	279.11
419.309	262.73
419.752	337.62
420.196	330.6
420.639	368.05
421.083	356.35
421.526	356.35
421.969	300.17
422.412	335.28
422.856	335.28
423.299	445.29
423.742	356.35
424.185	351.67
424.628	337.62
425.071	356.35
425.513	428.9
425.956	323.58
426.399	414.86
426.842	346.98
427.284	389.11
427.727	393.8
428.169	358.69
428.612	354.01
429.054	314.22
429.497	358.69
429.939	361.03
430.381	386.77
430.823	393.8
431.265	461.67
431.707	405.5
432.149	382.09
432.591	438.27
433.033	426.56
433.475	419.54
433.917	396.14
434.359	464.01
434.8	487.42
435.242	536.57
435.684	510.82
436.125	508.48
436.567	466.35
437.008	440.61
437.449	471.03
437.891	386.77
438.332	405.5
438.773	435.92
439.214	421.88
439.656	433.58
440.097	456.99
440.538	396.14
440.978	438.27
441.419	478.05
441.86	531.89
442.301	529.55
442.742	485.08
443.182	524.87
443.623	482.74
444.063	412.52
444.504	410.18
444.944	478.05
445.385	487.42
445.825	527.21
446.265	482.74
446.706	492.1
447.146	487.42
447.586	454.65
448.026	499.12
448.466	456.99
448.906	461.67
449.346	496.78
449.786	508.48
450.225	480.39
450.665	473.37
451.105	485.08
451.544	529.55
451.984	433.58
452.424	447.63
452.863	438.27
453.302	431.24
453.742	531.89
454.181	466.35
454.62	482.74
455.059	393.8
455.499	492.1
455.938	445.29
456.377	417.2
456.816	471.03
457.254	365.71
457.693	400.82
458.132	447.63
458.571	410.18
459.01	377.41
459.448	398.48
459.887	440.61
460.325	370.39
460.764	464.01
461.202	382.09
461.641	447.63
462.079	421.88
462.517	396.14
462.955	330.6
463.393	365.71
463.832	384.43
464.27	482.74
464.708	447.63
465.145	377.41
465.583	403.16
466.021	361.03
466.459	391.45
466.897	398.48
467.334	424.22
467.772	417.2
468.209	363.37
468.647	379.75
469.084	405.5
469.522	447.63
469.959	400.82
470.396	412.52
470.833	372.73
471.271	368.05
471.708	426.56
472.145	351.67
472.582	342.3
473.019	449.97
473.456	368.05
473.892	447.63
474.329	391.45
474.766	377.41
475.202	445.29
475.639	386.77
476.076	417.2
476.512	351.67
476.949	372.73
477.385	349.32
477.821	386.77
478.258	382.09
478.694	428.9
479.13	421.88
479.566	311.88
480.002	377.41
480.438	356.35
480.874	332.94
481.31	361.03
481.746	368.05
482.181	428.9
482.617	361.03
483.053	438.27
483.488	358.69
483.924	419.54
484.36	449.97
484.795	386.77
485.23	464.01
485.666	419.54
486.101	421.88
486.536	473.37
486.971	456.99
487.407	466.35
487.842	421.88
488.277	417.2
488.712	452.31
489.146	454.65
489.581	370.39
490.016	478.05
490.451	410.18
490.885	372.73
491.32	471.03
491.755	442.95
492.189	459.33
492.624	426.56
493.058	445.29
493.492	442.95
493.927	410.18
494.361	421.88
494.795	396.14
495.229	428.9
495.663	424.22
496.097	412.52
496.531	403.16
496.965	428.9
497.399	407.84
497.833	405.5
498.266	417.2
498.7	351.67
499.134	356.35
499.567	452.31
500.001	386.77
500.434	386.77
500.868	368.05
501.301	398.48
501.734	344.64
502.168	391.45
502.601	344.64
503.034	396.14
503.467	414.86
503.9	389.11
504.333	356.35
504.766	412.52
505.199	414.86
505.632	377.41
506.064	428.9
506.497	379.75
506.93	407.84
507.362	424.22
507.795	414.86
508.227	412.52
508.66	358.69
509.092	372.73
509.524	400.82
509.956	358.69
510.389	384.43
510.821	372.73
511.253	398.48
511.685	351.67
512.117	386.77
512.549	464.01
512.981	417.2
513.412	442.95
513.844	339.96
514.276	433.58
514.707	391.45
515.139	461.67
515.571	372.73
516.002	382.09
516.433	325.92
516.865	379.75
517.296	400.82
517.727	379.75
518.159	412.52
518.59	398.48
519.021	391.45
519.452	403.16
519.883	382.09
520.314	431.24
520.744	410.18
521.175	407.84
521.606	398.48
522.037	375.07
522.467	356.35
522.898	421.88
523.328	410.18
523.759	475.71
524.189	426.56
524.62	403.16
525.05	435.92
525.48	375.07
525.91	454.65
526.341	405.5
526.771	421.88
527.201	396.14
527.631	407.84
528.061	377.41
528.49	368.05
528.92	384.43
529.35	424.22
529.78	447.63
530.209	428.9
530.639	377.41
531.068	389.11
531.498	382.09
531.927	426.56
532.357	417.2
532.786	391.45
533.215	438.27
533.644	398.48
534.074	447.63
534.503	461.67
534.932	370.39
535.361	473.37
535.79	447.63
536.218	393.8
536.647	419.54
537.076	438.27
537.505	424.22
537.933	393.8
538.362	473.37
538.79	421.88
539.219	501.46
539.647	382.09
540.076	524.87
540.504	574.02
540.932	524.87
541.36	681.68
541.788	646.57
542.217	693.38
542.645	667.64
543.073	712.11
543.5	730.83
543.928	707.43
544.356	796.37
544.784	677
545.211	791.69
545.639	669.98
546.067	770.62
546.494	637.21
546.922	583.38
547.349	531.89
547.776	536.57
548.204	499.12
548.631	520.18
549.058	555.29
549.485	543.59
549.912	503.8
550.339	513.16
550.766	466.35
551.193	489.76
551.62	515.5
552.047	464.01
552.474	403.16
552.9	421.88
553.327	447.63
553.754	431.24
554.18	452.31
554.607	412.52
555.033	351.67
555.459	515.5
555.886	417.2
556.312	456.99
556.738	417.2
557.164	358.69
557.59	440.61
558.016	424.22
558.442	431.24
558.868	396.14
559.294	480.39
559.72	389.11
560.145	485.08
560.571	445.29
560.997	438.27
561.422	386.77
561.848	414.86
562.273	412.52
562.699	499.12
563.124	421.88
563.549	433.58
563.974	475.71
564.4	435.92
564.825	368.05
565.25	435.92
565.675	414.86
566.1	379.75
566.525	391.45
566.95	447.63
567.374	428.9
567.799	405.5
568.224	452.31
568.648	356.35
569.073	492.1
569.497	370.39
569.922	391.45
570.346	414.86
570.771	398.48
571.195	391.45
571.619	382.09
572.043	403.16
572.467	414.86
572.891	396.14
573.315	426.56
573.739	435.92
574.163	412.52
574.587	442.95
575.011	494.44
575.435	410.18
575.858	377.41
576.282	435.92
576.705	386.77
577.129	417.2
577.552	464.01
577.976	400.82
578.399	363.37
578.822	438.27
579.245	485.08
579.669	428.9
580.092	356.35
580.515	478.05
580.938	426.56
581.361	445.29
581.784	464.01
582.206	435.92
582.629	510.82
583.052	559.97
583.474	517.84
583.897	466.35
584.32	471.03
584.742	447.63
585.165	384.43
585.587	396.14
586.009	464.01
586.431	456.99
586.854	421.88
587.276	510.82
587.698	424.22
588.12	414.86
588.542	431.24
588.964	487.42
589.386	428.9
589.807	391.45
590.229	424.22
590.651	482.74
591.073	454.65
591.494	421.88
591.916	506.14
592.337	424.22
592.759	400.82
593.18	461.67
593.601	435.92
594.022	417.2
594.444	382.09
594.865	412.52
595.286	368.05
595.707	335.28
596.128	424.22
596.549	356.35
596.97	332.94
597.39	386.77
597.811	426.56
598.232	424.22
598.652	379.75
599.073	410.18
599.494	424.22
599.914	424.22
600.334	452.31
600.755	386.77
601.175	304.85
601.595	438.27
602.015	363.37
602.436	396.14
602.856	466.35
603.276	396.14
603.696	445.29
604.115	389.11
604.535	428.9
604.955	365.71
605.375	330.6
605.794	424.22
606.214	414.86
606.634	337.62
607.053	398.48
607.473	428.9
607.892	391.45
608.311	405.5
608.731	459.33
609.15	456.99
609.569	520.18
609.988	627.85
610.407	728.49
610.826	801.05
611.245	810.41
611.664	784.66
612.083	768.28
612.501	595.08
612.92	681.68
613.339	602.1
613.757	576.36
614.176	529.55
614.594	550.61
615.013	510.82
615.431	368.05
615.85	433.58
616.268	382.09
616.686	454.65
617.104	419.54
617.522	428.9
617.94	447.63
618.358	365.71
618.776	447.63
619.194	431.24
619.612	403.16
620.03	421.88
620.447	389.11
620.865	375.07
621.282	361.03
621.7	412.52
622.117	459.33
622.535	358.69
622.952	309.54
623.369	461.67
623.787	435.92
624.204	393.8
624.621	382.09
625.038	351.67
625.455	396.14
625.872	466.35
626.289	398.48
626.706	384.43
627.123	386.77
627.539	335.28
627.956	356.35
628.373	372.73
628.789	346.98
629.206	382.09
629.622	370.39
630.038	393.8
630.455	379.75
630.871	445.29
631.287	346.98
631.703	382.09
632.12	356.35
632.536	386.77
632.952	307.2
633.368	356.35
633.783	286.13
634.199	365.71
634.615	396.14
635.031	384.43
635.446	346.98
635.862	377.41
636.277	323.58
636.693	368.05
637.108	375.07
637.524	389.11
637.939	354.01
638.354	335.28
638.77	424.22
639.185	356.35
639.6	396.14
640.015	393.8
640.43	384.43
640.845	358.69
641.259	351.67
641.674	339.96
642.089	318.9
642.504	328.26
642.918	382.09
643.333	269.75
643.747	321.24
644.162	342.3
644.576	375.07
644.991	356.35
645.405	332.94
645.819	293.15
646.233	283.79
646.647	346.98
647.061	351.67
647.475	344.64
647.889	363.37
648.303	344.64
648.717	407.84
649.131	396.14
649.545	281.45
649.958	403.16
650.372	370.39
650.785	311.88
651.199	358.69
651.612	426.56
652.026	351.67
652.439	354.01
652.852	283.79
653.266	368.05
653.679	297.83
654.092	368.05
654.505	328.26
654.918	349.32
655.331	349.32
655.744	361.03
656.156	363.37
656.569	323.58
656.982	354.01
657.394	368.05
657.807	321.24
658.22	351.67
658.632	363.37
659.044	314.22
659.457	363.37
659.869	330.6
660.281	368.05
660.693	356.35
661.106	354.01
661.518	323.58
661.93	391.45
662.342	325.92
662.754	262.73
663.165	290.81
663.577	358.69
663.989	304.85
664.401	365.71
664.812	304.85
665.224	342.3
665.635	354.01
666.047	330.6
666.458	332.94
666.869	354.01
667.281	377.41
667.692	295.49
668.103	335.28
668.514	302.51
668.925	314.22
669.336	354.01
669.747	335.28
670.158	370.39
670.569	372.73
670.979	335.28
671.39	393.8
671.801	379.75
672.211	316.56
672.622	417.2
673.032	417.2
673.443	300.17
673.853	288.47
674.263	337.62
674.674	335.28
675.084	325.92
675.494	337.62
675.904	300.17
676.314	337.62
676.724	356.35
677.134	365.71
677.544	346.98
677.953	337.62
678.363	384.43
678.773	398.48
679.182	365.71
679.592	328.26
680.001	346.98
680.411	286.13
680.82	321.24
681.23	281.45
681.639	276.77
682.048	318.9
682.457	279.11
682.866	368.05
683.275	323.58
683.684	372.73
684.093	346.98
684.502	290.81
684.911	260.38
685.32	354.01
685.728	365.71
686.137	328.26
686.546	337.62
686.954	309.54
687.363	346.98
687.771	389.11
688.179	318.9
688.588	281.45
688.996	258.04
689.404	304.85
689.812	368.05
690.22	384.43
690.628	272.09
691.036	339.96
691.444	372.73
691.852	363.37
692.26	379.75
692.667	337.62
693.075	358.69
693.483	323.58
693.89	309.54
694.298	344.64
694.705	384.43
695.112	354.01
695.52	391.45
695.927	356.35
696.334	356.35
696.741	314.22
697.148	337.62
697.555	281.45
697.962	318.9
698.369	332.94
698.776	368.05
699.183	304.85
699.59	295.49
699.996	328.26
700.403	410.18
700.81	363.37
701.216	354.01
701.623	344.64
702.029	351.67
702.435	346.98
702.842	337.62
703.248	361.03
703.654	379.75
704.06	447.63
704.466	337.62
704.872	309.54
705.278	279.11
705.684	358.69
706.09	300.17
706.496	365.71
706.901	332.94
707.307	304.85
707.712	339.96
708.118	379.75
708.523	403.16
708.929	321.24
709.334	339.96
709.74	330.6
710.145	316.56
710.55	318.9
710.955	349.32
711.36	325.92
711.765	279.11
712.17	337.62
712.575	361.03
712.98	1065.53
713.385	323.58
713.789	304.85
714.194	346.98
714.599	311.88
715.003	300.17
715.408	363.37
715.812	335.28
716.217	370.39
716.621	330.6
717.025	300.17
717.429	332.94
717.833	318.9
718.238	335.28
718.642	339.96
719.046	314.22
719.449	321.24
719.853	356.35
720.257	356.35
720.661	344.64
721.065	330.6
721.468	377.41
721.872	356.35
722.275	323.58
722.679	393.8
723.082	279.11
723.485	344.64
723.889	323.58
724.292	372.73
724.695	370.39
725.098	370.39
725.501	351.67
725.904	372.73
726.307	365.71
726.71	396.14
727.113	288.47
727.516	251.02
727.918	342.3
728.321	342.3
728.724	368.05
729.126	351.67
729.529	370.39
729.931	377.41
730.333	433.58
730.736	316.56
731.138	372.73
731.54	311.88
731.942	372.73
732.344	377.41
732.746	267.41
733.148	300.17
733.55	321.24
733.952	262.73
734.354	330.6
734.756	311.88
735.157	389.11
735.559	279.11
735.96	356.35
736.362	325.92
736.763	363.37
737.165	293.15
737.566	276.77
737.967	328.26
738.368	337.62
738.77	393.8
739.171	382.09
739.572	293.15
739.973	351.67
740.374	290.81
740.774	253.36
741.175	323.58
741.576	307.2
741.977	344.64
742.377	300.17
742.778	286.13
743.178	330.6
743.579	225.28
743.979	332.94
744.379	323.58
744.78	358.69
745.18	358.69
745.58	346.98
745.98	311.88
746.38	386.77
746.78	307.2
747.18	349.32
747.58	314.22
747.98	344.64
748.38	349.32
748.779	304.85
749.179	279.11
749.578	293.15
749.978	309.54
750.377	354.01
750.777	316.56
751.176	276.77
751.575	293.15
751.975	323.58
752.374	309.54
752.773	328.26
753.172	325.92
753.571	358.69
753.97	307.2
754.369	370.39
754.768	290.81
755.166	272.09
755.565	251.02
755.964	337.62
756.362	325.92
756.761	328.26
757.159	384.43
757.558	384.43
757.956	262.73
758.354	375.07
758.753	342.3
759.151	309.54
759.549	304.85
759.947	304.85
760.345	351.67
760.743	321.24
761.141	361.03
761.539	302.51
761.936	321.24
762.334	377.41
762.732	372.73
763.129	293.15
763.527	293.15
763.924	297.83
764.322	321.24
764.719	318.9
765.117	307.2
