Data from Al_FLMS009871__66__11-45-34-499.txt Node

Date: Fri Mar 08 11:45:34 CST 2024
User: pe5414po
Spectrometer: FLMS00987
Trigger mode: 0
Integration Time (sec): 1.000000E-1
Scans to average: 1
Electric dark correction enabled: true
Nonlinearity correction enabled: false
Boxcar width: 0
XAxis mode: Wavelengths
Number of Pixels in Spectrum: 2048
>>>>>Begin Spectral Data<<<<<
188.938	-53.83
189.409	-53.83
189.879	-53.83
190.349	-102.98
190.819	-133.41
191.29	-86.6
191.76	-117.03
192.23	-58.51
192.7	-65.54
193.17	-84.26
193.64	-84.26
194.109	16.38
194.579	-32.77
195.049	60.85
195.519	37.45
195.988	14.04
196.458	51.49
196.927	114.69
197.397	63.19
197.866	74.9
198.336	95.96
198.805	189.58
199.274	138.09
199.744	149.79
200.213	187.24
200.682	180.22
201.151	175.54
201.62	257.46
202.089	238.73
202.558	205.97
203.027	259.8
203.495	257.46
203.964	269.16
204.433	269.16
204.902	313.63
205.37	313.63
205.839	306.61
206.307	308.95
206.776	318.31
207.244	292.57
207.712	311.29
208.181	351.08
208.649	280.86
209.117	341.72
209.585	325.33
210.053	311.29
210.521	311.29
210.989	294.91
211.457	278.52
211.925	304.27
212.393	269.16
212.861	353.42
213.328	320.65
213.796	280.86
214.264	334.7
214.731	337.04
215.199	280.86
215.666	264.48
216.133	271.5
216.601	276.18
217.068	322.99
217.535	257.46
218.003	264.48
218.47	220.01
218.937	217.67
219.404	212.99
219.871	236.39
220.338	264.48
220.805	241.08
221.271	264.48
221.738	313.63
222.205	231.71
222.671	198.95
223.138	280.86
223.605	306.61
224.071	297.25
224.538	271.5
225.004	292.57
225.47	290.23
225.937	248.1
226.403	290.23
226.869	257.46
227.335	297.25
227.801	238.73
228.267	241.08
228.733	187.24
229.199	250.44
229.665	285.55
230.131	278.52
230.597	243.42
231.062	271.5
231.528	271.5
231.994	259.8
232.459	308.95
232.925	262.14
233.39	351.08
233.856	262.14
234.321	322.99
234.786	318.31
235.252	248.1
235.717	315.97
236.182	210.65
236.647	255.12
237.112	285.55
237.577	255.12
238.042	257.46
238.507	255.12
238.972	297.25
239.436	311.29
239.901	330.02
240.366	278.52
240.83	287.89
241.295	257.46
241.76	334.7
242.224	259.8
242.688	234.05
243.153	262.14
243.617	292.57
244.081	290.23
244.545	313.63
245.01	285.55
245.474	238.73
245.938	283.2
246.402	332.36
246.866	287.89
247.33	283.2
247.793	344.06
248.257	278.52
248.721	315.97
249.185	276.18
249.648	287.89
250.112	365.12
250.575	290.23
251.039	257.46
251.502	231.71
251.965	327.67
252.429	318.31
252.892	322.99
253.355	250.44
253.818	341.72
254.281	355.76
254.744	332.36
255.207	269.16
255.67	276.18
256.133	306.61
256.596	290.23
257.059	292.57
257.522	346.4
257.984	339.38
258.447	262.14
258.909	341.72
259.372	330.02
259.834	280.86
260.297	306.61
260.759	351.08
261.221	264.48
261.684	325.33
262.146	252.78
262.608	276.18
263.07	283.2
263.532	315.97
263.994	304.27
264.456	304.27
264.918	283.2
265.38	339.38
265.842	266.82
266.303	320.65
266.765	269.16
267.227	306.61
267.688	306.61
268.15	320.65
268.611	339.38
269.072	313.63
269.534	271.5
269.995	290.23
270.456	264.48
270.918	372.15
271.379	283.2
271.84	308.95
272.301	266.82
272.762	344.06
273.223	285.55
273.684	315.97
274.144	262.14
274.605	315.97
275.066	238.73
275.527	315.97
275.987	271.5
276.448	280.86
276.908	322.99
277.369	273.84
277.829	322.99
278.289	369.8
278.75	341.72
279.21	283.2
279.67	358.1
280.13	236.39
280.59	372.15
281.05	297.25
281.51	320.65
281.97	358.1
282.43	292.57
282.89	276.18
283.35	360.44
283.809	301.93
284.269	287.89
284.729	292.57
285.188	283.2
285.648	390.87
286.107	315.97
286.567	294.91
287.026	301.93
287.485	283.2
287.944	294.91
288.404	355.76
288.863	278.52
289.322	306.61
289.781	287.89
290.24	269.16
290.699	322.99
291.158	351.08
291.616	290.23
292.075	266.82
292.534	360.44
292.992	269.16
293.451	241.08
293.91	290.23
294.368	348.74
294.827	278.52
295.285	337.04
295.743	252.78
296.202	257.46
296.66	315.97
297.118	313.63
297.576	294.91
298.034	346.4
298.492	264.48
298.95	257.46
299.408	320.65
299.866	325.33
300.324	234.05
300.781	367.46
301.239	320.65
301.697	222.35
302.154	308.95
302.612	308.95
303.069	344.06
303.527	330.02
303.984	332.36
304.441	294.91
304.899	290.23
305.356	346.4
305.813	311.29
306.27	395.55
306.727	297.25
307.184	304.27
307.641	262.14
308.098	278.52
308.555	287.89
309.012	299.59
309.468	311.29
309.925	351.08
310.382	304.27
310.838	318.31
311.295	276.18
311.751	269.16
312.208	273.84
312.664	264.48
313.12	299.59
313.577	292.57
314.033	276.18
314.489	311.29
314.945	283.2
315.401	248.1
315.857	334.7
316.313	330.02
316.769	231.71
317.225	353.42
317.681	348.74
318.136	383.85
318.592	311.29
319.048	365.12
319.503	322.99
319.959	367.46
320.414	285.55
320.869	273.84
321.325	252.78
321.78	367.46
322.235	311.29
322.691	325.33
323.146	306.61
323.601	290.23
324.056	269.16
324.511	320.65
324.966	271.5
325.421	318.31
325.875	322.99
326.33	318.31
326.785	330.02
327.24	327.67
327.694	224.69
328.149	278.52
328.603	313.63
329.058	320.65
329.512	294.91
329.966	327.67
330.421	238.73
330.875	344.06
331.329	348.74
331.783	287.89
332.237	327.67
332.691	344.06
333.145	332.36
333.599	283.2
334.053	318.31
334.507	341.72
334.96	346.4
335.414	334.7
335.868	353.42
336.321	299.59
336.775	320.65
337.228	313.63
337.682	271.5
338.135	238.73
338.588	397.89
339.042	255.12
339.495	264.48
339.948	322.99
340.401	334.7
340.854	292.57
341.307	264.48
341.76	348.74
342.213	381.51
342.666	332.36
343.119	348.74
343.571	339.38
344.024	344.06
344.477	327.67
344.929	339.38
345.382	250.44
345.834	330.02
346.287	374.49
346.739	332.36
347.191	301.93
347.644	337.04
348.096	362.78
348.548	299.59
349	311.29
349.452	334.7
349.904	308.95
350.356	379.17
350.808	290.23
351.26	269.16
351.711	276.18
352.163	322.99
352.615	297.25
353.066	337.04
353.518	294.91
353.969	283.2
354.421	348.74
354.872	299.59
355.324	374.49
355.775	283.2
356.226	330.02
356.677	367.46
357.128	299.59
357.579	308.95
358.03	264.48
358.481	320.65
358.932	320.65
359.383	337.04
359.834	337.04
360.285	269.16
360.735	344.06
361.186	325.33
361.637	355.76
362.087	332.36
362.538	290.23
362.988	322.99
363.438	308.95
363.889	304.27
364.339	358.1
364.789	313.63
365.239	301.93
365.689	299.59
366.139	376.83
366.589	255.12
367.039	273.84
367.489	311.29
367.939	299.59
368.389	311.29
368.839	292.57
369.288	358.1
369.738	414.27
370.187	322.99
370.637	315.97
371.086	315.97
371.536	344.06
371.985	339.38
372.434	315.97
372.884	388.53
373.333	266.82
373.782	257.46
374.231	334.7
374.68	322.99
375.129	315.97
375.578	292.57
376.027	259.8
376.475	346.4
376.924	358.1
377.373	374.49
377.822	320.65
378.27	243.42
378.719	337.04
379.167	358.1
379.616	290.23
380.064	353.42
380.512	294.91
380.961	341.72
381.409	311.29
381.857	313.63
382.305	327.67
382.753	292.57
383.201	353.42
383.649	301.93
384.097	348.74
384.545	262.14
384.992	311.29
385.44	407.25
385.888	301.93
386.335	325.33
386.783	327.67
387.231	306.61
387.678	311.29
388.125	255.12
388.573	337.04
389.02	393.21
389.467	299.59
389.914	344.06
390.362	362.78
390.809	294.91
391.256	360.44
391.703	402.57
392.15	351.08
392.596	355.76
393.043	348.74
393.49	320.65
393.937	327.67
394.383	287.89
394.83	337.04
395.276	400.23
395.723	208.31
396.169	304.27
396.616	379.17
397.062	322.99
397.508	341.72
397.954	311.29
398.401	278.52
398.847	320.65
399.293	367.46
399.739	269.16
400.185	362.78
400.631	341.72
401.076	255.12
401.522	306.61
401.968	308.95
402.414	322.99
402.859	330.02
403.305	315.97
403.75	299.59
404.196	313.63
404.641	311.29
405.086	297.25
405.532	257.46
405.977	369.8
406.422	376.83
406.867	362.78
407.312	318.31
407.757	297.25
408.202	311.29
408.647	325.33
409.092	308.95
409.537	337.04
409.982	285.55
410.426	297.25
410.871	304.27
411.316	299.59
411.76	313.63
412.205	344.06
412.649	379.17
413.093	315.97
413.538	294.91
413.982	353.42
414.426	304.27
414.87	353.42
415.314	337.04
415.758	315.97
416.202	341.72
416.646	367.46
417.09	341.72
417.534	397.89
417.978	313.63
418.421	344.06
418.865	278.52
419.309	330.02
419.752	301.93
420.196	287.89
420.639	322.99
421.083	407.25
421.526	339.38
421.969	330.02
422.412	322.99
422.856	386.19
423.299	320.65
423.742	311.29
424.185	330.02
424.628	358.1
425.071	334.7
425.513	358.1
425.956	358.1
426.399	320.65
426.842	386.19
427.284	411.93
427.727	325.33
428.169	367.46
428.612	320.65
429.054	428.32
429.497	407.25
429.939	337.04
430.381	390.87
430.823	278.52
431.265	388.53
431.707	362.78
432.149	383.85
432.591	374.49
433.033	365.12
433.475	325.33
433.917	449.38
434.359	383.85
434.8	472.79
435.242	561.73
435.684	468.11
436.125	454.06
436.567	496.19
437.008	423.64
437.449	454.06
437.891	421.3
438.332	442.36
438.773	440.02
439.214	484.49
439.656	395.55
440.097	449.38
440.538	498.53
440.978	397.89
441.419	440.02
441.86	456.4
442.301	397.89
442.742	475.13
443.182	456.4
443.623	421.3
444.063	421.3
444.504	414.27
444.944	486.83
445.385	496.19
445.825	468.11
446.265	411.93
446.706	470.45
447.146	524.28
447.586	477.47
448.026	458.74
448.466	500.87
448.906	484.49
449.346	430.66
449.786	524.28
450.225	482.15
450.665	493.85
451.105	440.02
451.544	500.87
451.984	440.02
452.424	456.4
452.863	440.02
453.302	397.89
453.742	512.58
454.181	491.51
454.62	468.11
455.059	449.38
455.499	470.45
455.938	402.57
456.377	442.36
456.816	449.38
457.254	421.3
457.693	451.72
458.132	500.87
458.571	390.87
459.01	430.66
459.448	407.25
459.887	386.19
460.325	428.32
460.764	430.66
461.202	468.11
461.641	390.87
462.079	437.68
462.517	482.15
462.955	425.98
463.393	430.66
463.832	435.34
464.27	425.98
464.708	428.32
465.145	390.87
465.583	346.4
466.021	461.09
466.459	376.83
466.897	402.57
467.334	440.02
467.772	435.34
468.209	372.15
468.647	414.27
469.084	393.21
469.522	360.44
469.959	315.97
470.396	397.89
470.833	395.55
471.271	393.21
471.708	334.7
472.145	360.44
472.582	414.27
473.019	325.33
473.456	346.4
473.892	355.76
474.329	390.87
474.766	367.46
475.202	332.36
475.639	388.53
476.076	416.62
476.512	421.3
476.949	358.1
477.385	334.7
477.821	390.87
478.258	358.1
478.694	416.62
479.13	367.46
479.566	369.8
480.002	360.44
480.438	418.96
480.874	344.06
481.31	404.91
481.746	390.87
482.181	423.64
482.617	393.21
483.053	397.89
483.488	376.83
483.924	449.38
484.36	386.19
484.795	444.7
485.23	451.72
485.666	475.13
486.101	454.06
486.536	400.23
486.971	451.72
487.407	362.78
487.842	449.38
488.277	423.64
488.712	407.25
489.146	409.59
489.581	440.02
490.016	397.89
490.451	433
490.885	484.49
491.32	449.38
491.755	397.89
492.189	433
492.624	348.74
493.058	411.93
493.492	449.38
493.927	390.87
494.361	400.23
494.795	423.64
495.229	388.53
495.663	458.74
496.097	369.8
496.531	397.89
496.965	461.09
497.399	390.87
497.833	440.02
498.266	433
498.7	381.51
499.134	442.36
499.567	374.49
500.001	407.25
500.434	269.16
500.868	435.34
501.301	325.33
501.734	435.34
502.168	339.38
502.601	379.17
503.034	358.1
503.467	435.34
503.9	381.51
504.333	339.38
504.766	367.46
505.199	437.68
505.632	418.96
506.064	393.21
506.497	386.19
506.93	395.55
507.362	425.98
507.795	383.85
508.227	430.66
508.66	376.83
509.092	414.27
509.524	404.91
509.956	379.17
510.389	416.62
510.821	376.83
511.253	348.74
511.685	409.59
512.117	433
512.549	381.51
512.981	372.15
513.412	386.19
513.844	355.76
514.276	409.59
514.707	449.38
515.139	407.25
515.571	433
516.002	425.98
516.433	369.8
516.865	407.25
517.296	386.19
517.727	386.19
518.159	437.68
518.59	423.64
519.021	461.09
519.452	400.23
519.883	418.96
520.314	421.3
520.744	484.49
521.175	470.45
521.606	383.85
522.037	379.17
522.467	374.49
522.898	393.21
523.328	409.59
523.759	486.83
524.189	423.64
524.62	416.62
525.05	425.98
525.48	435.34
525.91	449.38
526.341	400.23
526.771	418.96
527.201	475.13
527.631	461.09
528.061	402.57
528.49	440.02
528.92	393.21
529.35	454.06
529.78	358.1
530.209	421.3
530.639	435.34
531.068	421.3
531.498	395.55
531.927	423.64
532.357	411.93
532.786	386.19
533.215	411.93
533.644	404.91
534.074	461.09
534.503	379.17
534.932	465.77
535.361	463.43
535.79	423.64
536.218	433
536.647	390.87
537.076	416.62
537.505	418.96
537.933	437.68
538.362	404.91
538.79	379.17
539.219	507.9
539.647	543
540.076	477.47
540.504	498.53
540.932	582.79
541.36	643.65
541.788	711.52
542.217	683.44
542.645	760.67
543.073	732.59
543.5	692.8
543.928	678.76
544.356	763.01
544.784	718.54
545.211	709.18
545.639	678.76
546.067	704.5
546.494	568.75
546.922	519.6
547.349	580.45
547.776	568.75
548.204	517.26
548.631	519.6
549.058	545.34
549.485	491.51
549.912	533.64
550.339	507.9
550.766	503.22
551.193	470.45
551.62	489.17
552.047	425.98
552.474	489.17
552.9	430.66
553.327	437.68
553.754	390.87
554.18	400.23
554.607	451.72
555.033	477.47
555.459	463.43
555.886	421.3
556.312	411.93
556.738	404.91
557.164	402.57
557.59	400.23
558.016	351.08
558.442	416.62
558.868	372.15
559.294	407.25
559.72	430.66
560.145	367.46
560.571	376.83
560.997	411.93
561.422	451.72
561.848	355.76
562.273	395.55
562.699	442.36
563.124	444.7
563.549	437.68
563.974	435.34
564.4	437.68
564.825	386.19
565.25	423.64
565.675	393.21
566.1	362.78
566.525	430.66
566.95	437.68
567.374	400.23
567.799	388.53
568.224	402.57
568.648	318.31
569.073	369.8
569.497	397.89
569.922	390.87
570.346	402.57
570.771	374.49
571.195	451.72
571.619	414.27
572.043	421.3
572.467	454.06
572.891	369.8
573.315	437.68
573.739	442.36
574.163	397.89
574.587	390.87
575.011	315.97
575.435	369.8
575.858	423.64
576.282	465.77
576.705	337.04
577.129	397.89
577.552	381.51
577.976	456.4
578.399	411.93
578.822	454.06
579.245	428.32
579.669	444.7
580.092	369.8
580.515	360.44
580.938	451.72
581.361	468.11
581.784	456.4
582.206	475.13
582.629	409.59
583.052	484.49
583.474	486.83
583.897	449.38
584.32	454.06
584.742	514.92
585.165	416.62
585.587	468.11
586.009	454.06
586.431	465.77
586.854	383.85
587.276	447.04
587.698	482.15
588.12	433
588.542	505.56
588.964	397.89
589.386	440.02
589.807	376.83
590.229	409.59
590.651	463.43
591.073	423.64
591.494	444.7
591.916	428.32
592.337	430.66
592.759	418.96
593.18	418.96
593.601	423.64
594.022	430.66
594.444	425.98
594.865	416.62
595.286	463.43
595.707	367.46
596.128	440.02
596.549	386.19
596.97	442.36
597.39	404.91
597.811	362.78
598.232	411.93
598.652	451.72
599.073	433
599.494	433
599.914	435.34
600.334	421.3
600.755	386.19
601.175	348.74
601.595	451.72
602.015	395.55
602.436	355.76
602.856	545.34
603.276	372.15
603.696	311.29
604.115	400.23
604.535	369.8
604.955	437.68
605.375	407.25
605.794	334.7
606.214	374.49
606.634	358.1
607.053	416.62
607.473	433
607.892	449.38
608.311	407.25
608.731	442.36
609.15	531.3
609.569	545.34
609.988	674.07
610.407	765.36
610.826	760.67
611.245	711.52
611.664	751.31
612.083	748.97
612.501	613.22
612.92	554.71
613.339	538.32
613.757	517.26
614.176	510.24
614.594	498.53
615.013	507.9
615.431	493.85
615.85	390.87
616.268	461.09
616.686	461.09
617.104	423.64
617.522	449.38
617.94	402.57
618.358	353.42
618.776	400.23
619.194	367.46
619.612	449.38
620.03	440.02
620.447	365.12
620.865	425.98
621.282	442.36
621.7	407.25
622.117	393.21
622.535	351.08
622.952	437.68
623.369	362.78
623.787	409.59
624.204	346.4
624.621	442.36
625.038	416.62
625.455	346.4
625.872	407.25
626.289	351.08
626.706	376.83
627.123	498.53
627.539	351.08
627.956	353.42
628.373	330.02
628.789	372.15
629.206	372.15
629.622	386.19
630.038	360.44
630.455	376.83
630.871	416.62
631.287	379.17
631.703	418.96
632.12	311.29
632.536	353.42
632.952	358.1
633.368	390.87
633.783	360.44
634.199	301.93
634.615	290.23
635.031	362.78
635.446	318.31
635.862	273.84
636.277	381.51
636.693	374.49
637.108	322.99
637.524	337.04
637.939	367.46
638.354	262.14
638.77	299.59
639.185	423.64
639.6	388.53
640.015	362.78
640.43	308.95
640.845	351.08
641.259	362.78
641.674	358.1
642.089	341.72
642.504	351.08
642.918	236.39
643.333	337.04
643.747	390.87
644.162	348.74
644.576	367.46
644.991	330.02
645.405	346.4
645.819	327.67
646.233	334.7
646.647	334.7
647.061	348.74
647.475	304.27
647.889	365.12
648.303	346.4
648.717	304.27
649.131	325.33
649.545	395.55
649.958	327.67
650.372	346.4
650.785	348.74
651.199	374.49
651.612	330.02
652.026	393.21
652.439	351.08
652.852	273.84
653.266	299.59
653.679	404.91
654.092	379.17
654.505	273.84
654.918	367.46
655.331	313.63
655.744	306.61
656.156	367.46
656.569	358.1
656.982	306.61
657.394	311.29
657.807	365.12
658.22	362.78
658.632	301.93
659.044	322.99
659.457	334.7
659.869	327.67
660.281	299.59
660.693	283.2
661.106	320.65
661.518	294.91
661.93	337.04
662.342	337.04
662.754	306.61
663.165	362.78
663.577	330.02
663.989	346.4
664.401	393.21
664.812	369.8
665.224	299.59
665.635	325.33
666.047	280.86
666.458	327.67
666.869	348.74
667.281	355.76
667.692	365.12
668.103	285.55
668.514	290.23
668.925	301.93
669.336	360.44
669.747	341.72
670.158	311.29
670.569	322.99
670.979	376.83
671.39	330.02
671.801	264.48
672.211	325.33
672.622	358.1
673.032	381.51
673.443	306.61
673.853	278.52
674.263	252.78
674.674	390.87
675.084	351.08
675.494	327.67
675.904	332.36
676.314	411.93
676.724	327.67
677.134	297.25
677.544	327.67
677.953	358.1
678.363	318.31
678.773	257.46
679.182	318.31
679.592	327.67
680.001	372.15
680.411	308.95
680.82	306.61
681.23	322.99
681.639	393.21
682.048	276.18
682.457	290.23
682.866	304.27
683.275	287.89
683.684	308.95
684.093	311.29
684.502	308.95
684.911	376.83
685.32	341.72
685.728	374.49
686.137	358.1
686.546	290.23
686.954	320.65
687.363	325.33
687.771	369.8
688.179	292.57
688.588	318.31
688.996	358.1
689.404	271.5
689.812	381.51
690.22	358.1
690.628	290.23
691.036	301.93
691.444	322.99
691.852	304.27
692.26	320.65
692.667	290.23
693.075	372.15
693.483	325.33
693.89	311.29
694.298	344.06
694.705	355.76
695.112	299.59
695.52	304.27
695.927	339.38
696.334	313.63
696.741	351.08
697.148	355.76
697.555	353.42
697.962	362.78
698.369	320.65
698.776	353.42
699.183	337.04
699.59	346.4
699.996	322.99
700.403	315.97
700.81	332.36
701.216	383.85
701.623	322.99
702.029	292.57
702.435	313.63
702.842	367.46
703.248	308.95
703.654	287.89
704.06	330.02
704.466	320.65
704.872	348.74
705.278	369.8
705.684	280.86
706.09	348.74
706.496	311.29
706.901	320.65
707.307	348.74
707.712	393.21
708.118	372.15
708.523	404.91
708.929	376.83
709.334	353.42
709.74	322.99
710.145	369.8
710.55	311.29
710.955	390.87
711.36	397.89
711.765	353.42
712.17	404.91
712.575	376.83
712.98	1039.2
713.385	386.19
713.789	360.44
714.194	315.97
714.599	311.29
715.003	290.23
715.408	381.51
715.812	358.1
716.217	327.67
716.621	320.65
717.025	351.08
717.429	327.67
717.833	339.38
718.238	346.4
718.642	278.52
719.046	297.25
719.449	248.1
719.853	320.65
720.257	337.04
720.661	379.17
721.065	285.55
721.468	315.97
721.872	362.78
722.275	308.95
722.679	315.97
723.082	287.89
723.485	327.67
723.889	285.55
724.292	262.14
724.695	346.4
725.098	262.14
725.501	257.46
725.904	325.33
726.307	318.31
726.71	337.04
727.113	304.27
727.516	334.7
727.918	407.25
728.321	351.08
728.724	351.08
729.126	325.33
729.529	393.21
729.931	381.51
730.333	353.42
730.736	330.02
731.138	332.36
731.54	374.49
731.942	383.85
732.344	290.23
732.746	339.38
733.148	315.97
733.55	271.5
733.952	360.44
734.354	351.08
734.756	325.33
735.157	252.78
735.559	313.63
735.96	283.2
736.362	325.33
736.763	351.08
737.165	346.4
737.566	367.46
737.967	339.38
738.368	313.63
738.77	255.12
739.171	355.76
739.572	301.93
739.973	311.29
740.374	325.33
740.774	339.38
741.175	266.82
741.576	311.29
741.977	372.15
742.377	327.67
742.778	315.97
743.178	320.65
743.579	362.78
743.979	332.36
744.379	355.76
744.78	294.91
745.18	306.61
745.58	308.95
745.98	339.38
746.38	304.27
746.78	306.61
747.18	294.91
747.58	318.31
747.98	227.03
748.38	362.78
748.779	308.95
749.179	381.51
749.578	365.12
749.978	259.8
750.377	341.72
750.777	322.99
751.176	276.18
751.575	351.08
751.975	341.72
752.374	353.42
752.773	301.93
753.172	283.2
753.571	255.12
753.97	348.74
754.369	280.86
754.768	344.06
755.166	386.19
755.565	259.8
755.964	428.32
756.362	313.63
756.761	313.63
757.159	301.93
757.558	271.5
757.956	322.99
758.354	287.89
758.753	362.78
759.151	311.29
759.549	341.72
759.947	301.93
760.345	280.86
760.743	290.23
761.141	283.2
761.539	306.61
761.936	278.52
762.334	294.91
762.732	299.59
763.129	376.83
763.527	369.8
763.924	374.49
764.322	344.06
764.719	318.31
765.117	334.7
765.514	330.02
765.911	322.99
766.308	285.55
