Data from Al_FLMS009871__614__14-47-57-214.txt Node

Date: Fri Mar 08 14:47:57 CST 2024
User: pe5414po
Spectrometer: FLMS00987
Trigger mode: 0
Integration Time (sec): 1.000000E-1
Scans to average: 1
Electric dark correction enabled: true
Nonlinearity correction enabled: false
Boxcar width: 0
XAxis mode: Wavelengths
Number of Pixels in Spectrum: 2048
>>>>>Begin Spectral Data<<<<<
188.938	-92.89
189.409	-92.89
189.879	-92.89
190.349	-123.32
190.819	-104.59
191.29	-130.34
191.76	-95.23
192.23	-146.72
192.7	-46.08
193.17	-60.12
193.64	-8.63
194.109	-22.67
194.579	7.75
195.049	19.46
195.519	-43.74
195.988	24.14
196.458	82.65
196.927	89.67
197.397	122.44
197.866	120.1
198.336	87.33
198.805	155.21
199.274	213.72
199.744	178.61
200.213	253.51
200.682	176.27
201.151	255.85
201.62	276.91
202.089	234.78
202.558	192.66
203.027	328.41
203.495	209.04
203.964	293.3
204.433	276.91
204.902	246.49
205.37	281.6
205.839	269.89
206.307	293.3
206.776	307.34
207.244	307.34
207.712	305
208.181	300.32
208.649	279.26
209.117	267.55
209.585	300.32
210.053	283.94
210.521	295.64
210.989	262.87
211.457	180.95
211.925	314.36
212.393	316.7
212.861	279.26
213.328	267.55
213.796	312.02
214.264	316.7
214.731	267.55
215.199	281.6
215.666	265.21
216.133	227.76
216.601	225.42
217.068	279.26
217.535	262.87
218.003	279.26
218.47	326.07
218.937	253.51
219.404	206.7
219.871	290.96
220.338	248.83
220.805	290.96
221.271	309.68
221.738	319.04
222.205	253.51
222.671	288.62
223.138	295.64
223.605	244.15
224.071	333.09
224.538	262.87
225.004	244.15
225.47	274.57
225.937	286.28
226.403	260.53
226.869	300.32
227.335	230.1
227.801	274.57
228.267	279.26
228.733	337.77
229.199	290.96
229.665	288.62
230.131	344.79
230.597	267.55
231.062	262.87
231.528	290.96
231.994	333.09
232.459	234.78
232.925	279.26
233.39	276.91
233.856	290.96
234.321	274.57
234.786	230.1
235.252	290.96
235.717	297.98
236.182	258.19
236.647	279.26
237.112	237.13
237.577	319.04
238.042	230.1
238.507	260.53
238.972	276.91
239.436	302.66
239.901	281.6
240.366	326.07
240.83	333.09
241.295	316.7
241.76	335.43
242.224	272.23
242.688	262.87
243.153	269.89
243.617	319.04
244.081	234.78
244.545	239.47
245.01	356.49
245.474	244.15
245.938	258.19
246.402	281.6
246.866	260.53
247.33	258.19
247.793	258.19
248.257	265.21
248.721	351.81
249.185	239.47
249.648	288.62
250.112	269.89
250.575	209.04
251.039	279.26
251.502	288.62
251.965	281.6
252.429	286.28
252.892	335.43
253.355	356.49
253.818	300.32
254.281	309.68
254.744	218.4
255.207	234.78
255.67	253.51
256.133	262.87
256.596	253.51
257.059	223.08
257.522	290.96
257.984	276.91
258.447	276.91
258.909	234.78
259.372	272.23
259.834	239.47
260.297	274.57
260.759	251.17
261.221	272.23
261.684	300.32
262.146	255.85
262.608	265.21
263.07	272.23
263.532	281.6
263.994	295.64
264.456	288.62
264.918	293.3
265.38	262.87
265.842	290.96
266.303	274.57
266.765	309.68
267.227	279.26
267.688	290.96
268.15	295.64
268.611	274.57
269.072	300.32
269.534	248.83
269.995	356.49
270.456	293.3
270.918	269.89
271.379	230.1
271.84	293.3
272.301	267.55
272.762	274.57
273.223	262.87
273.684	283.94
274.144	269.89
274.605	251.17
275.066	265.21
275.527	239.47
275.987	288.62
276.448	309.68
276.908	281.6
277.369	279.26
277.829	368.2
278.289	295.64
278.75	295.64
279.21	319.04
279.67	300.32
280.13	302.66
280.59	283.94
281.05	349.47
281.51	305
281.97	319.04
282.43	321.38
282.89	307.34
283.35	265.21
283.809	307.34
284.269	305
284.729	354.15
285.188	328.41
285.648	293.3
286.107	328.41
286.567	321.38
287.026	276.91
287.485	272.23
287.944	283.94
288.404	342.45
288.863	302.66
289.322	302.66
289.781	305
290.24	316.7
290.699	293.3
291.158	321.38
291.616	344.79
292.075	321.38
292.534	328.41
292.992	330.75
293.451	274.57
293.91	314.36
294.368	349.47
294.827	295.64
295.285	297.98
295.743	260.53
296.202	297.98
296.66	302.66
297.118	354.15
297.576	262.87
298.034	300.32
298.492	290.96
298.95	265.21
299.408	290.96
299.866	281.6
300.324	267.55
300.781	319.04
301.239	288.62
301.697	337.77
302.154	300.32
302.612	246.49
303.069	295.64
303.527	272.23
303.984	286.28
304.441	281.6
304.899	326.07
305.356	312.02
305.813	276.91
306.27	312.02
306.727	342.45
307.184	319.04
307.641	297.98
308.098	330.75
308.555	288.62
309.012	246.49
309.468	300.32
309.925	290.96
310.382	335.43
310.838	281.6
311.295	344.79
311.751	314.36
312.208	309.68
312.664	258.19
313.12	323.73
313.577	290.96
314.033	279.26
314.489	314.36
314.945	316.7
315.401	288.62
315.857	295.64
316.313	305
316.769	307.34
317.225	370.54
317.681	305
318.136	307.34
318.592	288.62
319.048	286.28
319.503	321.38
319.959	316.7
320.414	267.55
320.869	347.13
321.325	326.07
321.78	283.94
322.235	290.96
322.691	283.94
323.146	290.96
323.601	309.68
324.056	330.75
324.511	272.23
324.966	344.79
325.421	328.41
325.875	290.96
326.33	321.38
326.785	309.68
327.24	309.68
327.694	319.04
328.149	281.6
328.603	302.66
329.058	337.77
329.512	286.28
329.966	290.96
330.421	300.32
330.875	302.66
331.329	272.23
331.783	382.24
332.237	309.68
332.691	258.19
333.145	265.21
333.599	309.68
334.053	300.32
334.507	309.68
334.96	326.07
335.414	330.75
335.868	225.42
336.321	258.19
336.775	281.6
337.228	319.04
337.682	330.75
338.135	347.13
338.588	330.75
339.042	356.49
339.495	267.55
339.948	302.66
340.401	262.87
340.854	335.43
341.307	328.41
341.76	316.7
342.213	312.02
342.666	351.81
343.119	305
343.571	300.32
344.024	323.73
344.477	302.66
344.929	297.98
345.382	312.02
345.834	300.32
346.287	302.66
346.739	209.04
347.191	309.68
347.644	335.43
348.096	300.32
348.548	340.11
349	283.94
349.452	361.17
349.904	347.13
350.356	272.23
350.808	321.38
351.26	321.38
351.711	297.98
352.163	305
352.615	258.19
353.066	302.66
353.518	321.38
353.969	309.68
354.421	279.26
354.872	307.34
355.324	335.43
355.775	312.02
356.226	370.54
356.677	309.68
357.128	328.41
357.579	323.73
358.03	293.3
358.481	368.2
358.932	295.64
359.383	323.73
359.834	312.02
360.285	349.47
360.735	335.43
361.186	340.11
361.637	297.98
362.087	279.26
362.538	279.26
362.988	305
363.438	260.53
363.889	351.81
364.339	323.73
364.789	342.45
365.239	344.79
365.689	267.55
366.139	312.02
366.589	307.34
367.039	349.47
367.489	290.96
367.939	358.83
368.389	349.47
368.839	328.41
369.288	307.34
369.738	272.23
370.187	335.43
370.637	321.38
371.086	290.96
371.536	305
371.985	290.96
372.434	295.64
372.884	349.47
373.333	328.41
373.782	330.75
374.231	309.68
374.68	274.57
375.129	321.38
375.578	225.42
376.027	307.34
376.475	319.04
376.924	288.62
377.373	330.75
377.822	333.09
378.27	300.32
378.719	300.32
379.167	342.45
379.616	368.2
380.064	269.89
380.512	295.64
380.961	337.77
381.409	330.75
381.857	302.66
382.305	351.81
382.753	307.34
383.201	272.23
383.649	316.7
384.097	265.21
384.545	283.94
384.992	300.32
385.44	262.87
385.888	342.45
386.335	302.66
386.783	316.7
387.231	333.09
387.678	267.55
388.125	307.34
388.573	302.66
389.02	253.51
389.467	312.02
389.914	297.98
390.362	319.04
390.809	340.11
391.256	314.36
391.703	372.88
392.15	314.36
392.596	370.54
393.043	274.57
393.49	274.57
393.937	305
394.383	321.38
394.83	307.34
395.276	340.11
395.723	344.79
396.169	312.02
396.616	307.34
397.062	347.13
397.508	335.43
397.954	365.85
398.401	326.07
398.847	295.64
399.293	323.73
399.739	258.19
400.185	347.13
400.631	300.32
401.076	330.75
401.522	335.43
401.968	279.26
402.414	337.77
402.859	323.73
403.305	297.98
403.75	337.77
404.196	309.68
404.641	342.45
405.086	251.17
405.532	333.09
405.977	258.19
406.422	361.17
406.867	251.17
407.312	333.09
407.757	297.98
408.202	326.07
408.647	312.02
409.092	258.19
409.537	302.66
409.982	286.28
410.426	314.36
410.871	279.26
411.316	344.79
411.76	326.07
412.205	302.66
412.649	293.3
413.093	262.87
413.538	328.41
413.982	342.45
414.426	330.75
414.87	344.79
415.314	361.17
415.758	319.04
416.202	312.02
416.646	321.38
417.09	309.68
417.534	293.3
417.978	281.6
418.421	269.89
418.865	386.92
419.309	295.64
419.752	382.24
420.196	375.22
420.639	305
421.083	302.66
421.526	377.56
421.969	379.9
422.412	351.81
422.856	297.98
423.299	377.56
423.742	344.79
424.185	293.3
424.628	307.34
425.071	375.22
425.513	302.66
425.956	267.55
426.399	288.62
426.842	300.32
427.284	300.32
427.727	349.47
428.169	372.88
428.612	347.13
429.054	323.73
429.497	290.96
429.939	293.3
430.381	281.6
430.823	305
431.265	312.02
431.707	262.87
432.149	316.7
432.591	286.28
433.033	297.98
433.475	330.75
433.917	370.54
434.359	361.17
434.8	307.34
435.242	328.41
435.684	340.11
436.125	307.34
436.567	330.75
437.008	370.54
437.449	426.71
437.891	316.7
438.332	300.32
438.773	335.43
439.214	354.15
439.656	330.75
440.097	333.09
440.538	305
440.978	290.96
441.419	319.04
441.86	312.02
442.301	382.24
442.742	335.43
443.182	407.98
443.623	319.04
444.063	321.38
444.504	333.09
444.944	305
445.385	307.34
445.825	328.41
446.265	302.66
446.706	297.98
447.146	293.3
447.586	295.64
448.026	314.36
448.466	283.94
448.906	337.77
449.346	312.02
449.786	274.57
450.225	302.66
450.665	302.66
451.105	342.45
451.544	326.07
451.984	307.34
452.424	279.26
452.863	326.07
453.302	335.43
453.742	333.09
454.181	328.41
454.62	305
455.059	305
455.499	295.64
455.938	260.53
456.377	365.85
456.816	340.11
457.254	316.7
457.693	349.47
458.132	328.41
458.571	370.54
459.01	382.24
459.448	356.49
459.887	302.66
460.325	356.49
460.764	279.26
461.202	323.73
461.641	361.17
462.079	293.3
462.517	384.58
462.955	319.04
463.393	293.3
463.832	297.98
464.27	330.75
464.708	300.32
465.145	314.36
465.583	349.47
466.021	314.36
466.459	307.34
466.897	309.68
467.334	293.3
467.772	283.94
468.209	283.94
468.647	286.28
469.084	356.49
469.522	297.98
469.959	344.79
470.396	269.89
470.833	410.33
471.271	314.36
471.708	267.55
472.145	379.9
472.582	258.19
473.019	319.04
473.456	363.51
473.892	312.02
474.329	340.11
474.766	321.38
475.202	281.6
475.639	342.45
476.076	312.02
476.512	349.47
476.949	251.17
477.385	379.9
477.821	265.21
478.258	354.15
478.694	312.02
479.13	342.45
479.566	312.02
480.002	372.88
480.438	290.96
480.874	330.75
481.31	358.83
481.746	330.75
482.181	328.41
482.617	351.81
483.053	321.38
483.488	363.51
483.924	283.94
484.36	286.28
484.795	293.3
485.23	307.34
485.666	337.77
486.101	293.3
486.536	358.83
486.971	354.15
487.407	319.04
487.842	319.04
488.277	335.43
488.712	335.43
489.146	286.28
489.581	305
490.016	351.81
490.451	253.51
490.885	286.28
491.32	302.66
491.755	293.3
492.189	326.07
492.624	225.42
493.058	335.43
493.492	335.43
493.927	344.79
494.361	286.28
494.795	248.83
495.229	267.55
495.663	337.77
496.097	286.28
496.531	279.26
496.965	312.02
497.399	358.83
497.833	328.41
498.266	354.15
498.7	295.64
499.134	340.11
499.567	358.83
500.001	305
500.434	290.96
500.868	307.34
501.301	274.57
501.734	312.02
502.168	283.94
502.601	220.74
503.034	309.68
503.467	297.98
503.9	330.75
504.333	358.83
504.766	265.21
505.199	342.45
505.632	319.04
506.064	293.3
506.497	312.02
506.93	307.34
507.362	382.24
507.795	361.17
508.227	316.7
508.66	358.83
509.092	361.17
509.524	300.32
509.956	283.94
510.389	286.28
510.821	288.62
511.253	358.83
511.685	305
512.117	344.79
512.549	312.02
512.981	379.9
513.412	344.79
513.844	265.21
514.276	258.19
514.707	260.53
515.139	340.11
515.571	281.6
516.002	316.7
516.433	288.62
516.865	286.28
517.296	344.79
517.727	337.77
518.159	333.09
518.59	347.13
519.021	363.51
519.452	290.96
519.883	347.13
520.314	354.15
520.744	328.41
521.175	290.96
521.606	319.04
522.037	309.68
522.467	319.04
522.898	375.22
523.328	337.77
523.759	328.41
524.189	262.87
524.62	375.22
525.05	305
525.48	300.32
525.91	276.91
526.341	295.64
526.771	272.23
527.201	297.98
527.631	300.32
528.061	344.79
528.49	260.53
528.92	314.36
529.35	347.13
529.78	300.32
530.209	347.13
530.639	253.51
531.068	260.53
531.498	281.6
531.927	290.96
532.357	356.49
532.786	347.13
533.215	309.68
533.644	319.04
534.074	328.41
534.503	267.55
534.932	328.41
535.361	342.45
535.79	375.22
536.218	347.13
536.647	312.02
537.076	342.45
537.505	307.34
537.933	422.03
538.362	295.64
538.79	344.79
539.219	354.15
539.647	351.81
540.076	375.22
540.504	316.7
540.932	356.49
541.36	347.13
541.788	288.62
542.217	272.23
542.645	309.68
543.073	262.87
543.5	328.41
543.928	305
544.356	319.04
544.784	351.81
545.211	295.64
545.639	290.96
546.067	316.7
546.494	323.73
546.922	316.7
547.349	293.3
547.776	375.22
548.204	300.32
548.631	335.43
549.058	300.32
549.485	279.26
549.912	328.41
550.339	379.9
550.766	309.68
551.193	365.85
551.62	309.68
552.047	356.49
552.474	344.79
552.9	309.68
553.327	333.09
553.754	319.04
554.18	286.28
554.607	356.49
555.033	375.22
555.459	312.02
555.886	300.32
556.312	251.17
556.738	361.17
557.164	333.09
557.59	279.26
558.016	314.36
558.442	347.13
558.868	316.7
559.294	251.17
559.72	314.36
560.145	307.34
560.571	319.04
560.997	323.73
561.422	309.68
561.848	326.07
562.273	365.85
562.699	258.19
563.124	307.34
563.549	370.54
563.974	323.73
564.4	300.32
564.825	363.51
565.25	300.32
565.675	288.62
566.1	326.07
566.525	305
566.95	328.41
567.374	375.22
567.799	333.09
568.224	309.68
568.648	293.3
569.073	276.91
569.497	347.13
569.922	326.07
570.346	281.6
570.771	316.7
571.195	269.89
571.619	370.54
572.043	314.36
572.467	309.68
572.891	351.81
573.315	300.32
573.739	279.26
574.163	321.38
574.587	370.54
575.011	354.15
575.435	300.32
575.858	314.36
576.282	335.43
576.705	307.34
577.129	319.04
577.552	253.51
577.976	312.02
578.399	290.96
578.822	244.15
579.245	333.09
579.669	370.54
580.092	316.7
580.515	384.58
580.938	342.45
581.361	405.64
581.784	316.7
582.206	319.04
582.629	220.74
583.052	288.62
583.474	372.88
583.897	333.09
584.32	347.13
584.742	283.94
585.165	309.68
585.587	272.23
586.009	316.7
586.431	351.81
586.854	297.98
587.276	305
587.698	337.77
588.12	309.68
588.542	297.98
588.964	295.64
589.386	297.98
589.807	323.73
590.229	337.77
590.651	314.36
591.073	344.79
591.494	276.91
591.916	307.34
592.337	356.49
592.759	288.62
593.18	281.6
593.601	307.34
594.022	314.36
594.444	230.1
594.865	319.04
595.286	305
595.707	323.73
596.128	326.07
596.549	340.11
596.97	361.17
597.39	344.79
597.811	283.94
598.232	314.36
598.652	307.34
599.073	368.2
599.494	305
599.914	321.38
600.334	330.75
600.755	314.36
601.175	302.66
601.595	344.79
602.015	293.3
602.436	335.43
602.856	372.88
603.276	321.38
603.696	202.02
604.115	297.98
604.535	300.32
604.955	319.04
605.375	335.43
605.794	372.88
606.214	309.68
606.634	300.32
607.053	309.68
607.473	375.22
607.892	300.32
608.311	290.96
608.731	319.04
609.15	323.73
609.569	309.68
609.988	365.85
610.407	309.68
610.826	323.73
611.245	316.7
611.664	323.73
612.083	290.96
612.501	309.68
612.92	340.11
613.339	253.51
613.757	349.47
614.176	342.45
614.594	337.77
615.013	279.26
615.431	365.85
615.85	307.34
616.268	279.26
616.686	319.04
617.104	300.32
617.522	347.13
617.94	337.77
618.358	333.09
618.776	309.68
619.194	319.04
619.612	314.36
620.03	305
620.447	279.26
620.865	361.17
621.282	276.91
621.7	326.07
622.117	316.7
622.535	281.6
622.952	321.38
623.369	241.81
623.787	300.32
624.204	305
624.621	286.28
625.038	326.07
625.455	309.68
625.872	365.85
626.289	279.26
626.706	326.07
627.123	328.41
627.539	361.17
627.956	300.32
628.373	319.04
628.789	337.77
629.206	333.09
629.622	279.26
630.038	319.04
630.455	309.68
630.871	309.68
631.287	321.38
631.703	305
632.12	333.09
632.536	309.68
632.952	356.49
633.368	400.96
633.783	302.66
634.199	344.79
634.615	286.28
635.031	333.09
635.446	272.23
635.862	335.43
636.277	365.85
636.693	321.38
637.108	335.43
637.524	328.41
637.939	389.26
638.354	361.17
638.77	307.34
639.185	319.04
639.6	295.64
640.015	335.43
640.43	283.94
640.845	295.64
641.259	361.17
641.674	274.57
642.089	389.26
642.504	330.75
642.918	302.66
643.333	335.43
643.747	330.75
644.162	326.07
644.576	372.88
644.991	330.75
645.405	286.28
645.819	293.3
646.233	319.04
646.647	356.49
647.061	260.53
647.475	312.02
647.889	382.24
648.303	323.73
648.717	262.87
649.131	328.41
649.545	377.56
649.958	337.77
650.372	349.47
650.785	347.13
651.199	337.77
651.612	344.79
652.026	272.23
652.439	321.38
652.852	309.68
653.266	351.81
653.679	272.23
654.092	290.96
654.505	358.83
654.918	379.9
655.331	312.02
655.744	267.55
656.156	351.81
656.569	340.11
656.982	279.26
657.394	340.11
657.807	283.94
658.22	372.88
658.632	344.79
659.044	347.13
659.457	340.11
659.869	321.38
660.281	244.15
660.693	267.55
661.106	356.49
661.518	283.94
661.93	344.79
662.342	323.73
662.754	340.11
663.165	328.41
663.577	307.34
663.989	323.73
664.401	321.38
664.812	335.43
665.224	356.49
665.635	309.68
666.047	302.66
666.458	297.98
666.869	375.22
667.281	384.58
667.692	323.73
668.103	265.21
668.514	370.54
668.925	305
669.336	272.23
669.747	251.17
670.158	312.02
670.569	312.02
670.979	237.13
671.39	276.91
671.801	281.6
672.211	344.79
672.622	340.11
673.032	326.07
673.443	368.2
673.853	356.49
674.263	314.36
674.674	340.11
675.084	314.36
675.494	288.62
675.904	328.41
676.314	283.94
676.724	312.02
677.134	265.21
677.544	333.09
677.953	337.77
678.363	274.57
678.773	405.64
679.182	363.51
679.592	321.38
680.001	305
680.411	335.43
680.82	302.66
681.23	276.91
681.639	391.6
682.048	297.98
682.457	286.28
682.866	358.83
683.275	274.57
683.684	347.13
684.093	286.28
684.502	265.21
684.911	358.83
685.32	297.98
685.728	295.64
686.137	293.3
686.546	297.98
686.954	368.2
687.363	319.04
687.771	279.26
688.179	344.79
688.588	403.3
688.996	316.7
689.404	319.04
689.812	262.87
690.22	290.96
690.628	328.41
691.036	370.54
691.444	347.13
691.852	305
692.26	314.36
692.667	361.17
693.075	297.98
693.483	328.41
693.89	302.66
694.298	312.02
694.705	316.7
695.112	365.85
695.52	337.77
695.927	316.7
696.334	321.38
696.741	272.23
697.148	258.19
697.555	309.68
697.962	300.32
698.369	400.96
698.776	281.6
699.183	297.98
699.59	347.13
699.996	258.19
700.403	300.32
700.81	295.64
701.216	272.23
701.623	323.73
702.029	255.85
702.435	305
702.842	279.26
703.248	305
703.654	335.43
704.06	330.75
704.466	349.47
704.872	319.04
705.278	340.11
705.684	347.13
706.09	386.92
706.496	283.94
706.901	225.42
707.307	274.57
707.712	300.32
708.118	326.07
708.523	344.79
708.929	295.64
709.334	326.07
709.74	342.45
710.145	323.73
710.55	370.54
710.955	372.88
711.36	361.17
711.765	358.83
712.17	335.43
712.575	302.66
712.98	810.56
713.385	316.7
713.789	260.53
714.194	300.32
714.599	349.47
715.003	358.83
715.408	300.32
715.812	337.77
716.217	262.87
716.621	283.94
717.025	307.34
717.429	276.91
717.833	342.45
718.238	328.41
718.642	293.3
719.046	300.32
719.449	312.02
719.853	330.75
720.257	328.41
720.661	223.08
721.065	309.68
721.468	297.98
721.872	344.79
722.275	309.68
722.679	267.55
723.082	314.36
723.485	286.28
723.889	333.09
724.292	309.68
724.695	340.11
725.098	358.83
725.501	330.75
725.904	297.98
726.307	286.28
726.71	307.34
727.113	316.7
727.516	307.34
727.918	333.09
728.321	340.11
728.724	272.23
729.126	309.68
729.529	333.09
729.931	396.28
730.333	354.15
730.736	347.13
731.138	328.41
731.54	312.02
731.942	302.66
732.344	333.09
732.746	328.41
733.148	342.45
733.55	297.98
733.952	344.79
734.354	340.11
734.756	276.91
735.157	297.98
735.559	286.28
735.96	328.41
736.362	312.02
736.763	340.11
737.165	333.09
737.566	335.43
737.967	267.55
738.368	354.15
738.77	321.38
739.171	307.34
739.572	276.91
739.973	330.75
740.374	361.17
740.774	283.94
741.175	342.45
741.576	293.3
741.977	316.7
742.377	330.75
742.778	251.17
743.178	288.62
743.579	293.3
743.979	328.41
744.379	316.7
744.78	323.73
745.18	286.28
745.58	335.43
745.98	370.54
746.38	333.09
746.78	297.98
747.18	302.66
747.58	351.81
747.98	330.75
748.38	433.73
748.779	337.77
749.179	312.02
749.578	307.34
749.978	297.98
750.377	316.7
750.777	314.36
751.176	288.62
751.575	267.55
751.975	337.77
752.374	328.41
752.773	316.7
753.172	300.32
753.571	307.34
753.97	258.19
754.369	347.13
754.768	309.68
755.166	300.32
755.565	365.85
755.964	297.98
756.362	337.77
756.761	407.98
757.159	309.68
757.558	379.9
757.956	300.32
758.354	333.09
758.753	335.43
759.151	305
759.549	302.66
759.947	300.32
760.345	312.02
760.743	239.47
761.141	297.98
761.539	321.38
761.936	290.96
762.334	363.51
762.732	312.02
763.129	272.23
763.527	288.62
763.924	342.45
764.322	337.77
764.719	297.98
765.117	356.49
765.514	342.45
765.911	251.17
766.308	342.45
766.705	342.45
767.102	314.36
