Data from Al_FLMS009871__609__14-47-56-714.txt Node

Date: Fri Mar 08 14:47:56 CST 2024
User: pe5414po
Spectrometer: FLMS00987
Trigger mode: 0
Integration Time (sec): 1.000000E-1
Scans to average: 1
Electric dark correction enabled: true
Nonlinearity correction enabled: false
Boxcar width: 0
XAxis mode: Wavelengths
Number of Pixels in Spectrum: 2048
>>>>>Begin Spectral Data<<<<<
188.938	-63.78
189.409	-63.78
189.879	-63.78
190.349	-89.53
190.819	-31.01
191.29	-61.44
191.76	-105.91
192.23	-47.4
192.7	-96.55
193.17	-49.74
193.64	-35.69
194.109	-21.65
194.579	-23.99
195.049	-59.1
195.519	29.84
195.988	8.78
196.458	109.42
196.927	67.29
197.397	104.74
197.866	107.08
198.336	74.31
198.805	221.77
199.274	172.61
199.744	158.57
200.213	310.71
200.682	242.83
201.151	193.68
201.62	254.53
202.089	284.96
202.558	336.45
203.027	256.87
203.495	334.11
203.964	359.86
204.433	371.56
204.902	341.13
205.37	366.88
205.839	329.43
206.307	366.88
206.776	399.65
207.244	371.56
207.712	406.67
208.181	359.86
208.649	406.67
209.117	451.14
209.585	427.73
210.053	465.18
210.521	479.22
210.989	535.4
211.457	570.51
211.925	643.06
212.393	657.11
212.861	692.21
213.328	720.3
213.796	724.98
214.264	675.83
214.731	743.71
215.199	781.15
215.666	870.09
216.133	984.78
216.601	1150.96
217.068	1134.57
217.535	1396.71
218.003	1469.27
218.47	1455.23
218.937	1483.31
219.404	1422.46
219.871	1530.13
220.338	1464.59
220.805	1569.91
221.271	1602.68
221.738	1619.07
222.205	1546.51
222.671	1757.16
223.138	1981.85
223.605	1871.84
224.071	1712.69
224.538	1773.54
225.004	1920.99
225.47	1953.76
225.937	1829.71
226.403	1768.86
226.869	1602.68
227.335	1511.4
227.801	1485.66
228.267	1532.47
228.733	1619.07
229.199	1637.79
229.665	1832.05
230.131	1794.61
230.597	1963.12
231.062	1918.65
231.528	1825.03
231.994	1686.94
232.459	1630.77
232.925	1649.49
233.39	1740.77
233.856	1801.63
234.321	2059.09
234.786	2719.12
235.252	3786.4
235.717	5054.97
236.182	5623.72
236.647	4947.31
237.112	3418.94
237.577	2206.54
238.042	1909.29
238.507	1705.67
238.972	1555.87
239.436	1422.46
239.901	1551.19
240.366	1394.37
240.83	1553.53
241.295	1469.27
241.76	1478.63
242.224	1509.06
242.688	1614.38
243.153	1586.3
243.617	1539.49
244.081	1609.7
244.545	1633.11
245.01	1677.58
245.474	1766.52
245.938	1700.98
246.402	1605.02
246.866	1560.55
247.33	1614.38
247.793	1569.91
248.257	1555.87
248.721	1616.73
249.185	1537.15
249.648	1523.1
250.112	1555.87
250.575	1436.5
251.039	1551.19
251.502	1562.89
251.965	1560.55
252.429	1633.11
252.892	1771.2
253.355	1621.41
253.818	1581.62
254.281	1771.2
254.744	1925.68
255.207	2208.88
255.67	2620.81
256.133	3337.02
256.596	3781.72
257.059	3535.96
257.522	2990.62
257.984	2372.72
258.447	2155.05
258.909	2335.27
259.372	2286.12
259.834	2173.77
260.297	2258.03
260.759	2236.97
261.221	2356.33
261.684	2756.57
262.146	3645.97
262.608	3711.5
263.07	3458.73
263.532	2744.86
263.994	2632.52
264.456	2590.39
264.918	2407.83
265.38	2618.47
265.842	2260.37
266.303	2007.59
266.765	1738.43
267.227	1675.24
267.688	1616.73
268.15	1668.22
268.611	1518.42
269.072	1616.73
269.534	1628.43
269.995	1654.17
270.456	1572.25
270.918	1586.3
271.379	1574.6
271.84	1497.36
272.301	1518.42
272.762	1623.75
273.223	1495.02
273.684	1450.55
274.144	1544.17
274.605	1511.4
275.066	1532.47
275.527	1668.22
275.987	1726.73
276.448	2012.28
276.908	2384.42
277.369	2969.55
277.829	4928.58
278.289	8577.48
278.75	12371.49
279.21	13759.42
279.67	11351.01
280.13	8315.34
280.59	6375.03
281.05	5609.68
281.51	4841.98
281.97	3526.6
282.43	2452.3
282.89	1974.83
283.35	1778.22
283.809	1867.16
284.269	2117.6
284.729	2279.1
285.188	1993.55
285.648	1661.2
286.107	1588.64
286.567	1581.62
287.026	1480.97
287.485	1516.08
287.944	1406.08
288.404	1424.8
288.863	1375.65
289.322	1399.06
289.781	1431.82
290.24	1497.36
290.699	1497.36
291.158	1590.98
291.616	1626.09
292.075	1956.1
292.534	1998.23
292.992	2176.11
293.451	2031
293.91	1911.63
294.368	1689.28
294.827	1630.77
295.285	1387.35
295.743	1356.93
296.202	1361.61
296.66	1289.05
297.118	1300.75
297.576	1394.37
298.034	1286.71
298.492	1232.88
298.95	1242.24
299.408	1291.39
299.866	1352.24
300.324	1429.48
300.781	1340.54
301.239	1382.67
301.697	1450.55
302.154	1485.66
302.612	1509.06
303.069	1595.66
303.527	1747.8
303.984	1909.29
304.441	2393.78
304.899	2971.9
305.356	3395.53
305.813	3325.32
306.27	3098.28
306.727	3400.21
307.184	4621.97
307.641	6461.63
308.098	7933.83
308.555	9530.08
309.012	8818.55
309.468	7051.45
309.925	4076.63
310.382	2468.68
310.838	2007.59
311.295	1745.45
311.751	1581.62
312.208	1527.78
312.664	1443.53
313.12	1452.89
313.577	1363.95
314.033	1324.16
314.489	1305.43
314.945	1221.17
315.401	1207.13
315.857	1246.92
316.313	1209.47
316.769	1275.01
317.225	1172.02
317.681	1202.45
318.136	1207.13
318.592	1235.22
319.048	1211.81
319.503	1244.58
319.959	1115.85
320.414	1216.49
320.869	1179.04
321.325	1157.98
321.78	1197.77
322.235	1160.32
322.691	1179.04
323.146	1165
323.601	1293.73
324.056	1516.08
324.511	1722.05
324.966	1586.3
325.421	1424.8
325.875	1291.39
326.33	1282.03
326.785	1408.42
327.24	1579.28
327.694	1506.72
328.149	1296.07
328.603	1118.19
329.058	1129.89
329.512	1083.08
329.966	1183.73
330.421	1106.49
330.875	1073.72
331.329	1256.28
331.783	1157.98
332.237	1232.88
332.691	1272.67
333.145	1256.28
333.599	1427.14
334.053	1307.77
334.507	1265.64
334.96	1282.03
335.414	1258.62
335.868	1214.15
336.321	1228.2
336.775	1225.86
337.228	1188.41
337.682	1214.15
338.135	1223.52
338.588	1211.81
339.042	1188.41
339.495	1108.83
339.948	1195.43
340.401	1097.13
340.854	1167.34
341.307	1150.96
341.76	1153.3
342.213	1120.53
342.666	1174.36
343.119	1181.39
343.571	1286.71
344.024	1300.75
344.477	1251.6
344.929	1181.39
345.382	1183.73
345.834	1200.11
346.287	1277.35
346.739	1153.3
347.191	1291.39
347.644	1218.83
348.096	1244.58
348.548	1303.09
349	1216.49
349.452	1174.36
349.904	1324.16
350.356	1324.16
350.808	1296.07
351.26	1244.58
351.711	1289.05
352.163	1307.77
352.615	1265.64
353.066	1476.29
353.518	1342.88
353.969	1452.89
354.421	1509.06
354.872	1553.53
355.324	1799.29
355.775	2005.25
356.226	2152.71
356.677	2499.11
357.128	3084.24
357.579	3884.7
358.03	4834.96
358.481	5771.18
358.932	5686.92
359.383	4598.57
359.834	3725.55
360.285	3334.68
360.735	2992.96
361.186	2641.88
361.637	2466.34
362.087	2185.48
362.538	1895.25
362.988	1626.09
363.438	1595.66
363.889	1466.93
364.339	1396.71
364.789	1396.71
365.239	1232.88
365.689	1373.31
366.139	1279.69
366.589	1352.24
367.039	1310.11
367.489	1270.33
367.939	1218.83
368.389	1223.52
368.839	1275.01
369.288	1169.68
369.738	1228.2
370.187	1179.04
370.637	1218.83
371.086	1277.35
371.536	1375.65
371.985	1380.33
372.434	1319.48
372.884	1267.99
373.333	1214.15
373.782	1324.16
374.231	1265.64
374.68	1225.86
375.129	1176.7
375.578	1200.11
376.027	1218.83
376.475	1155.64
376.924	1104.15
377.373	1148.62
377.822	1150.96
378.27	1104.15
378.719	1106.49
379.167	1202.45
379.616	1097.13
380.064	1174.36
380.512	1165
380.961	1160.32
381.409	1186.07
381.857	1356.93
382.305	1443.53
382.753	1490.34
383.201	1651.83
383.649	1780.56
384.097	1693.96
384.545	1469.27
384.992	1314.8
385.44	1354.59
385.888	1193.09
386.335	1258.62
386.783	1267.99
387.231	1200.11
387.678	1125.21
388.125	1139.26
388.573	1181.39
389.02	1143.94
389.467	1165
389.914	1207.13
390.362	1223.52
390.809	1277.35
391.256	1324.16
391.703	1377.99
392.15	1342.88
392.596	1490.34
393.043	1799.29
393.49	2094.19
393.937	3346.38
394.383	5085.4
394.83	6309.5
395.276	5176.68
395.723	5272.64
396.169	7299.55
396.616	7961.92
397.062	5363.92
397.508	2939.13
397.954	1979.51
398.401	1766.52
398.847	1682.26
399.293	1698.64
399.739	1661.2
400.185	1509.06
400.631	1476.29
401.076	1434.16
401.522	1406.08
401.968	1373.31
402.414	1328.84
402.859	1401.4
403.305	1483.31
403.75	1450.55
404.196	1382.67
404.641	1338.2
405.086	1312.46
405.532	1326.5
405.977	1263.3
406.422	1321.82
406.867	1305.43
407.312	1244.58
407.757	1438.84
408.202	1347.56
408.647	1253.94
409.092	1279.69
409.537	1239.9
409.982	1293.73
410.426	1258.62
410.871	1338.2
411.316	1260.96
411.76	1251.6
412.205	1193.09
412.649	1303.09
413.093	1183.73
413.538	1204.79
413.982	1289.05
414.426	1172.02
414.87	1258.62
415.314	1223.52
415.758	1270.33
416.202	1167.34
416.646	1239.9
417.09	1101.81
417.534	1284.37
417.978	1162.66
418.421	1195.43
418.865	1195.43
419.309	1246.92
419.752	1296.07
420.196	1221.17
420.639	1209.47
421.083	1200.11
421.526	1193.09
421.969	1181.39
422.412	1218.83
422.856	1211.81
423.299	1165
423.742	1125.21
424.185	1291.39
424.628	1258.62
425.071	1242.24
425.513	1209.47
425.956	1221.17
426.399	1052.66
426.842	1036.27
427.284	1022.23
427.727	1235.22
428.169	1092.45
428.612	1106.49
429.054	1036.27
429.497	1062.02
429.939	977.76
430.381	1120.53
430.823	1029.25
431.265	1064.36
431.707	1111.17
432.149	1092.45
432.591	1026.91
433.033	1094.79
433.475	1036.27
433.917	1031.59
434.359	1157.98
434.8	1115.85
435.242	1099.47
435.684	1101.81
436.125	1146.28
436.567	1078.4
437.008	1085.42
437.449	1087.76
437.891	1045.63
438.332	1120.53
438.773	1085.42
439.214	1024.57
439.656	1113.51
440.097	1120.53
440.538	1115.85
440.978	1193.09
441.419	1176.7
441.86	1235.22
442.301	1195.43
442.742	1188.41
443.182	1260.96
443.623	1256.28
444.063	1235.22
444.504	1368.63
444.944	1375.65
445.385	1307.77
445.825	1328.84
446.265	1282.03
446.706	1282.03
447.146	1403.74
447.586	1331.18
448.026	1488
448.466	1464.59
448.906	1436.5
449.346	1422.46
449.786	1450.55
450.225	1403.74
450.665	1349.9
451.105	1354.59
451.544	1455.23
451.984	1483.31
452.424	1431.82
452.863	1544.17
453.302	1499.7
453.742	1598
454.181	1490.34
454.62	1520.76
455.059	1441.18
455.499	1483.31
455.938	1270.33
456.377	1347.56
456.816	1270.33
457.254	1239.9
457.693	1167.34
458.132	1181.39
458.571	1169.68
459.01	1195.43
459.448	1200.11
459.887	1209.47
460.325	1193.09
460.764	1244.58
461.202	1125.21
461.641	1244.58
462.079	1197.77
462.517	1228.2
462.955	1282.03
463.393	1310.11
463.832	1267.99
464.27	1328.84
464.708	1375.65
465.145	1385.01
465.583	1352.24
466.021	1448.21
466.459	1464.59
466.897	1642.47
467.334	1656.51
467.772	1583.96
468.209	1377.99
468.647	1298.41
469.084	1232.88
469.522	1211.81
469.959	1080.74
470.396	1193.09
470.833	1195.43
471.271	1190.75
471.708	1092.45
472.145	1111.17
472.582	1176.7
473.019	1083.08
473.456	1104.15
473.892	1111.17
474.329	1167.34
474.766	1050.32
475.202	1115.85
475.639	1094.79
476.076	1134.57
476.512	1176.7
476.949	1263.3
477.385	1179.04
477.821	1104.15
478.258	1188.41
478.694	1162.66
479.13	1160.32
479.566	1183.73
480.002	1165
480.438	1174.36
480.874	1253.94
481.31	1174.36
481.746	1232.88
482.181	1237.56
482.617	1242.24
483.053	1094.79
483.488	1242.24
483.924	1260.96
484.36	1221.17
484.795	1246.92
485.23	1282.03
485.666	1270.33
486.101	1237.56
486.536	1298.41
486.971	1305.43
487.407	1272.67
487.842	1279.69
488.277	1221.17
488.712	1223.52
489.146	1246.92
489.581	1300.75
490.016	1237.56
490.451	1181.39
490.885	1298.41
491.32	1239.9
491.755	1165
492.189	1258.62
492.624	1235.22
493.058	1237.56
493.492	1157.98
493.927	1218.83
494.361	1256.28
494.795	1207.13
495.229	1146.28
495.663	1214.15
496.097	1300.75
496.531	1296.07
496.965	1267.99
497.399	1307.77
497.833	1195.43
498.266	1244.58
498.7	1349.9
499.134	1368.63
499.567	1518.42
500.001	1616.73
500.434	1731.41
500.868	1871.84
501.301	1871.84
501.734	1745.45
502.168	1640.13
502.601	1488
503.034	1380.33
503.467	1286.71
503.9	1345.22
504.333	1282.03
504.766	1347.56
505.199	1415.44
505.632	1513.74
506.064	1401.4
506.497	1258.62
506.93	1319.48
507.362	1342.88
507.795	1377.99
508.227	1293.73
508.66	1293.73
509.092	1155.64
509.524	1172.02
509.956	1258.62
510.389	1202.45
510.821	1207.13
511.253	1284.37
511.685	1277.35
512.117	1223.52
512.549	1270.33
512.981	1188.41
513.412	1282.03
513.844	1134.57
514.276	1265.64
514.707	1284.37
515.139	1282.03
515.571	1338.2
516.002	1413.1
516.433	1356.93
516.865	1352.24
517.296	1469.27
517.727	1539.49
518.159	1665.88
518.59	1665.88
519.021	1551.19
519.452	1619.07
519.883	1532.47
520.314	1380.33
520.744	1310.11
521.175	1326.5
521.606	1413.1
522.037	1509.06
522.467	1527.78
522.898	1488
523.328	1434.16
523.759	1502.04
524.189	1511.4
524.62	1539.49
525.05	1539.49
525.48	1576.94
525.91	1738.43
526.341	1818.01
526.771	1832.05
527.201	2098.88
527.631	2248.67
528.061	2356.33
528.49	2756.57
528.92	3236.38
529.35	4184.29
529.78	8870.05
530.209	40713.03
530.639	63037.06
531.068	63037.06
531.498	63037.06
531.927	63037.06
532.357	63037.06
532.786	63037.06
533.215	63037.06
533.644	63037.06
534.074	59055.81
534.503	19779.28
534.932	9743.07
535.361	6023.95
535.79	4165.57
536.218	3262.12
536.647	3016.37
537.076	2515.49
537.505	2234.63
537.933	1965.46
538.362	1789.92
538.79	1506.72
539.219	1345.22
539.647	1289.05
540.076	1272.67
540.504	1310.11
540.932	1183.73
541.36	1218.83
541.788	1125.21
542.217	1118.19
542.645	1043.29
543.073	1134.57
543.5	1104.15
543.928	1047.97
544.356	1059.68
544.784	1078.4
545.211	1066.7
545.639	1071.38
546.067	1085.42
546.494	1019.89
546.922	940.31
547.349	959.03
547.776	975.42
548.204	973.08
548.631	1038.61
549.058	1069.04
549.485	980.1
549.912	954.35
550.339	1062.02
550.766	940.31
551.193	921.59
551.62	952.01
552.047	1029.25
552.474	1008.19
552.9	1012.87
553.327	994.14
553.754	1055
554.18	987.12
554.607	1055
555.033	954.35
555.459	987.12
555.886	961.38
556.312	998.82
556.738	966.06
557.164	987.12
557.59	966.06
558.016	984.78
558.442	952.01
558.868	888.82
559.294	1064.36
559.72	1047.97
560.145	1005.85
560.571	1087.76
560.997	1155.64
561.422	966.06
561.848	856.05
562.273	966.06
562.699	940.31
563.124	970.74
563.549	982.44
563.974	984.78
564.4	1001.16
564.825	989.46
565.25	1045.63
565.675	1010.53
566.1	1076.06
566.525	1090.1
566.95	1153.3
567.374	1073.72
567.799	1249.26
568.224	1258.62
568.648	1377.99
569.073	1282.03
569.497	1321.82
569.922	1284.37
570.346	1359.27
570.771	1188.41
571.195	1253.94
571.619	1207.13
572.043	1169.68
572.467	1062.02
572.891	1099.47
573.315	1057.34
573.739	982.44
574.163	963.72
574.587	956.69
575.011	849.03
575.435	898.18
575.858	893.5
576.282	818.6
576.705	898.18
577.129	867.75
577.552	757.75
577.976	797.54
578.399	778.81
578.822	842.01
579.245	764.77
579.669	818.6
580.092	743.71
580.515	724.98
580.938	706.26
581.361	792.86
581.784	778.81
582.206	760.09
582.629	792.86
583.052	750.73
583.474	722.64
583.897	668.81
584.32	729.66
584.742	746.05
585.165	692.21
585.587	678.17
586.009	671.15
586.431	743.71
586.854	713.28
587.276	659.45
587.698	675.83
588.12	699.24
588.542	694.55
588.964	701.58
589.386	741.36
589.807	631.36
590.229	689.87
590.651	715.62
591.073	701.58
591.494	748.39
591.916	680.51
592.337	802.22
592.759	783.49
593.18	743.71
593.601	856.05
594.022	769.45
594.444	732
594.865	769.45
595.286	802.22
595.707	732
596.128	757.75
596.549	687.53
596.97	654.76
597.39	741.36
597.811	692.21
598.232	678.17
598.652	741.36
599.073	701.58
599.494	710.94
599.914	692.21
600.334	675.83
600.755	626.68
601.175	631.36
601.595	645.4
602.015	645.4
602.436	706.26
602.856	837.33
603.276	638.38
603.696	645.4
604.115	682.85
604.535	703.92
604.955	633.7
605.375	668.81
605.794	668.81
606.214	678.17
606.634	668.81
607.053	741.36
607.473	732
607.892	755.41
608.311	596.25
608.731	713.28
609.15	706.26
609.569	696.89
609.988	661.79
610.407	778.81
610.826	696.89
611.245	736.68
611.664	708.6
612.083	741.36
612.501	734.34
612.92	675.83
613.339	629.02
613.757	746.05
614.176	682.85
614.594	722.64
615.013	682.85
615.431	687.53
615.85	643.06
616.268	720.3
616.686	739.02
617.104	668.81
617.522	629.02
617.94	633.7
618.358	706.26
618.776	650.08
619.194	675.83
619.612	682.85
620.03	689.87
620.447	689.87
620.865	666.47
621.282	757.75
621.7	734.34
622.117	760.09
622.535	755.41
622.952	781.15
623.369	912.22
623.787	858.39
624.204	888.82
624.621	919.25
625.038	1069.04
625.455	1026.91
625.872	1050.32
626.289	1015.21
626.706	930.95
627.123	935.63
627.539	970.74
627.956	888.82
628.373	834.99
628.789	806.9
629.206	762.43
629.622	760.09
630.038	687.53
630.455	710.94
630.871	715.62
631.287	699.24
631.703	607.95
632.12	680.51
632.536	579.87
632.952	614.98
633.368	610.29
633.783	692.21
634.199	675.83
634.615	645.4
635.031	577.53
635.446	589.23
635.862	593.91
636.277	584.55
636.693	509.65
637.108	554.12
637.524	631.36
637.939	554.12
638.354	507.31
638.77	586.89
639.185	570.51
639.6	591.57
640.015	551.78
640.43	556.46
640.845	577.53
641.259	565.82
641.674	551.78
642.089	514.33
642.504	479.22
642.918	483.91
643.333	544.76
643.747	547.1
644.162	551.78
644.576	556.46
644.991	526.04
645.405	565.82
645.819	460.5
646.233	504.97
646.647	540.08
647.061	542.42
647.475	558.8
647.889	528.38
648.303	519.01
648.717	586.89
649.131	570.51
649.545	488.59
649.958	526.04
650.372	610.29
650.785	563.48
651.199	551.78
651.612	533.06
652.026	561.14
652.439	519.01
652.852	467.52
653.266	570.51
653.679	533.06
654.092	523.69
654.505	526.04
654.918	523.69
655.331	556.46
655.744	509.65
656.156	537.74
656.569	561.14
656.982	547.1
657.394	554.12
657.807	596.25
658.22	610.29
658.632	542.42
659.044	610.29
659.457	519.01
659.869	549.44
660.281	509.65
660.693	575.19
661.106	556.46
661.518	526.04
661.93	493.27
662.342	521.35
662.754	535.4
663.165	540.08
663.577	490.93
663.989	521.35
664.401	554.12
664.812	504.97
665.224	488.59
665.635	488.59
666.047	502.63
666.458	430.07
666.869	495.61
667.281	504.97
667.692	509.65
668.103	507.31
668.514	533.06
668.925	514.33
669.336	411.35
669.747	474.54
670.158	453.48
670.569	504.97
670.979	462.84
671.39	472.2
671.801	483.91
672.211	455.82
672.622	462.84
673.032	460.5
673.443	460.5
673.853	441.78
674.263	479.22
674.674	474.54
675.084	467.52
675.494	453.48
675.904	472.2
676.314	458.16
676.724	432.41
677.134	462.84
677.544	474.54
677.953	469.86
678.363	500.29
678.773	486.25
679.182	423.05
679.592	399.65
680.001	462.84
680.411	465.18
680.82	430.07
681.23	462.84
681.639	399.65
682.048	404.33
682.457	441.78
682.866	458.16
683.275	418.37
683.684	479.22
684.093	406.67
684.502	458.16
684.911	528.38
685.32	483.91
685.728	420.71
686.137	427.73
686.546	458.16
686.954	437.1
687.363	483.91
687.771	411.35
688.179	446.46
688.588	462.84
688.996	488.59
689.404	385.6
689.812	467.52
690.22	427.73
690.628	465.18
691.036	416.03
691.444	467.52
691.852	458.16
692.26	460.5
692.667	390.28
693.075	469.86
693.483	467.52
693.89	467.52
694.298	481.57
694.705	446.46
695.112	453.48
695.52	448.8
695.927	420.71
696.334	465.18
696.741	437.1
697.148	409.01
697.555	453.48
697.962	453.48
698.369	432.41
698.776	479.22
699.183	413.69
699.59	404.33
699.996	404.33
700.403	467.52
700.81	439.44
701.216	448.8
701.623	430.07
702.029	444.12
702.435	481.57
702.842	542.42
703.248	523.69
703.654	626.68
704.06	610.29
704.466	647.74
704.872	626.68
705.278	640.72
705.684	617.32
706.09	589.23
706.496	659.45
706.901	537.74
707.307	497.95
707.712	448.8
708.118	476.88
708.523	418.37
708.929	474.54
709.334	453.48
709.74	453.48
710.145	444.12
710.55	418.37
710.955	441.78
711.36	404.33
711.765	418.37
712.17	451.14
712.575	497.95
712.98	884.14
713.385	416.03
713.789	427.73
714.194	448.8
714.599	397.31
715.003	371.56
715.408	409.01
715.812	413.69
716.217	444.12
716.621	376.24
717.025	357.52
717.429	320.07
717.833	364.54
718.238	385.6
718.642	378.58
719.046	369.22
719.449	341.13
719.853	383.26
720.257	373.9
720.661	390.28
721.065	343.47
721.468	446.46
721.872	350.5
722.275	373.9
722.679	394.97
723.082	404.33
723.485	409.01
723.889	352.84
724.292	411.35
724.695	420.71
725.098	397.31
725.501	366.88
725.904	409.01
726.307	486.25
726.71	359.86
727.113	296.66
727.516	392.62
727.918	310.71
728.321	401.99
728.724	376.24
729.126	338.79
729.529	341.13
729.931	411.35
730.333	392.62
730.736	369.22
731.138	373.9
731.54	329.43
731.942	420.71
732.344	401.99
732.746	329.43
733.148	350.5
733.55	383.26
733.952	350.5
734.354	369.22
734.756	392.62
735.157	338.79
735.559	317.73
735.96	371.56
736.362	409.01
736.763	392.62
737.165	355.18
737.566	369.22
737.967	380.92
738.368	394.97
738.77	359.86
739.171	350.5
739.572	371.56
739.973	334.11
740.374	378.58
740.774	423.05
741.175	409.01
741.576	352.84
741.977	385.6
742.377	399.65
742.778	364.54
743.178	399.65
743.579	427.73
743.979	373.9
744.379	366.88
